Experiment	bias spectroscopy	
Date	19.01.2016 22:19:26	
User		
X (m)	49.4418E-9	
Y (m)	257.391E-9	
Z (m)	-132.574E-9	
Z offset (m)	0E+0	
Settling time (s)	200E-6	
Integration time (s)	5E-3	
Z-Ctrl hold	TRUE	
Final Z (m)	N/A	
Filter type	None	
Order		
Cutoff frq		
Comment01	MnPc/Pb(111)	
Comment02	dz =00pm	
Comment03	7 Sweeps	
Comment04	MagField =0.T	
Comment05	Divider 1:10	
Comment06	Setpoint:5mV,200 pA	
Comment07	Lockin: 50uVrms,5ms,5mV	
Comment08	Gain:9; 912Hz modulation	
Comment09	T=1.06K	
Bias>Bias (V)	5E-3	
Bias>Calibration (V/V)	81.475E-3	
Bias>Offset (V)	1.046E-3	
Bias Spectroscopy>Sweep Start (V)	5E-3	
Bias Spectroscopy>Sweep End (V)	-5E-3	
Bias Spectroscopy>Num Pixel	2000	
Bias Spectroscopy>Z Avg time (s)	500E-3	
Bias Spectroscopy>Z offset (m)	0E+0	
Bias Spectroscopy>1st Settling time (s)	500E-3	
Bias Spectroscopy>Settling time (s)	200E-6	
Bias Spectroscopy>Integration time (s)	5E-3	
Bias Spectroscopy>End Settling time (s)	500E-3	
Bias Spectroscopy>Z control time (s)	500E-3	
Bias Spectroscopy>Max Slew rate (V/s)	Inf	
Bias Spectroscopy>backward sweep	TRUE	
Bias Spectroscopy>Z-controller hold	TRUE	
Bias Spectroscopy>Number of sweeps	7	
Bias Spectroscopy>Channels	Current (A);X% LockIn (V);Y% LockIn (V)	
Bias Spectroscopy>Reset Bias	TRUE	
Bias Spectroscopy>Record final Z	FALSE	
Bias Spectroscopy>Lock-In run	FALSE	
Bias Spectroscopy>Sweep mode	Linear	
Bias Spectroscopy>MultiLine Settings : Segment Start (V), Segment End (V), Settling (s), Integration (s), Steps (xn)	100E-3,3.3E-3,100E-6,10E-3,2500;3.3E-3,-3.3E-3,100E-6,10E-3,10;-3.3E-3,-100E-3,100E-6,10E-3,2500	
Current>Current (A)	200.027E-12	
Current>Calibration (A/V)	999.99900E-12	
Current>Offset (A)	-455.429E-15	
Current>Gain	LN 10^9	
Z-Controller>Z (m)	-132.574E-9	
Z-Controller>Controller name	log Current	
Z-Controller>Controller status	ON	
Z-Controller>Setpoint	200E-12	
Z-Controller>Setpoint unit	A	
Z-Controller>P gain	2.96994E-12	
Z-Controller>I gain	67.0321E-9	
Z-Controller>Time const (s)	44.3062E-6	
Z-Controller>TipLift (m)	0E+0	
Z-Controller>Switch off delay (s)	50E-3	
Current (A)	199.944E-12	
Z (m)	-132.574E-9	

[DATA]
Bias calc (V)	Current (A)	X% LockIn (V)	Y% LockIn (V)	Current [bwd] (A)	X% LockIn [bwd] (V)	Y% LockIn [bwd] (V)
5.00000E-3	202.470E-12	680.729E-3	-32.2075E-3	201.977E-12	696.192E-3	2.03179E-3
4.99500E-3	201.771E-12	682.584E-3	-25.3166E-3	200.259E-12	676.405E-3	30.0067E-3
4.98999E-3	201.592E-12	674.063E-3	-36.0272E-3	199.157E-12	641.112E-3	54.9413E-3
4.98499E-3	200.257E-12	665.913E-3	-51.5712E-3	199.449E-12	636.968E-3	27.5393E-3
4.97999E-3	199.311E-12	679.130E-3	-60.7909E-3	199.505E-12	647.018E-3	-19.1023E-3
4.97499E-3	198.679E-12	708.265E-3	-65.6357E-3	198.855E-12	671.132E-3	-42.7661E-3
4.96998E-3	198.567E-12	707.785E-3	-68.7655E-3	198.533E-12	677.464E-3	-39.5395E-3
4.96498E-3	198.934E-12	695.637E-3	-51.4915E-3	198.496E-12	649.391E-3	-17.5694E-3
4.95998E-3	198.652E-12	702.590E-3	-39.2518E-3	199.333E-12	637.069E-3	1.19447E-3
4.95498E-3	198.020E-12	725.729E-3	-40.0147E-3	198.917E-12	645.664E-3	-27.7034E-3
4.94997E-3	197.956E-12	717.797E-3	-25.7869E-3	199.029E-12	653.757E-3	-65.3034E-3
4.94497E-3	198.164E-12	657.611E-3	-9.18752E-3	198.089E-12	650.569E-3	-51.9898E-3
4.93997E-3	197.869E-12	614.472E-3	-13.1980E-3	198.483E-12	647.898E-3	-37.1458E-3
4.93497E-3	196.566E-12	626.444E-3	280.125E-6	197.797E-12	658.591E-3	-25.4305E-3
4.92996E-3	196.731E-12	656.451E-3	33.5999E-3	197.005E-12	667.411E-3	-8.71878E-3
4.92496E-3	196.126E-12	666.854E-3	30.3870E-3	196.324E-12	662.560E-3	-17.7012E-3
4.91996E-3	195.679E-12	676.685E-3	-8.11533E-3	196.416E-12	645.882E-3	-28.7635E-3
4.91496E-3	194.689E-12	681.111E-3	-35.4026E-3	196.623E-12	648.844E-3	-32.7999E-3
4.90995E-3	194.168E-12	672.343E-3	-28.2553E-3	196.795E-12	674.057E-3	-41.8376E-3
4.90495E-3	193.491E-12	654.667E-3	-18.7151E-3	196.353E-12	692.056E-3	-24.3072E-3
4.89995E-3	193.476E-12	640.230E-3	-30.7244E-3	195.927E-12	680.468E-3	1.56846E-3
4.89495E-3	192.377E-12	651.478E-3	-46.6818E-3	196.896E-12	656.694E-3	-12.2589E-3
4.88995E-3	192.645E-12	669.575E-3	-51.6890E-3	197.427E-12	649.927E-3	-35.0276E-3
4.88494E-3	192.812E-12	674.959E-3	-46.7565E-3	196.592E-12	627.694E-3	-48.0439E-3
4.87994E-3	193.525E-12	665.548E-3	-29.1881E-3	196.001E-12	604.089E-3	-35.9802E-3
4.87494E-3	193.486E-12	651.305E-3	-22.0073E-3	196.221E-12	624.550E-3	22.2226E-3
4.86993E-3	193.701E-12	653.700E-3	-34.5308E-3	196.698E-12	658.027E-3	56.3758E-3
4.86493E-3	194.239E-12	650.382E-3	-37.2450E-3	196.645E-12	680.025E-3	48.0517E-3
4.85993E-3	194.873E-12	627.910E-3	-15.5512E-3	196.512E-12	696.677E-3	29.1438E-3
4.85493E-3	194.324E-12	634.165E-3	9.89368E-3	196.570E-12	706.002E-3	-4.19175E-3
4.84992E-3	194.604E-12	671.484E-3	1.97200E-3	195.958E-12	713.838E-3	-27.4414E-3
4.84492E-3	193.873E-12	681.559E-3	-15.4139E-3	195.291E-12	686.609E-3	-24.2208E-3
4.83992E-3	193.539E-12	645.358E-3	-19.4915E-3	194.751E-12	644.331E-3	-16.4102E-3
4.83492E-3	194.196E-12	623.820E-3	-31.5182E-3	193.892E-12	642.124E-3	-21.2445E-3
4.82991E-3	194.162E-12	652.717E-3	-27.7242E-3	192.999E-12	651.199E-3	-23.0701E-3
4.82491E-3	193.560E-12	669.551E-3	-5.14655E-3	192.458E-12	671.692E-3	-17.3596E-3
4.81991E-3	193.743E-12	640.137E-3	-6.73942E-3	192.217E-12	687.272E-3	-21.6988E-3
4.81491E-3	194.141E-12	631.960E-3	-8.48492E-3	192.755E-12	664.710E-3	-30.7846E-3
4.80990E-3	194.249E-12	661.385E-3	11.1188E-3	192.345E-12	665.498E-3	-23.4900E-3
4.80490E-3	194.954E-12	657.593E-3	21.2945E-3	192.472E-12	694.565E-3	-7.17804E-3
4.79990E-3	193.562E-12	643.071E-3	15.8451E-3	192.048E-12	707.074E-3	8.92203E-3
4.79490E-3	194.794E-12	646.721E-3	6.50147E-3	192.041E-12	697.916E-3	-712.098E-6
4.78989E-3	195.374E-12	645.140E-3	10.8460E-3	192.513E-12	675.027E-3	-22.4786E-3
4.78489E-3	195.464E-12	647.219E-3	19.0139E-3	192.551E-12	668.726E-3	-13.0402E-3
4.77989E-3	194.180E-12	669.806E-3	10.1687E-3	191.561E-12	703.394E-3	-3.06545E-3
4.77489E-3	193.780E-12	697.960E-3	-5.15553E-3	191.660E-12	719.930E-3	-924.116E-6
4.76988E-3	193.033E-12	686.434E-3	-21.4354E-3	191.289E-12	682.272E-3	67.0076E-6
4.76488E-3	192.807E-12	653.903E-3	-22.3809E-3	191.060E-12	660.701E-3	-13.7843E-3
4.75988E-3	190.838E-12	646.267E-3	-6.24356E-3	190.478E-12	655.796E-3	-17.2917E-3
4.75488E-3	189.480E-12	674.160E-3	-3.29218E-3	189.703E-12	625.282E-3	-13.9201E-3
4.74988E-3	187.998E-12	693.601E-3	-11.7666E-3	189.012E-12	599.326E-3	-16.6527E-3
4.74487E-3	187.385E-12	674.049E-3	-26.0874E-3	187.435E-12	602.525E-3	-8.92762E-3
4.73987E-3	186.896E-12	661.013E-3	-29.4674E-3	186.916E-12	619.785E-3	-21.6643E-3
4.73487E-3	186.253E-12	668.889E-3	-13.7000E-3	186.972E-12	640.765E-3	-56.1332E-3
4.72986E-3	185.150E-12	662.762E-3	-14.8632E-3	187.220E-12	667.505E-3	-62.3493E-3
4.72486E-3	186.053E-12	660.531E-3	-15.5575E-3	186.653E-12	684.440E-3	-31.6079E-3
4.71986E-3	186.245E-12	672.429E-3	-519.069E-6	186.201E-12	676.572E-3	-11.4670E-3
4.71486E-3	186.700E-12	671.504E-3	-1.63795E-3	187.202E-12	668.232E-3	-14.7425E-3
4.70985E-3	186.095E-12	669.533E-3	-16.1855E-3	187.188E-12	668.965E-3	2.70863E-3
4.70485E-3	187.005E-12	680.661E-3	-11.8272E-3	187.380E-12	658.000E-3	16.4411E-3
4.69985E-3	187.230E-12	694.811E-3	-1.66468E-3	186.947E-12	665.054E-3	20.0058E-3
4.69485E-3	187.507E-12	703.814E-3	-20.1270E-3	186.917E-12	698.474E-3	39.5746E-3
4.68984E-3	186.213E-12	689.013E-3	-38.2167E-3	187.174E-12	701.086E-3	26.8101E-3
4.68484E-3	186.642E-12	677.637E-3	-30.6846E-3	186.940E-12	695.262E-3	2.22235E-3
4.67984E-3	186.205E-12	699.090E-3	-15.0737E-3	186.649E-12	709.151E-3	-1.81001E-3
4.67484E-3	184.994E-12	700.255E-3	-4.46421E-3	186.442E-12	701.409E-3	-8.96344E-3
4.66983E-3	184.183E-12	671.397E-3	-4.16923E-3	187.266E-12	669.612E-3	2.72858E-3
4.66483E-3	182.285E-12	645.013E-3	-7.98206E-3	186.546E-12	657.360E-3	10.1648E-3
4.65983E-3	181.590E-12	641.444E-3	-6.97262E-3	186.465E-12	667.149E-3	444.650E-6
4.65483E-3	181.088E-12	650.673E-3	-10.7403E-3	185.319E-12	658.449E-3	-5.46594E-3
4.64982E-3	180.981E-12	655.296E-3	-20.7734E-3	184.902E-12	650.788E-3	-24.1422E-3
4.64482E-3	180.215E-12	654.153E-3	-29.4674E-3	184.406E-12	656.902E-3	-32.4454E-3
4.63982E-3	180.744E-12	644.369E-3	-25.0746E-3	185.165E-12	653.530E-3	-11.5038E-3
4.63482E-3	181.573E-12	644.156E-3	-17.2075E-3	185.014E-12	670.687E-3	-9.96690E-3
4.62981E-3	181.971E-12	673.977E-3	-2.49863E-3	183.595E-12	715.753E-3	-45.3884E-3
4.62481E-3	182.425E-12	673.291E-3	12.0782E-3	184.295E-12	717.994E-3	-70.3139E-3
4.61981E-3	183.217E-12	640.918E-3	-4.99301E-3	185.041E-12	684.547E-3	-62.1992E-3
4.61481E-3	185.119E-12	662.591E-3	-27.5859E-3	185.557E-12	663.363E-3	-50.2218E-3
4.60980E-3	185.180E-12	692.130E-3	-26.4094E-3	184.641E-12	638.986E-3	-51.4724E-3
4.60480E-3	185.540E-12	685.501E-3	-20.6331E-3	184.532E-12	630.811E-3	-46.0894E-3
4.59980E-3	186.153E-12	688.185E-3	-24.6376E-3	184.294E-12	650.002E-3	-17.4417E-3
4.59480E-3	186.987E-12	703.935E-3	-37.9901E-3	184.871E-12	663.791E-3	9.52419E-3
4.58979E-3	185.636E-12	691.737E-3	-55.6022E-3	184.447E-12	668.284E-3	-2.23548E-3
4.58479E-3	184.198E-12	649.264E-3	-34.7267E-3	184.615E-12	674.569E-3	-53.0037E-3
4.57979E-3	183.559E-12	643.304E-3	8.55323E-3	183.289E-12	686.804E-3	-91.9242E-3
4.57479E-3	183.277E-12	676.994E-3	17.6794E-3	182.859E-12	701.175E-3	-88.1994E-3
4.56978E-3	181.747E-12	684.030E-3	8.60557E-3	182.746E-12	694.816E-3	-68.7886E-3
4.56478E-3	180.661E-12	651.571E-3	3.44078E-3	182.733E-12	667.546E-3	-52.8916E-3
4.55978E-3	179.497E-12	628.885E-3	-119.777E-6	181.641E-12	648.777E-3	-40.0952E-3
4.55478E-3	179.346E-12	647.361E-3	2.87189E-3	181.181E-12	641.602E-3	-32.6163E-3
4.54977E-3	178.918E-12	671.101E-3	10.0087E-3	181.325E-12	641.694E-3	-34.2736E-3
4.54477E-3	179.656E-12	663.103E-3	-507.560E-6	180.999E-12	648.775E-3	-41.6118E-3
4.53977E-3	179.379E-12	644.691E-3	-22.8231E-3	180.141E-12	651.575E-3	-43.1311E-3
4.53477E-3	178.963E-12	645.457E-3	-29.8693E-3	179.320E-12	654.274E-3	-41.6571E-3
4.52976E-3	179.161E-12	658.118E-3	-14.6196E-3	179.386E-12	669.964E-3	-22.7569E-3
4.52476E-3	179.584E-12	658.726E-3	-1.21017E-3	179.632E-12	681.378E-3	17.6399E-3
4.51976E-3	180.377E-12	653.581E-3	4.42633E-3	178.469E-12	676.953E-3	23.2156E-3
4.51476E-3	179.498E-12	658.444E-3	2.53864E-3	178.138E-12	667.344E-3	7.13958E-3
4.50975E-3	179.237E-12	644.639E-3	-3.94103E-3	177.748E-12	656.259E-3	-10.8865E-3
4.50475E-3	179.230E-12	624.538E-3	-6.34447E-3	177.905E-12	664.721E-3	-41.0163E-3
4.49975E-3	178.383E-12	635.298E-3	-21.5089E-3	177.438E-12	681.357E-3	-44.4417E-3
4.49475E-3	176.403E-12	672.519E-3	-48.7711E-3	177.315E-12	674.487E-3	-40.2077E-3
4.48974E-3	175.800E-12	687.761E-3	-63.2930E-3	176.600E-12	659.326E-3	-52.1191E-3
4.48474E-3	175.593E-12	652.294E-3	-39.0370E-3	176.510E-12	659.057E-3	-53.0247E-3
4.47974E-3	174.830E-12	615.521E-3	10.1810E-3	176.506E-12	666.047E-3	-40.4129E-3
4.47474E-3	173.284E-12	626.220E-3	43.9416E-3	176.210E-12	661.542E-3	-10.3052E-3
4.46973E-3	172.447E-12	652.143E-3	19.7760E-3	176.021E-12	649.949E-3	3.10831E-3
4.46473E-3	173.721E-12	652.705E-3	-24.1887E-3	176.134E-12	655.068E-3	-33.4109E-3
4.45973E-3	173.781E-12	672.864E-3	-21.2555E-3	176.907E-12	666.529E-3	-62.7258E-3
4.45473E-3	173.867E-12	710.406E-3	8.71052E-3	176.984E-12	665.929E-3	-49.7263E-3
4.44972E-3	174.083E-12	703.803E-3	13.8660E-3	177.018E-12	670.164E-3	-17.8907E-3
4.44472E-3	175.568E-12	679.821E-3	5.19002E-3	177.162E-12	677.681E-3	4.05871E-3
4.43972E-3	176.304E-12	667.442E-3	7.99177E-3	177.177E-12	679.111E-3	18.1477E-3
4.43472E-3	177.035E-12	658.504E-3	-2.31953E-3	176.452E-12	675.578E-3	15.8030E-3
4.42971E-3	177.093E-12	677.404E-3	-13.0046E-3	175.845E-12	674.565E-3	-5.97478E-3
4.42471E-3	176.704E-12	703.207E-3	4.07257E-3	175.114E-12	681.108E-3	-8.23718E-3
4.41971E-3	176.908E-12	709.053E-3	16.8350E-3	175.419E-12	694.381E-3	12.1914E-3
4.41471E-3	176.661E-12	686.892E-3	-4.16255E-3	175.260E-12	682.802E-3	16.8749E-3
4.40970E-3	175.915E-12	646.256E-3	-16.7830E-3	174.633E-12	646.939E-3	7.84193E-3
4.40470E-3	174.023E-12	630.753E-3	-7.88893E-3	173.108E-12	642.698E-3	-636.762E-6
4.39970E-3	174.009E-12	639.298E-3	-12.1272E-3	173.431E-12	651.094E-3	-12.5017E-3
4.39470E-3	174.314E-12	659.057E-3	-15.1424E-3	173.481E-12	648.994E-3	-20.6181E-3
4.38969E-3	173.768E-12	670.758E-3	-3.64693E-3	173.751E-12	660.420E-3	-33.6104E-3
4.38469E-3	172.313E-12	635.620E-3	-1.73233E-3	173.633E-12	680.042E-3	-45.0223E-3
4.37969E-3	173.375E-12	615.366E-3	-8.77797E-3	172.889E-12	692.324E-3	-45.1976E-3
4.37469E-3	174.293E-12	640.563E-3	-9.42075E-3	173.600E-12	681.328E-3	-36.5660E-3
4.36968E-3	174.537E-12	661.902E-3	-14.5658E-3	174.379E-12	653.643E-3	-13.0032E-3
4.36468E-3	173.720E-12	693.246E-3	-20.4966E-3	174.166E-12	663.535E-3	-1.59290E-3
4.35968E-3	173.239E-12	699.409E-3	-11.2449E-3	174.050E-12	688.695E-3	-5.98446E-3
4.35468E-3	173.945E-12	660.083E-3	-418.840E-6	174.392E-12	683.478E-3	-8.73248E-3
4.34967E-3	174.221E-12	653.030E-3	-14.8110E-3	174.342E-12	673.498E-3	-23.1173E-3
4.34467E-3	173.442E-12	683.861E-3	-30.2558E-3	173.739E-12	664.213E-3	-35.1033E-3
4.33967E-3	172.369E-12	688.437E-3	-13.5084E-3	173.113E-12	657.903E-3	-26.9828E-3
4.33467E-3	171.894E-12	670.199E-3	-7.65363E-3	172.538E-12	659.998E-3	-23.6721E-3
4.32966E-3	170.869E-12	664.045E-3	-9.88459E-3	171.854E-12	658.643E-3	-32.0474E-3
4.32466E-3	170.251E-12	672.448E-3	13.5313E-3	170.819E-12	664.677E-3	-35.2532E-3
4.31966E-3	169.407E-12	684.433E-3	23.2471E-3	169.576E-12	676.772E-3	-39.1238E-3
4.31466E-3	168.104E-12	674.191E-3	11.2344E-3	169.205E-12	658.120E-3	-28.2616E-3
4.30965E-3	167.276E-12	645.189E-3	21.5882E-3	169.064E-12	648.452E-3	29.8645E-6
4.30465E-3	166.837E-12	639.291E-3	7.68674E-3	167.908E-12	673.266E-3	427.622E-6
4.29965E-3	166.949E-12	655.308E-3	-36.5904E-3	168.321E-12	678.121E-3	-11.5131E-3
4.29465E-3	166.832E-12	669.137E-3	-40.5924E-3	167.052E-12	663.166E-3	-2.06890E-3
4.28964E-3	167.066E-12	670.183E-3	-22.9662E-3	167.950E-12	647.879E-3	-1.14117E-3
4.28464E-3	167.335E-12	672.243E-3	-12.0766E-3	167.610E-12	643.647E-3	-15.1372E-3
4.27964E-3	168.019E-12	681.581E-3	4.56357E-3	168.548E-12	659.844E-3	-18.1424E-3
4.27464E-3	167.953E-12	677.745E-3	7.21300E-3	167.778E-12	676.683E-3	-7.20064E-3
4.26963E-3	168.649E-12	670.553E-3	5.14274E-3	168.753E-12	680.194E-3	8.14699E-3
4.26463E-3	168.933E-12	660.797E-3	18.6581E-3	168.430E-12	673.078E-3	15.1667E-3
4.25963E-3	168.643E-12	649.050E-3	2.95676E-3	169.294E-12	663.698E-3	-6.95291E-3
4.25463E-3	168.022E-12	649.742E-3	-19.4698E-3	167.402E-12	671.634E-3	-27.4632E-3
4.24962E-3	167.699E-12	658.607E-3	-15.9986E-3	167.559E-12	695.449E-3	-10.7798E-3
4.24462E-3	166.567E-12	673.965E-3	-21.2849E-3	167.454E-12	700.725E-3	-4.89200E-3
4.23962E-3	165.747E-12	673.459E-3	-21.4692E-3	167.723E-12	677.091E-3	-22.3585E-3
4.23462E-3	164.964E-12	662.670E-3	1.46946E-3	166.913E-12	652.611E-3	-14.1558E-3
4.22961E-3	164.738E-12	675.925E-3	21.4213E-3	165.582E-12	650.847E-3	-3.00932E-3
4.22461E-3	163.330E-12	687.330E-3	17.0671E-3	166.674E-12	661.400E-3	1.20446E-3
4.21961E-3	162.897E-12	677.826E-3	-13.1235E-3	166.776E-12	655.354E-3	20.4443E-3
4.21461E-3	163.525E-12	659.176E-3	-36.3767E-3	166.226E-12	635.969E-3	27.3741E-3
4.20960E-3	164.275E-12	647.978E-3	-41.0647E-3	164.510E-12	625.239E-3	6.76308E-3
4.20460E-3	164.164E-12	656.836E-3	-36.6144E-3	164.994E-12	636.228E-3	-5.99404E-3
4.19960E-3	164.510E-12	672.730E-3	-12.9663E-3	165.421E-12	662.419E-3	-3.47163E-3
4.19460E-3	166.079E-12	678.644E-3	1.84488E-3	165.282E-12	684.123E-3	-14.6773E-3
4.18959E-3	167.263E-12	676.507E-3	-23.2798E-3	164.855E-12	688.968E-3	-7.99182E-3
4.18459E-3	168.312E-12	681.262E-3	-65.4866E-3	164.183E-12	674.959E-3	12.4299E-3
4.17959E-3	167.831E-12	680.256E-3	-76.5831E-3	165.183E-12	661.251E-3	-9.87308E-3
4.17459E-3	168.241E-12	666.284E-3	-51.2741E-3	165.133E-12	658.970E-3	-45.9473E-3
4.16958E-3	168.306E-12	675.815E-3	-37.2392E-3	164.651E-12	669.435E-3	-40.0115E-3
4.16458E-3	167.564E-12	697.437E-3	-51.4003E-3	164.050E-12	677.369E-3	-31.1753E-3
4.15958E-3	165.522E-12	682.798E-3	-58.2371E-3	163.753E-12	649.167E-3	-41.5480E-3
4.15458E-3	164.166E-12	658.676E-3	-49.2912E-3	163.903E-12	633.773E-3	-39.4870E-3
4.14957E-3	163.448E-12	656.587E-3	-29.8261E-3	163.602E-12	655.056E-3	-28.1403E-3
4.14457E-3	161.893E-12	659.716E-3	-13.3565E-3	163.384E-12	663.370E-3	2.89058E-3
4.13957E-3	160.123E-12	666.192E-3	-19.3104E-3	162.883E-12	654.074E-3	43.9202E-3
4.13457E-3	158.203E-12	669.840E-3	-19.0301E-3	163.254E-12	638.939E-3	30.9400E-3
4.12956E-3	158.049E-12	644.255E-3	-8.98811E-3	162.975E-12	632.094E-3	-9.69212E-3
4.12456E-3	157.557E-12	605.879E-3	-11.8477E-3	162.500E-12	640.796E-3	12.1872E-3
4.11956E-3	157.576E-12	601.900E-3	-21.0152E-3	162.095E-12	654.145E-3	35.0312E-3
4.11456E-3	157.602E-12	628.506E-3	-22.7874E-3	161.557E-12	652.116E-3	3.57385E-3
4.10955E-3	158.963E-12	660.218E-3	-13.6363E-3	161.885E-12	655.317E-3	-1.15098E-3
4.10455E-3	160.386E-12	670.710E-3	-2.08007E-3	160.978E-12	681.419E-3	5.03180E-3
4.09955E-3	161.321E-12	646.741E-3	-6.52507E-3	160.464E-12	694.956E-3	-14.5721E-3
4.09455E-3	160.800E-12	646.522E-3	-10.2583E-3	160.426E-12	681.406E-3	-5.82812E-3
4.08954E-3	161.121E-12	676.216E-3	-12.1576E-3	160.120E-12	657.848E-3	10.0285E-3
4.08454E-3	160.849E-12	676.625E-3	-19.2054E-3	159.538E-12	644.453E-3	-6.11666E-3
4.07954E-3	159.963E-12	652.433E-3	-17.7252E-3	159.022E-12	662.672E-3	-16.1529E-3
4.07454E-3	159.426E-12	643.804E-3	-30.3987E-3	158.892E-12	687.931E-3	-21.2871E-3
4.06953E-3	158.194E-12	678.929E-3	-49.0947E-3	157.839E-12	679.613E-3	-29.7965E-3
4.06453E-3	157.119E-12	679.927E-3	-42.6830E-3	157.877E-12	661.460E-3	-26.9305E-3
4.05953E-3	155.685E-12	626.592E-3	-21.3328E-3	157.776E-12	660.921E-3	-20.4370E-3
4.05453E-3	154.873E-12	604.856E-3	-8.56019E-3	157.925E-12	658.599E-3	-11.1008E-3
4.04952E-3	154.320E-12	619.500E-3	12.5463E-3	157.495E-12	654.451E-3	323.399E-6
4.04452E-3	153.856E-12	651.631E-3	13.6012E-3	157.569E-12	670.980E-3	6.50848E-3
4.03952E-3	153.239E-12	666.677E-3	-22.7501E-3	158.418E-12	678.285E-3	-715.393E-6
4.03452E-3	153.896E-12	651.337E-3	-40.0497E-3	158.299E-12	663.936E-3	-8.52666E-3
4.02951E-3	154.780E-12	622.357E-3	-33.6745E-3	157.983E-12	672.213E-3	-4.92356E-3
4.02451E-3	154.363E-12	610.649E-3	-29.5275E-3	158.080E-12	681.417E-3	-3.21160E-3
4.01951E-3	155.436E-12	635.453E-3	-20.3354E-3	158.395E-12	670.238E-3	-1.44960E-3
4.01451E-3	156.326E-12	653.182E-3	-12.6246E-3	158.025E-12	658.314E-3	8.15771E-3
4.00950E-3	158.047E-12	660.565E-3	-25.7946E-3	157.766E-12	654.794E-3	-3.84469E-3
4.00450E-3	157.511E-12	667.391E-3	-34.5243E-3	156.948E-12	653.454E-3	-19.9348E-3
3.99950E-3	157.558E-12	653.724E-3	-31.6688E-3	156.283E-12	668.406E-3	-5.52833E-3
3.99450E-3	158.129E-12	652.059E-3	-44.5181E-3	156.462E-12	691.039E-3	-17.2469E-6
3.98949E-3	158.034E-12	673.773E-3	-58.5184E-3	155.610E-12	660.123E-3	-21.6111E-3
3.98449E-3	156.874E-12	690.722E-3	-32.1151E-3	155.540E-12	626.875E-3	-33.3266E-3
3.97949E-3	155.666E-12	687.342E-3	-7.60269E-3	154.117E-12	642.702E-3	-22.5664E-3
3.97449E-3	155.864E-12	676.553E-3	-16.3937E-3	154.033E-12	662.289E-3	-7.53963E-3
3.96948E-3	155.711E-12	674.667E-3	-11.2720E-3	154.232E-12	673.248E-3	4.58255E-3
3.96448E-3	155.136E-12	676.427E-3	11.8740E-3	154.154E-12	678.250E-3	-230.147E-6
3.95948E-3	154.080E-12	687.447E-3	15.8757E-3	153.386E-12	656.319E-3	-23.0283E-3
3.95448E-3	154.264E-12	690.377E-3	5.92926E-3	153.121E-12	647.047E-3	-22.3135E-3
3.94947E-3	153.962E-12	678.728E-3	722.604E-6	154.189E-12	683.923E-3	-1.23036E-3
3.94447E-3	154.863E-12	676.323E-3	13.3067E-3	154.228E-12	690.953E-3	-15.4504E-3
3.93947E-3	154.569E-12	678.166E-3	21.7364E-3	153.947E-12	659.251E-3	-31.1576E-3
3.93447E-3	153.894E-12	681.146E-3	1.31668E-3	152.573E-12	651.817E-3	-15.1875E-3
3.92946E-3	153.686E-12	684.138E-3	-15.5241E-3	153.279E-12	655.403E-3	-11.2153E-3
3.92446E-3	154.788E-12	675.623E-3	-23.2694E-3	153.567E-12	664.432E-3	-22.9987E-3
3.91946E-3	155.802E-12	668.383E-3	-24.9139E-3	153.054E-12	692.566E-3	-25.4239E-3
3.91446E-3	154.125E-12	664.334E-3	-9.57031E-3	152.010E-12	701.327E-3	-24.0067E-3
3.90945E-3	153.149E-12	654.455E-3	-323.939E-6	152.099E-12	682.846E-3	-19.4879E-3
3.90445E-3	153.319E-12	649.398E-3	-2.24486E-3	152.076E-12	680.074E-3	-4.97778E-3
3.89945E-3	152.960E-12	651.221E-3	-6.85808E-3	151.852E-12	686.110E-3	1.58581E-3
3.89445E-3	151.244E-12	651.121E-3	-14.6351E-3	150.806E-12	669.550E-3	-657.610E-6
3.88944E-3	149.117E-12	651.644E-3	-9.16609E-3	150.149E-12	642.546E-3	-714.530E-6
3.88444E-3	148.724E-12	648.588E-3	-12.5956E-3	150.612E-12	632.220E-3	-10.0874E-3
3.87944E-3	149.060E-12	635.642E-3	-30.7213E-3	150.609E-12	636.164E-3	-22.9982E-3
3.87444E-3	148.618E-12	620.697E-3	-25.0810E-3	150.810E-12	651.418E-3	-16.4120E-3
3.86943E-3	147.655E-12	620.555E-3	-9.53142E-3	150.207E-12	660.354E-3	3.54953E-3
3.86443E-3	148.287E-12	640.721E-3	-7.86051E-3	150.360E-12	642.392E-3	15.0676E-3
3.85943E-3	148.620E-12	658.717E-3	-10.8179E-3	150.377E-12	633.372E-3	13.9090E-3
3.85443E-3	149.550E-12	664.639E-3	-11.0222E-3	150.260E-12	657.163E-3	15.2715E-3
3.84942E-3	149.752E-12	662.586E-3	-20.3104E-3	149.698E-12	692.639E-3	12.4808E-3
3.84442E-3	149.728E-12	657.573E-3	-28.9576E-3	149.146E-12	696.422E-3	1.06363E-3
3.83942E-3	150.057E-12	659.566E-3	-4.32412E-3	149.905E-12	673.937E-3	-22.7465E-3
3.83442E-3	150.327E-12	660.718E-3	9.45334E-3	149.321E-12	655.856E-3	-49.5682E-3
3.82941E-3	150.315E-12	658.097E-3	-15.1198E-3	149.372E-12	655.192E-3	-43.0259E-3
3.82441E-3	149.062E-12	639.423E-3	-37.0224E-3	148.431E-12	674.304E-3	-14.1317E-3
3.81941E-3	148.628E-12	637.978E-3	-39.5847E-3	148.148E-12	682.368E-3	-259.269E-6
3.81441E-3	148.204E-12	683.090E-3	-29.1791E-3	147.872E-12	671.875E-3	9.18029E-3
3.80940E-3	147.298E-12	693.368E-3	-22.4164E-3	147.986E-12	660.419E-3	3.79417E-3
3.80440E-3	146.059E-12	664.984E-3	-36.4257E-3	147.248E-12	660.534E-3	-34.7477E-3
3.79940E-3	145.544E-12	676.374E-3	-48.8203E-3	147.291E-12	668.110E-3	-50.8216E-3
3.79440E-3	144.823E-12	693.740E-3	-30.7678E-3	146.753E-12	679.794E-3	-24.4158E-3
3.78939E-3	144.618E-12	682.527E-3	-2.07902E-3	147.039E-12	687.298E-3	3.02799E-3
3.78439E-3	144.624E-12	683.696E-3	10.4455E-3	147.574E-12	681.346E-3	10.0849E-3
3.77939E-3	145.426E-12	698.980E-3	1.06299E-3	147.377E-12	691.729E-3	85.1698E-6
3.77439E-3	145.539E-12	707.697E-3	-13.4094E-3	147.468E-12	708.752E-3	2.09314E-3
3.76938E-3	145.827E-12	700.746E-3	-16.3420E-3	148.359E-12	691.662E-3	5.88777E-3
3.76438E-3	146.667E-12	681.499E-3	-16.8471E-3	147.805E-12	675.513E-3	-8.32495E-3
3.75938E-3	147.918E-12	670.838E-3	-24.4888E-3	147.024E-12	685.799E-3	-22.3192E-3
3.75438E-3	148.465E-12	653.745E-3	-23.1755E-3	146.170E-12	695.094E-3	-21.0044E-3
3.74937E-3	147.955E-12	647.620E-3	-8.33574E-3	146.232E-12	687.082E-3	-9.47180E-3
3.74437E-3	148.292E-12	672.257E-3	-5.56349E-3	146.275E-12	670.127E-3	-3.40310E-3
3.73937E-3	148.086E-12	697.659E-3	-15.0893E-3	145.682E-12	679.490E-3	-3.45708E-3
3.73437E-3	146.898E-12	712.132E-3	-14.7831E-3	144.425E-12	700.678E-3	-16.1125E-3
3.72936E-3	145.807E-12	690.984E-3	-16.0615E-3	144.519E-12	684.108E-3	-30.5393E-3
3.72436E-3	144.778E-12	666.249E-3	-18.3729E-3	144.373E-12	653.404E-3	-11.7973E-3
3.71936E-3	144.262E-12	670.885E-3	-12.8721E-3	144.225E-12	666.208E-3	7.70160E-3
3.71436E-3	143.025E-12	660.909E-3	-24.9625E-3	143.118E-12	690.955E-3	6.01399E-3
3.70935E-3	142.200E-12	648.827E-3	-45.1070E-3	142.489E-12	668.147E-3	13.0100E-3
3.70435E-3	141.776E-12	653.950E-3	-47.9284E-3	142.586E-12	641.387E-3	21.5312E-3
3.69935E-3	141.020E-12	667.131E-3	-42.9422E-3	142.692E-12	657.627E-3	12.7376E-3
3.69435E-3	140.726E-12	683.984E-3	-37.4363E-3	142.881E-12	668.683E-3	-1.17548E-3
3.68934E-3	140.985E-12	673.354E-3	-26.6690E-3	142.323E-12	660.992E-3	-4.27733E-3
3.68434E-3	141.410E-12	645.343E-3	-19.1361E-3	142.517E-12	661.980E-3	-14.0848E-3
3.67934E-3	141.586E-12	641.549E-3	-21.2673E-3	142.369E-12	668.081E-3	-25.2063E-3
3.67434E-3	141.979E-12	660.908E-3	-9.49287E-3	142.502E-12	682.302E-3	-22.9952E-3
3.66933E-3	142.498E-12	670.543E-3	7.82076E-3	141.474E-12	688.546E-3	-26.9254E-3
3.66433E-3	143.230E-12	683.600E-3	-2.34800E-3	141.219E-12	660.458E-3	-25.9779E-3
3.65933E-3	143.135E-12	712.552E-3	-24.4346E-3	141.205E-12	633.149E-3	-5.59013E-3
3.65433E-3	142.324E-12	714.824E-3	-26.9279E-3	141.209E-12	654.398E-3	-2.57043E-3
3.64932E-3	141.913E-12	673.537E-3	-24.9168E-3	140.367E-12	685.068E-3	-22.6861E-3
3.64432E-3	141.079E-12	638.347E-3	-27.6293E-3	140.340E-12	676.047E-3	-26.4539E-3
3.63932E-3	140.180E-12	645.133E-3	-29.8682E-3	139.620E-12	652.742E-3	-7.20869E-3
3.63432E-3	139.201E-12	655.967E-3	-51.9088E-3	139.232E-12	641.325E-3	5.35127E-3
3.62931E-3	138.363E-12	649.010E-3	-62.0867E-3	139.213E-12	637.093E-3	5.47866E-3
3.62431E-3	137.271E-12	653.973E-3	-28.3432E-3	138.796E-12	658.882E-3	-5.84840E-3
3.61931E-3	136.652E-12	665.838E-3	-8.74330E-3	138.078E-12	677.599E-3	-11.4137E-3
3.61431E-3	136.267E-12	669.909E-3	-20.6682E-3	137.919E-12	667.021E-3	6.61991E-3
3.60930E-3	136.810E-12	671.302E-3	-27.6777E-3	137.714E-12	660.220E-3	8.56617E-3
3.60430E-3	137.115E-12	658.832E-3	-42.0289E-3	138.534E-12	651.372E-3	-19.9049E-3
3.59930E-3	136.969E-12	640.797E-3	-48.7081E-3	137.808E-12	646.249E-3	-34.6812E-3
3.59430E-3	137.349E-12	628.085E-3	-26.6800E-3	137.982E-12	667.848E-3	-30.7550E-3
3.58929E-3	137.884E-12	627.428E-3	-5.06436E-3	137.366E-12	691.194E-3	-32.9842E-3
3.58429E-3	138.388E-12	644.111E-3	-1.02938E-3	138.328E-12	675.912E-3	-35.2191E-3
3.57929E-3	138.781E-12	666.414E-3	2.05238E-3	137.094E-12	648.534E-3	-35.2502E-3
3.57429E-3	139.179E-12	690.726E-3	4.57118E-3	137.261E-12	651.486E-3	-35.0621E-3
3.56928E-3	139.690E-12	713.148E-3	-4.17945E-3	137.419E-12	671.949E-3	-18.9223E-3
3.56428E-3	139.648E-12	706.362E-3	-7.57344E-3	137.761E-12	691.677E-3	4.96003E-3
3.55928E-3	138.756E-12	684.580E-3	-4.31210E-3	137.239E-12	697.720E-3	11.8648E-3
3.55428E-3	138.149E-12	682.935E-3	-9.52359E-3	137.739E-12	694.795E-3	-4.26847E-3
3.54927E-3	137.646E-12	679.553E-3	-12.5816E-3	137.411E-12	693.545E-3	-27.4887E-3
3.54427E-3	136.809E-12	673.259E-3	-17.8287E-3	136.763E-12	682.440E-3	-28.6829E-3
3.53927E-3	135.710E-12	667.376E-3	-28.6987E-3	136.046E-12	661.971E-3	3.08508E-3
3.53427E-3	134.834E-12	652.923E-3	-25.3481E-3	136.765E-12	652.381E-3	13.6859E-3
3.52926E-3	134.458E-12	637.181E-3	-21.5472E-3	136.154E-12	666.413E-3	-24.0514E-3
3.52426E-3	134.977E-12	644.242E-3	-34.0019E-3	136.181E-12	678.258E-3	-47.6774E-3
3.51926E-3	134.322E-12	664.524E-3	-37.5302E-3	135.840E-12	669.678E-3	-29.8998E-3
3.51426E-3	133.468E-12	656.077E-3	-21.5821E-3	136.081E-12	667.657E-3	1.80567E-3
3.50925E-3	133.984E-12	640.405E-3	-21.1811E-3	135.544E-12	670.819E-3	9.54722E-3
3.50425E-3	134.359E-12	640.596E-3	-25.1248E-3	135.064E-12	657.990E-3	-9.92507E-3
3.49925E-3	134.443E-12	642.896E-3	-2.96163E-3	134.044E-12	658.059E-3	-19.5252E-3
3.49425E-3	133.982E-12	651.210E-3	5.33991E-3	134.336E-12	681.816E-3	-20.5422E-3
3.48924E-3	134.080E-12	673.963E-3	-12.5650E-3	133.716E-12	695.583E-3	-26.4097E-3
3.48424E-3	133.461E-12	682.170E-3	-6.28308E-3	132.856E-12	677.126E-3	-33.1489E-3
3.47924E-3	133.561E-12	677.517E-3	18.4511E-3	132.554E-12	652.645E-3	-38.5020E-3
3.47424E-3	133.344E-12	676.036E-3	14.8921E-3	132.347E-12	657.725E-3	-27.6548E-3
3.46923E-3	132.514E-12	660.648E-3	-4.80206E-3	132.137E-12	668.510E-3	-10.8139E-3
3.46423E-3	131.552E-12	638.408E-3	-7.33303E-3	131.664E-12	661.274E-3	-8.17355E-3
3.45923E-3	130.966E-12	646.546E-3	1.32240E-3	131.429E-12	662.986E-3	-4.01532E-3
3.45423E-3	130.197E-12	670.475E-3	16.3649E-3	131.517E-12	685.966E-3	-9.27087E-3
3.44922E-3	129.209E-12	665.844E-3	30.6249E-3	131.472E-12	704.064E-3	-43.9249E-3
3.44422E-3	128.551E-12	667.699E-3	16.7919E-3	131.464E-12	698.921E-3	-39.7419E-3
3.43922E-3	127.982E-12	677.233E-3	-4.07878E-3	131.358E-12	688.529E-3	13.1748E-3
3.43422E-3	128.183E-12	659.190E-3	-13.7579E-3	131.345E-12	674.504E-3	23.6659E-3
3.42921E-3	128.526E-12	639.267E-3	-19.5248E-3	131.000E-12	648.986E-3	4.08097E-3
3.42421E-3	128.883E-12	634.653E-3	-4.07513E-3	131.657E-12	641.945E-3	-5.20696E-3
3.41921E-3	129.466E-12	640.905E-3	10.7320E-3	130.988E-12	656.199E-3	-23.5481E-3
3.41421E-3	129.545E-12	659.026E-3	-12.9532E-3	130.345E-12	667.139E-3	-26.9311E-3
3.40920E-3	129.818E-12	664.147E-3	-49.4544E-3	129.533E-12	664.356E-3	151.350E-6
3.40420E-3	129.714E-12	663.846E-3	-52.9203E-3	129.488E-12	649.291E-3	-11.7426E-3
3.39920E-3	130.057E-12	679.281E-3	-42.6111E-3	128.602E-12	647.556E-3	-50.6169E-3
3.39420E-3	130.257E-12	682.400E-3	-36.4590E-3	127.948E-12	673.784E-3	-32.2468E-3
3.38919E-3	129.940E-12	682.030E-3	-17.3474E-3	127.443E-12	692.378E-3	7.55039E-3
3.38419E-3	129.332E-12	688.017E-3	-6.71623E-3	127.432E-12	675.869E-3	10.0889E-3
3.37919E-3	129.642E-12	683.660E-3	-14.1702E-3	127.399E-12	665.437E-3	1.07274E-3
3.37419E-3	128.943E-12	671.960E-3	-6.64323E-3	127.210E-12	679.964E-3	-2.47577E-3
3.36918E-3	128.081E-12	668.303E-3	-1.43659E-3	126.788E-12	687.082E-3	-8.70578E-3
3.36418E-3	127.457E-12	678.307E-3	-12.6784E-3	126.825E-12	688.016E-3	-9.32874E-3
3.35918E-3	127.231E-12	680.050E-3	-4.66322E-3	126.874E-12	688.753E-3	1.03571E-3
3.35418E-3	126.964E-12	669.013E-3	-2.89728E-3	127.223E-12	681.866E-3	5.62105E-3
3.34917E-3	126.846E-12	663.037E-3	-39.8164E-3	126.697E-12	666.859E-3	-1.74301E-3
3.34417E-3	127.176E-12	668.990E-3	-66.4134E-3	126.843E-12	663.674E-3	2.75521E-3
3.33917E-3	127.868E-12	687.923E-3	-61.8496E-3	127.267E-12	676.830E-3	20.0626E-3
3.33417E-3	127.821E-12	698.511E-3	-53.2145E-3	126.748E-12	664.372E-3	17.2980E-3
3.32916E-3	128.040E-12	694.594E-3	-30.5397E-3	126.140E-12	640.330E-3	-22.4304E-3
3.32416E-3	128.363E-12	689.010E-3	-24.6123E-3	126.010E-12	642.160E-3	-52.5714E-3
3.31916E-3	128.926E-12	683.973E-3	-44.9363E-3	126.040E-12	640.103E-3	-38.2243E-3
3.31416E-3	128.150E-12	686.535E-3	-38.8999E-3	125.891E-12	635.169E-3	-8.16086E-3
3.30915E-3	128.013E-12	689.060E-3	-15.7068E-3	126.159E-12	654.327E-3	-335.476E-6
3.30415E-3	127.634E-12	690.036E-3	-9.30119E-3	125.402E-12	677.207E-3	-13.1351E-3
3.29915E-3	126.722E-12	684.482E-3	-11.6560E-3	124.958E-12	693.837E-3	-24.6095E-3
3.29415E-3	125.760E-12	681.915E-3	-2.22094E-3	124.730E-12	706.702E-3	-26.0206E-3
3.28914E-3	124.660E-12	694.649E-3	4.98572E-3	125.022E-12	698.921E-3	-19.5069E-3
3.28414E-3	124.716E-12	698.996E-3	18.3783E-3	124.358E-12	669.926E-3	-15.2687E-3
3.27914E-3	123.441E-12	699.960E-3	33.2651E-3	124.003E-12	652.222E-3	-12.1091E-3
3.27414E-3	122.916E-12	698.456E-3	16.9645E-3	123.711E-12	653.641E-3	-8.68132E-3
3.26913E-3	122.319E-12	689.560E-3	-5.64735E-3	124.048E-12	662.454E-3	-4.32227E-3
3.26413E-3	122.388E-12	680.561E-3	-19.2997E-3	123.690E-12	683.644E-3	535.296E-6
3.25913E-3	122.162E-12	667.891E-3	-33.4805E-3	123.472E-12	697.173E-3	-11.9723E-3
3.25413E-3	121.940E-12	661.807E-3	-29.3381E-3	122.950E-12	681.597E-3	-21.5229E-3
3.24912E-3	121.950E-12	660.652E-3	-18.3605E-3	122.535E-12	661.975E-3	-15.3875E-3
3.24412E-3	121.924E-12	661.233E-3	-20.1985E-3	122.141E-12	675.039E-3	-1.77789E-3
3.23912E-3	122.272E-12	673.950E-3	-15.9536E-3	121.769E-12	701.353E-3	21.9810E-3
3.23412E-3	122.185E-12	685.515E-3	-1.01688E-3	120.972E-12	691.425E-3	28.1171E-3
3.22911E-3	122.715E-12	679.596E-3	3.10372E-3	120.482E-12	651.141E-3	7.62015E-3
3.22411E-3	122.065E-12	673.711E-3	-14.6358E-3	121.054E-12	638.628E-3	-9.30940E-3
3.21911E-3	121.178E-12	674.324E-3	-22.2710E-3	121.100E-12	666.473E-3	-16.5697E-3
3.21411E-3	121.059E-12	658.645E-3	-4.17922E-3	120.471E-12	683.583E-3	-19.5216E-3
3.20910E-3	120.549E-12	645.951E-3	10.7900E-3	119.625E-12	673.185E-3	-14.3576E-3
3.20410E-3	119.766E-12	662.952E-3	-5.17039E-3	120.113E-12	665.551E-3	-15.7830E-3
3.19910E-3	118.105E-12	670.521E-3	-33.3780E-3	120.425E-12	672.392E-3	-32.3944E-3
3.19410E-3	117.918E-12	669.201E-3	-29.4434E-3	120.118E-12	693.756E-3	-27.2928E-3
3.18909E-3	117.724E-12	670.923E-3	-12.7352E-3	119.450E-12	720.998E-3	-15.9391E-3
3.18409E-3	118.181E-12	663.094E-3	-16.1940E-3	119.530E-12	710.706E-3	-33.8905E-3
3.17909E-3	117.723E-12	661.953E-3	-22.2594E-3	119.575E-12	666.309E-3	-28.6364E-3
3.17409E-3	117.863E-12	665.507E-3	-14.1605E-3	119.728E-12	642.601E-3	-9.57001E-3
3.16908E-3	118.417E-12	665.109E-3	-10.2188E-3	119.147E-12	650.964E-3	-12.5325E-3
3.16408E-3	119.242E-12	675.557E-3	-16.1404E-3	118.634E-12	674.269E-3	-4.57141E-3
3.15908E-3	119.421E-12	692.485E-3	-12.8197E-3	118.588E-12	687.820E-3	15.7838E-3
3.15408E-3	119.839E-12	689.238E-3	-5.77841E-3	118.410E-12	685.184E-3	21.2386E-3
3.14907E-3	120.586E-12	690.162E-3	-13.1518E-3	117.966E-12	677.091E-3	3.76437E-3
3.14407E-3	120.991E-12	706.821E-3	-13.3759E-3	117.557E-12	678.134E-3	-3.95450E-3
3.13907E-3	121.222E-12	706.657E-3	7.67118E-3	116.778E-12	690.151E-3	6.01965E-3
3.13407E-3	120.584E-12	709.682E-3	19.9063E-3	116.750E-12	682.946E-3	-2.68452E-3
3.12906E-3	120.129E-12	725.920E-3	24.6553E-3	116.540E-12	659.512E-3	-27.0104E-3
3.12406E-3	119.538E-12	716.238E-3	21.3571E-3	116.625E-12	649.174E-3	-48.3884E-3
3.11906E-3	118.950E-12	705.639E-3	-6.84527E-3	116.341E-12	642.724E-3	-38.3307E-3
3.11406E-3	117.590E-12	728.679E-3	-11.3056E-3	116.836E-12	653.393E-3	-2.53021E-3
3.10905E-3	116.688E-12	738.205E-3	20.0364E-3	116.139E-12	683.659E-3	10.5977E-3
3.10405E-3	115.722E-12	717.211E-3	28.7484E-3	116.373E-12	684.827E-3	3.47919E-3
3.09905E-3	114.930E-12	708.678E-3	14.9891E-3	116.178E-12	677.109E-3	-11.1454E-3
3.09405E-3	114.497E-12	701.581E-3	7.46901E-3	116.187E-12	695.767E-3	-25.7014E-3
3.08904E-3	114.092E-12	683.708E-3	-1.47889E-3	115.576E-12	712.258E-3	-26.0296E-3
3.08404E-3	113.966E-12	677.853E-3	-27.4477E-3	115.512E-12	700.186E-3	-22.9775E-3
3.07904E-3	113.857E-12	679.363E-3	-43.3813E-3	115.501E-12	680.937E-3	-24.9900E-3
3.07404E-3	114.840E-12	694.394E-3	-34.9873E-3	114.658E-12	683.913E-3	-15.6591E-3
3.06903E-3	114.518E-12	704.566E-3	-32.1728E-3	113.879E-12	698.267E-3	5.54573E-3
3.06403E-3	114.810E-12	697.494E-3	-41.4333E-3	113.916E-12	701.480E-3	8.38370E-3
3.05903E-3	114.508E-12	690.052E-3	-44.6949E-3	113.554E-12	691.992E-3	-8.79833E-3
3.05403E-3	114.760E-12	676.339E-3	-38.7069E-3	112.972E-12	682.701E-3	-13.3576E-3
3.04902E-3	114.653E-12	668.059E-3	-23.9443E-3	113.006E-12	680.188E-3	-20.0164E-3
3.04402E-3	114.198E-12	683.583E-3	-9.54238E-3	113.102E-12	690.716E-3	-43.1419E-3
3.03902E-3	113.854E-12	697.452E-3	-15.1364E-3	112.650E-12	699.331E-3	-52.3401E-3
3.03402E-3	113.366E-12	689.606E-3	-19.0956E-3	112.204E-12	697.084E-3	-39.4579E-3
3.02901E-3	112.607E-12	683.167E-3	-13.3613E-3	111.830E-12	692.960E-3	-24.0149E-3
3.02401E-3	111.839E-12	691.448E-3	-9.78071E-3	112.195E-12	689.635E-3	-14.6674E-3
3.01901E-3	110.793E-12	690.764E-3	-4.22356E-3	112.037E-12	692.844E-3	-16.9109E-3
3.01401E-3	110.398E-12	678.606E-3	-6.69340E-3	111.756E-12	694.738E-3	-23.3906E-3
3.00900E-3	109.771E-12	687.584E-3	-19.3579E-3	111.683E-12	682.451E-3	-3.85645E-3
3.00400E-3	109.646E-12	685.586E-3	-37.1780E-3	111.226E-12	655.854E-3	18.0457E-3
2.99900E-3	109.496E-12	657.229E-3	-53.7659E-3	110.901E-12	637.745E-3	1.52033E-3
2.99400E-3	109.602E-12	659.853E-3	-53.8191E-3	110.962E-12	657.478E-3	-19.5898E-3
2.98899E-3	109.673E-12	679.662E-3	-30.6181E-3	111.260E-12	697.475E-3	-9.57158E-3
2.98399E-3	110.507E-12	674.734E-3	-10.7143E-3	110.668E-12	707.416E-3	2.52862E-3
2.97899E-3	110.174E-12	657.376E-3	-13.7334E-3	110.013E-12	691.294E-3	12.5051E-3
2.97399E-3	110.438E-12	653.684E-3	-8.97167E-3	109.714E-12	698.320E-3	11.6833E-3
2.96898E-3	111.107E-12	671.605E-3	-2.01606E-3	110.165E-12	711.140E-3	-12.3803E-3
2.96398E-3	111.411E-12	691.134E-3	-6.37193E-3	109.376E-12	698.763E-3	-14.8171E-3
2.95898E-3	110.983E-12	698.814E-3	-668.256E-6	109.479E-12	684.777E-3	433.463E-6
2.95398E-3	110.439E-12	687.654E-3	-4.25637E-3	109.206E-12	675.664E-3	-434.186E-6
2.94897E-3	109.917E-12	672.886E-3	-18.1840E-3	109.436E-12	671.129E-3	-5.62162E-3
2.94397E-3	109.917E-12	690.438E-3	-12.9701E-3	108.771E-12	680.691E-3	-5.72832E-3
2.93897E-3	109.260E-12	718.851E-3	-11.6891E-3	109.311E-12	686.523E-3	-11.1662E-3
2.93397E-3	108.196E-12	716.902E-3	-25.4599E-3	108.794E-12	682.849E-3	-14.2743E-3
2.92896E-3	108.582E-12	701.287E-3	-24.4636E-3	108.232E-12	685.001E-3	-8.28694E-3
2.92396E-3	108.548E-12	704.901E-3	-3.98651E-3	108.133E-12	692.528E-3	-23.8705E-3
2.91896E-3	108.385E-12	706.098E-3	12.7576E-3	108.164E-12	704.363E-3	-44.4449E-3
2.91396E-3	107.599E-12	698.791E-3	-1.35931E-3	107.798E-12	720.551E-3	-33.8103E-3
2.90895E-3	107.591E-12	699.161E-3	-29.7551E-3	107.144E-12	725.420E-3	-18.6200E-3
2.90395E-3	107.664E-12	693.809E-3	-41.2953E-3	106.549E-12	705.923E-3	-11.4032E-3
2.89895E-3	107.596E-12	693.202E-3	-44.1526E-3	106.892E-12	690.489E-3	-1.77439E-3
2.89395E-3	107.631E-12	701.739E-3	-27.2128E-3	106.734E-12	703.613E-3	-6.35067E-3
2.88894E-3	107.762E-12	706.228E-3	-11.9171E-3	106.049E-12	711.364E-3	-31.5074E-3
2.88394E-3	107.155E-12	706.917E-3	-26.9099E-3	105.675E-12	704.490E-3	-34.7183E-3
2.87894E-3	106.979E-12	701.136E-3	-27.3811E-3	105.680E-12	712.336E-3	-17.3335E-3
2.87394E-3	106.545E-12	690.211E-3	-15.6168E-3	105.673E-12	711.817E-3	-25.0155E-3
2.86893E-3	105.661E-12	690.680E-3	-14.4316E-3	105.280E-12	698.730E-3	-45.5805E-3
2.86393E-3	104.879E-12	701.962E-3	-13.1405E-3	104.798E-12	709.825E-3	-40.6873E-3
2.85893E-3	104.197E-12	696.244E-3	-18.5572E-3	105.062E-12	716.846E-3	-26.9418E-3
2.85393E-3	103.893E-12	686.957E-3	-31.5446E-3	105.580E-12	704.012E-3	-23.7498E-3
2.84892E-3	103.189E-12	705.829E-3	-29.3058E-3	104.956E-12	695.896E-3	-15.3331E-3
2.84392E-3	102.235E-12	720.498E-3	-16.6990E-3	104.691E-12	684.126E-3	-6.68882E-3
2.83892E-3	101.851E-12	706.523E-3	-17.2844E-3	104.291E-12	680.987E-3	-11.4875E-3
2.83392E-3	102.054E-12	687.803E-3	-6.77825E-3	104.312E-12	699.064E-3	-13.5676E-3
2.82891E-3	102.089E-12	675.262E-3	5.86249E-3	104.140E-12	710.562E-3	-8.31991E-3
2.82391E-3	101.976E-12	677.165E-3	-7.25835E-3	103.609E-12	706.740E-3	-7.73567E-3
2.81891E-3	101.955E-12	683.785E-3	-19.2457E-3	102.718E-12	706.020E-3	-8.28832E-3
2.81391E-3	102.262E-12	683.433E-3	-24.8783E-3	102.613E-12	712.192E-3	-19.9934E-3
2.80890E-3	102.894E-12	685.146E-3	-36.7613E-3	102.611E-12	704.902E-3	-25.6687E-3
2.80390E-3	102.661E-12	681.579E-3	-36.7020E-3	102.333E-12	693.763E-3	-14.5329E-3
2.79890E-3	102.658E-12	680.629E-3	-21.5850E-3	101.457E-12	692.619E-3	-25.3150E-3
2.79390E-3	102.762E-12	702.312E-3	-16.8825E-3	101.517E-12	690.709E-3	-37.7192E-3
2.78889E-3	102.841E-12	716.932E-3	-22.4063E-3	101.449E-12	699.479E-3	-19.8061E-3
2.78389E-3	102.617E-12	698.148E-3	-6.28553E-3	101.217E-12	714.272E-3	-13.6090E-3
2.77889E-3	101.787E-12	686.166E-3	21.2582E-3	100.622E-12	709.709E-3	-21.8995E-3
2.77389E-3	101.205E-12	694.720E-3	19.2379E-3	100.709E-12	705.958E-3	-14.9619E-3
2.76888E-3	100.254E-12	696.603E-3	1.70181E-3	100.678E-12	721.785E-3	-14.6953E-3
2.76388E-3	99.8531E-12	696.744E-3	-7.73944E-3	100.484E-12	726.912E-3	-26.1330E-3
2.75888E-3	99.3399E-12	694.369E-3	-9.34500E-3	100.508E-12	722.401E-3	-32.3318E-3
2.75388E-3	99.0398E-12	689.549E-3	-4.04514E-3	100.199E-12	725.885E-3	-32.1720E-3
2.74887E-3	98.6433E-12	688.825E-3	-8.68230E-3	99.6827E-12	722.865E-3	-24.4731E-3
2.74387E-3	98.6045E-12	684.880E-3	-16.4839E-3	99.4018E-12	718.802E-3	-15.3644E-3
2.73887E-3	98.6628E-12	687.185E-3	-16.6392E-3	99.3862E-12	709.216E-3	-17.7302E-3
2.73387E-3	98.9708E-12	695.199E-3	-14.2816E-3	99.1143E-12	685.073E-3	-21.6495E-3
2.72886E-3	99.4531E-12	694.135E-3	-16.2407E-3	98.7536E-12	674.762E-3	-15.4030E-3
2.72386E-3	99.9762E-12	680.569E-3	-30.0643E-3	98.8061E-12	685.768E-3	-26.1852E-3
2.71886E-3	100.047E-12	670.409E-3	-25.6849E-3	98.8277E-12	695.394E-3	-45.3510E-3
2.71386E-3	100.183E-12	684.884E-3	-5.40830E-3	98.7433E-12	701.535E-3	-24.2128E-3
2.70885E-3	100.357E-12	719.159E-3	-11.0868E-3	98.0166E-12	710.955E-3	12.6101E-3
2.70385E-3	99.8441E-12	743.459E-3	-25.0634E-3	98.0518E-12	708.102E-3	8.29070E-3
2.69885E-3	99.1637E-12	741.759E-3	-33.6132E-3	97.7133E-12	698.506E-3	-19.2122E-3
2.69385E-3	98.4883E-12	724.762E-3	-32.9534E-3	97.6186E-12	704.557E-3	-23.0023E-3
2.68884E-3	98.2266E-12	705.270E-3	-17.8597E-3	97.5464E-12	709.367E-3	-3.78520E-3
2.68384E-3	97.0095E-12	690.823E-3	-17.4848E-3	97.1922E-12	711.078E-3	14.2398E-3
2.67884E-3	95.8757E-12	695.847E-3	-21.0190E-3	97.6103E-12	725.312E-3	12.3086E-3
2.67384E-3	95.3143E-12	706.427E-3	-10.1613E-3	97.0517E-12	731.869E-3	-1.50827E-3
2.66883E-3	95.3057E-12	706.861E-3	-14.1862E-3	96.3006E-12	726.346E-3	-806.143E-6
2.66383E-3	94.5485E-12	713.487E-3	-17.1866E-3	96.0920E-12	732.678E-3	6.27180E-3
2.65883E-3	94.0793E-12	710.400E-3	2.58534E-3	95.7614E-12	727.637E-3	-2.22837E-3
2.65383E-3	94.0410E-12	693.375E-3	5.80654E-3	95.2713E-12	706.246E-3	-1.36653E-3
2.64882E-3	93.6671E-12	698.809E-3	-13.5298E-3	94.8663E-12	698.003E-3	11.9608E-3
2.64382E-3	93.7450E-12	711.598E-3	-18.9367E-3	94.6090E-12	689.485E-3	-5.77073E-3
2.63882E-3	94.1149E-12	705.351E-3	-15.5212E-3	93.9333E-12	691.274E-3	-31.3069E-3
2.63382E-3	93.9750E-12	701.946E-3	-20.4478E-3	94.4843E-12	708.735E-3	-15.9203E-3
2.62881E-3	93.8692E-12	692.367E-3	-21.9788E-3	94.4289E-12	712.240E-3	1.47415E-3
2.62381E-3	93.9215E-12	683.994E-3	-28.9339E-3	94.3354E-12	714.057E-3	-16.1128E-3
2.61881E-3	93.9131E-12	701.699E-3	-28.7018E-3	93.7176E-12	720.556E-3	-28.9702E-3
2.61381E-3	93.5840E-12	726.167E-3	-13.8534E-3	93.8142E-12	725.428E-3	-22.7753E-3
2.60880E-3	93.1543E-12	737.257E-3	-13.6676E-3	93.5661E-12	730.466E-3	-22.0939E-3
2.60380E-3	92.6188E-12	734.430E-3	-11.8962E-3	93.8850E-12	729.087E-3	-18.8862E-3
2.59880E-3	92.7580E-12	716.976E-3	-2.69573E-3	93.3253E-12	727.378E-3	-17.6215E-3
2.59380E-3	92.3996E-12	700.257E-3	-7.02469E-3	93.0248E-12	733.032E-3	-30.5364E-3
2.58879E-3	91.6813E-12	702.614E-3	-16.1747E-3	92.8621E-12	743.743E-3	-34.5026E-3
2.58379E-3	91.3731E-12	712.458E-3	-14.1288E-3	92.8051E-12	745.717E-3	-8.58550E-3
2.57879E-3	91.3068E-12	725.183E-3	-5.42477E-3	92.0985E-12	726.555E-3	26.1708E-3
2.57379E-3	91.1712E-12	722.056E-3	-8.60678E-3	91.3701E-12	702.262E-3	25.1317E-3
2.56878E-3	91.0696E-12	709.207E-3	-13.8825E-3	90.8616E-12	699.081E-3	-2.77493E-3
2.56378E-3	90.8939E-12	720.290E-3	3.67978E-3	90.7684E-12	710.697E-3	-16.2409E-3
2.55878E-3	91.3105E-12	734.706E-3	15.8178E-3	89.9309E-12	715.306E-3	-6.90755E-3
2.55378E-3	91.2207E-12	736.499E-3	14.2153E-3	89.3511E-12	715.881E-3	-4.75070E-3
2.54877E-3	91.1667E-12	730.485E-3	19.7681E-3	88.9608E-12	721.073E-3	-24.3651E-3
2.54377E-3	90.9190E-12	713.458E-3	2.12528E-3	88.8504E-12	729.163E-3	-31.1325E-3
2.53877E-3	90.8764E-12	702.517E-3	-21.5753E-3	88.6836E-12	740.570E-3	-17.5983E-3
2.53377E-3	90.7865E-12	716.873E-3	-12.0460E-3	88.6166E-12	735.480E-3	-18.8014E-3
2.52876E-3	90.8208E-12	735.692E-3	-10.1100E-3	88.2848E-12	715.866E-3	-30.2561E-3
2.52376E-3	90.2226E-12	743.718E-3	-20.8849E-3	88.7013E-12	705.704E-3	-29.7008E-3
2.51876E-3	90.0460E-12	736.864E-3	-13.8029E-3	88.6447E-12	711.895E-3	-28.5041E-3
2.51376E-3	89.7276E-12	722.200E-3	-16.8167E-3	88.6057E-12	723.616E-3	-30.4082E-3
2.50875E-3	89.2096E-12	725.183E-3	-27.7212E-3	88.4464E-12	734.320E-3	-32.3154E-3
2.50375E-3	88.7499E-12	726.885E-3	-20.1707E-3	88.8476E-12	743.004E-3	-29.9757E-3
2.49875E-3	88.2102E-12	718.131E-3	-15.8964E-3	88.2512E-12	736.473E-3	-17.1950E-3
2.49375E-3	87.8785E-12	715.647E-3	-22.1507E-3	87.9163E-12	726.450E-3	-7.87633E-3
2.48874E-3	87.7015E-12	718.971E-3	-18.4262E-3	87.7981E-12	728.599E-3	-12.5123E-3
2.48374E-3	87.2423E-12	720.464E-3	-15.1318E-3	87.7037E-12	736.869E-3	-23.9496E-3
2.47874E-3	86.8270E-12	709.867E-3	-22.8432E-3	87.2191E-12	733.036E-3	-19.3736E-3
2.47374E-3	86.7689E-12	698.415E-3	-17.1931E-3	86.6285E-12	712.166E-3	-2.34533E-3
2.46873E-3	86.8980E-12	702.345E-3	-7.59762E-3	86.2626E-12	702.193E-3	1.23696E-3
2.46373E-3	86.2366E-12	714.969E-3	-20.2067E-3	86.0575E-12	713.167E-3	-4.15430E-3
2.45873E-3	86.3419E-12	718.717E-3	-37.5604E-3	85.5027E-12	726.597E-3	1.44740E-3
2.45373E-3	86.2805E-12	710.023E-3	-37.7679E-3	85.0070E-12	725.774E-3	2.83745E-3
2.44872E-3	85.5767E-12	711.913E-3	-34.7593E-3	84.8098E-12	714.469E-3	-5.63783E-3
2.44372E-3	84.8613E-12	729.117E-3	-32.7798E-3	85.0721E-12	714.587E-3	-8.88226E-3
2.43872E-3	84.8686E-12	741.453E-3	-20.8922E-3	84.4377E-12	725.790E-3	-4.43767E-3
2.43372E-3	84.1365E-12	738.622E-3	-15.1503E-3	84.7033E-12	733.956E-3	4.78269E-3
2.42871E-3	83.6117E-12	729.969E-3	-14.3889E-3	84.4841E-12	728.981E-3	1.01890E-3
2.42371E-3	82.8537E-12	730.365E-3	-10.2807E-3	84.6972E-12	709.892E-3	-8.38795E-3
2.41871E-3	82.8833E-12	737.443E-3	-5.17106E-3	84.1318E-12	702.006E-3	-1.28715E-3
2.41371E-3	82.0036E-12	731.837E-3	8.67800E-3	84.1646E-12	716.396E-3	8.37586E-3
2.40870E-3	81.7006E-12	710.702E-3	18.3260E-3	83.7050E-12	725.117E-3	8.88580E-3
2.40370E-3	81.6478E-12	694.017E-3	-3.83252E-3	83.7328E-12	719.584E-3	574.803E-6
2.39870E-3	81.6134E-12	697.031E-3	-22.3274E-3	83.3389E-12	717.218E-3	-12.5025E-3
2.39370E-3	81.6274E-12	717.522E-3	-9.40668E-3	82.8620E-12	715.453E-3	-18.6454E-3
2.38869E-3	81.3029E-12	727.804E-3	-4.07949E-3	82.2013E-12	712.565E-3	-20.2958E-3
2.38369E-3	81.4806E-12	731.665E-3	-9.40748E-3	82.0865E-12	713.278E-3	-29.6774E-3
2.37869E-3	81.4271E-12	732.608E-3	-10.4475E-3	81.8187E-12	721.729E-3	-32.5296E-3
2.37369E-3	81.4609E-12	724.888E-3	-23.2162E-3	81.8057E-12	735.030E-3	-24.3396E-3
2.36868E-3	81.1962E-12	728.714E-3	-30.5764E-3	81.1610E-12	738.990E-3	-25.9378E-3
2.36368E-3	81.4628E-12	733.921E-3	-11.0629E-3	81.0678E-12	734.375E-3	-15.5174E-3
2.35868E-3	80.8592E-12	737.679E-3	-1.27757E-3	80.9035E-12	727.659E-3	1.45194E-3
2.35368E-3	80.6568E-12	756.956E-3	-1.64007E-3	81.0769E-12	729.230E-3	-5.09175E-3
2.34867E-3	80.8414E-12	765.918E-3	6.59033E-3	80.7260E-12	738.958E-3	-3.79913E-3
2.34367E-3	80.8441E-12	762.569E-3	3.57958E-3	80.2056E-12	744.755E-3	2.61686E-3
2.33867E-3	80.1023E-12	771.635E-3	-7.60971E-3	80.0975E-12	756.726E-3	-18.6682E-3
2.33367E-3	79.4639E-12	764.733E-3	-6.65672E-3	80.1870E-12	764.607E-3	-39.6188E-3
2.32866E-3	79.5480E-12	742.753E-3	-7.98520E-3	79.8234E-12	752.631E-3	-32.5484E-3
2.32366E-3	79.2864E-12	745.257E-3	-11.9986E-3	79.4063E-12	745.859E-3	-9.44730E-3
2.31866E-3	79.0943E-12	756.470E-3	-4.44453E-3	78.8327E-12	742.998E-3	485.386E-6
2.31366E-3	78.9078E-12	737.128E-3	7.01092E-3	78.7963E-12	737.132E-3	-7.42589E-3
2.30865E-3	78.7724E-12	717.152E-3	7.18707E-3	78.4666E-12	736.324E-3	-17.3569E-3
2.30365E-3	79.0067E-12	737.383E-3	-7.34970E-3	78.2104E-12	732.674E-3	-30.5929E-3
2.29865E-3	79.0588E-12	763.925E-3	-18.3928E-3	77.6601E-12	726.742E-3	-27.2726E-3
2.29365E-3	78.9302E-12	771.531E-3	-22.6861E-3	77.5291E-12	732.482E-3	-9.11441E-3
2.28864E-3	78.8550E-12	776.657E-3	-17.6869E-3	77.3294E-12	753.439E-3	-18.0319E-3
2.28364E-3	78.8041E-12	780.709E-3	-15.8247E-3	77.1421E-12	761.957E-3	-31.3871E-3
2.27864E-3	78.4868E-12	780.947E-3	-31.4950E-3	76.9165E-12	764.649E-3	-25.4757E-3
2.27364E-3	77.9621E-12	776.615E-3	-45.4802E-3	76.7715E-12	776.239E-3	-19.2922E-3
2.26863E-3	77.7522E-12	757.418E-3	-42.2139E-3	76.8992E-12	770.833E-3	-11.4052E-3
2.26363E-3	76.9477E-12	755.745E-3	-32.2936E-3	76.7577E-12	764.944E-3	-3.57411E-3
2.25863E-3	76.6059E-12	777.155E-3	-27.8191E-3	76.6891E-12	773.375E-3	-4.16576E-3
2.25363E-3	75.9974E-12	771.858E-3	-22.3488E-3	76.3433E-12	767.377E-3	-18.4565E-3
2.24862E-3	75.7354E-12	752.128E-3	-19.7926E-3	76.1891E-12	747.883E-3	-24.7686E-3
2.24362E-3	74.9422E-12	747.717E-3	-17.1706E-3	75.8598E-12	741.553E-3	-12.3374E-3
2.23862E-3	74.4474E-12	747.320E-3	-7.65185E-3	75.3737E-12	742.224E-3	-7.38780E-3
2.23362E-3	74.3766E-12	743.926E-3	-8.55211E-3	74.7132E-12	741.247E-3	-11.7418E-3
2.22861E-3	73.7780E-12	740.803E-3	-16.7304E-3	74.7057E-12	756.237E-3	-5.01786E-3
2.22361E-3	73.4064E-12	741.794E-3	-18.8317E-3	74.0629E-12	773.041E-3	4.46460E-3
2.21861E-3	73.1372E-12	737.926E-3	-21.3303E-3	73.4840E-12	764.822E-3	579.031E-6
2.21361E-3	73.3078E-12	730.250E-3	-22.3825E-3	73.2520E-12	751.266E-3	-11.1199E-3
2.20860E-3	73.0540E-12	736.601E-3	-15.8731E-3	73.3978E-12	749.375E-3	-24.8749E-3
2.20360E-3	73.0609E-12	743.854E-3	-9.56017E-3	72.7792E-12	747.215E-3	-22.2538E-3
2.19860E-3	72.4671E-12	739.796E-3	-13.2070E-3	72.6141E-12	753.536E-3	-3.03549E-3
2.19360E-3	72.6654E-12	742.368E-3	-14.7509E-3	72.5650E-12	760.469E-3	-7.00844E-3
2.18859E-3	72.6641E-12	761.775E-3	-10.1601E-3	72.4779E-12	757.624E-3	-21.7406E-3
2.18359E-3	72.0147E-12	777.224E-3	-11.8594E-3	72.3447E-12	771.371E-3	-16.4850E-3
2.17859E-3	71.5525E-12	771.261E-3	-23.8349E-3	72.0188E-12	785.036E-3	-7.65078E-3
2.17359E-3	71.1919E-12	751.474E-3	-39.7356E-3	72.0463E-12	776.737E-3	-3.91730E-3
2.16858E-3	71.1790E-12	747.998E-3	-39.2087E-3	72.0727E-12	773.754E-3	-2.20628E-3
2.16358E-3	70.9186E-12	756.121E-3	-30.3376E-3	71.9614E-12	782.227E-3	-6.69883E-3
2.15858E-3	70.4008E-12	744.669E-3	-35.0421E-3	71.5454E-12	776.122E-3	-12.8002E-3
2.15358E-3	69.9575E-12	737.520E-3	-37.5880E-3	70.9615E-12	771.875E-3	-14.4530E-3
2.14857E-3	69.8961E-12	745.433E-3	-24.5059E-3	70.6119E-12	793.180E-3	-11.9283E-3
2.14357E-3	69.8718E-12	746.259E-3	-13.6439E-3	70.1718E-12	801.577E-3	1.01877E-3
2.13857E-3	69.3887E-12	750.138E-3	-15.3607E-3	69.8611E-12	784.529E-3	1.52597E-3
2.13357E-3	69.3700E-12	766.020E-3	-17.5079E-3	69.1260E-12	778.470E-3	-16.4416E-3
2.12856E-3	69.2836E-12	770.514E-3	-20.2424E-3	68.9519E-12	786.536E-3	-17.8072E-3
2.12356E-3	69.0200E-12	762.127E-3	-39.6033E-3	68.5031E-12	792.926E-3	-10.1819E-3
2.11856E-3	68.7707E-12	761.360E-3	-56.4929E-3	68.2092E-12	792.190E-3	-14.5099E-3
2.11356E-3	68.8045E-12	765.752E-3	-37.1317E-3	68.1450E-12	793.656E-3	-26.0384E-3
2.10855E-3	68.8013E-12	769.378E-3	-8.39438E-3	68.2312E-12	802.290E-3	-22.6950E-3
2.10355E-3	68.5512E-12	778.877E-3	-2.23758E-3	67.7457E-12	808.656E-3	-10.5380E-3
2.09855E-3	68.4714E-12	777.972E-3	-1.74475E-3	67.6318E-12	807.960E-3	-22.8072E-3
2.09355E-3	68.6663E-12	772.892E-3	-9.93531E-3	67.4455E-12	799.030E-3	-31.1564E-3
2.08854E-3	68.2208E-12	785.647E-3	-27.1592E-3	67.5511E-12	785.733E-3	-23.2738E-3
2.08354E-3	67.9311E-12	797.067E-3	-27.8420E-3	67.4673E-12	781.901E-3	-30.1284E-3
2.07854E-3	67.9258E-12	798.714E-3	-23.1544E-3	67.1232E-12	793.830E-3	-27.8604E-3
2.07354E-3	67.6312E-12	807.057E-3	-30.1336E-3	66.7403E-12	802.907E-3	-12.1403E-3
2.06853E-3	67.2732E-12	817.969E-3	-39.7799E-3	66.6303E-12	806.963E-3	-16.1505E-3
2.06353E-3	66.9003E-12	809.706E-3	-34.2729E-3	66.4385E-12	806.179E-3	-27.9523E-3
2.05853E-3	66.6239E-12	801.208E-3	-30.3962E-3	65.7366E-12	789.519E-3	-25.1669E-3
2.05353E-3	66.2467E-12	816.244E-3	-37.1210E-3	65.2546E-12	776.687E-3	-8.75787E-3
2.04852E-3	65.9896E-12	822.712E-3	-26.4014E-3	65.0700E-12	769.387E-3	10.9257E-3
2.04352E-3	64.9106E-12	803.988E-3	-21.3149E-3	64.7161E-12	765.158E-3	5.33759E-3
2.03852E-3	65.0235E-12	797.783E-3	-27.0851E-3	63.9886E-12	785.237E-3	-27.2331E-3
2.03352E-3	64.9067E-12	815.298E-3	-20.3963E-3	63.7497E-12	813.036E-3	-28.4909E-3
2.02851E-3	64.3480E-12	833.823E-3	-16.7004E-3	63.8005E-12	822.171E-3	1.81735E-3
2.02351E-3	63.8129E-12	828.748E-3	-10.7581E-3	63.7264E-12	810.366E-3	2.09159E-3
2.01851E-3	63.7553E-12	802.857E-3	-16.7595E-3	63.5833E-12	797.877E-3	-15.1218E-3
2.01351E-3	63.5317E-12	801.052E-3	-35.8288E-3	63.2850E-12	803.316E-3	-11.7485E-3
2.00850E-3	63.1108E-12	814.107E-3	-28.9094E-3	63.1046E-12	810.011E-3	-13.8687E-3
2.00350E-3	62.8491E-12	807.052E-3	-15.9745E-3	63.3123E-12	812.923E-3	-30.8151E-3
1.99850E-3	62.5253E-12	803.233E-3	-22.4509E-3	62.6538E-12	821.627E-3	-21.1088E-3
1.99350E-3	62.2543E-12	814.301E-3	-23.4094E-3	62.4694E-12	823.255E-3	-7.11366E-3
1.98849E-3	61.9172E-12	818.298E-3	-16.8850E-3	62.3635E-12	821.191E-3	-24.7212E-3
1.98349E-3	62.0317E-12	812.288E-3	-25.0079E-3	62.0575E-12	825.149E-3	-32.1005E-3
1.97849E-3	61.6250E-12	821.082E-3	-39.9769E-3	61.5178E-12	815.888E-3	-23.1143E-3
1.97349E-3	61.1518E-12	825.286E-3	-40.5214E-3	60.9780E-12	794.282E-3	-21.9568E-3
1.96848E-3	60.9694E-12	810.430E-3	-24.9287E-3	60.3747E-12	798.894E-3	-7.95421E-3
1.96348E-3	60.5275E-12	816.551E-3	-9.18225E-3	60.1345E-12	834.747E-3	2.58871E-3
1.95848E-3	60.3747E-12	841.792E-3	-3.88184E-3	59.7605E-12	857.190E-3	-8.07947E-3
1.95348E-3	59.8564E-12	854.586E-3	-12.1859E-3	59.1987E-12	850.934E-3	-10.8869E-3
1.94847E-3	59.6598E-12	858.321E-3	-15.1340E-3	58.8458E-12	844.487E-3	-5.23813E-3
1.94347E-3	59.2594E-12	849.130E-3	-442.583E-6	58.6593E-12	845.264E-3	-11.9215E-3
1.93847E-3	59.3159E-12	832.312E-3	-8.23528E-3	58.5177E-12	843.751E-3	-16.2177E-3
1.93347E-3	58.7690E-12	833.850E-3	-32.1295E-3	58.4713E-12	842.422E-3	-15.6693E-3
1.92846E-3	58.4621E-12	836.269E-3	-30.8980E-3	58.3714E-12	847.439E-3	-29.7525E-3
1.92346E-3	58.2692E-12	837.222E-3	-34.6733E-3	58.1195E-12	858.527E-3	-28.8519E-3
1.91846E-3	58.0704E-12	856.287E-3	-46.3346E-3	57.9787E-12	865.503E-3	-10.8752E-3
1.91346E-3	57.7517E-12	871.669E-3	-26.6408E-3	57.7788E-12	865.399E-3	-12.6370E-3
1.90845E-3	57.0707E-12	868.436E-3	3.37991E-3	57.5372E-12	867.636E-3	-26.6755E-3
1.90345E-3	56.9315E-12	865.359E-3	649.867E-6	57.5980E-12	867.041E-3	-27.3407E-3
1.89845E-3	56.8645E-12	862.346E-3	-16.1673E-3	57.1709E-12	857.751E-3	-17.3520E-3
1.89345E-3	57.0162E-12	858.170E-3	-6.95851E-3	56.9840E-12	851.715E-3	-7.59148E-3
1.88844E-3	56.5188E-12	868.013E-3	7.33126E-3	56.5481E-12	857.655E-3	-539.960E-6
1.88344E-3	56.0808E-12	882.753E-3	2.71461E-3	56.3708E-12	868.756E-3	-12.5947E-3
1.87844E-3	56.0242E-12	880.154E-3	-9.07826E-3	55.9254E-12	868.297E-3	-31.4437E-3
1.87344E-3	55.8626E-12	868.482E-3	-21.6984E-3	55.5218E-12	870.873E-3	-35.9578E-3
1.86843E-3	55.4634E-12	863.437E-3	-22.6982E-3	55.0312E-12	881.646E-3	-31.3210E-3
1.86343E-3	55.0027E-12	867.938E-3	-9.89286E-3	54.7068E-12	881.660E-3	-23.4308E-3
1.85843E-3	54.8702E-12	873.402E-3	11.1608E-6	54.5586E-12	884.340E-3	-20.2753E-3
1.85343E-3	54.4934E-12	865.692E-3	3.43449E-3	54.3134E-12	897.815E-3	-16.3146E-3
1.84842E-3	54.0880E-12	852.289E-3	-12.4545E-3	54.0318E-12	901.983E-3	-10.7638E-3
1.84342E-3	53.7434E-12	855.232E-3	-39.5781E-3	53.8386E-12	898.268E-3	-14.3931E-3
1.83842E-3	53.6889E-12	879.725E-3	-36.8073E-3	53.7082E-12	899.308E-3	-25.7796E-3
1.83342E-3	53.2842E-12	899.135E-3	-17.5913E-3	53.5167E-12	899.155E-3	-26.5877E-3
1.82841E-3	53.0323E-12	902.031E-3	-15.8377E-3	53.3414E-12	894.295E-3	-10.9905E-3
1.82341E-3	52.6084E-12	908.062E-3	-16.7410E-3	52.8500E-12	894.419E-3	891.994E-6
1.81841E-3	52.1036E-12	910.406E-3	-10.0721E-3	52.2416E-12	901.655E-3	4.84326E-3
1.81341E-3	51.4028E-12	896.843E-3	-6.52680E-3	52.0964E-12	904.043E-3	3.82285E-3
1.80840E-3	51.0722E-12	898.810E-3	-9.76525E-3	51.8964E-12	910.490E-3	-4.39150E-3
1.80340E-3	50.8423E-12	912.223E-3	-15.2696E-3	51.2418E-12	922.745E-3	-4.05327E-3
1.79840E-3	50.6207E-12	907.655E-3	-18.8470E-3	50.6589E-12	920.521E-3	7.59572E-3
1.79340E-3	50.2570E-12	906.255E-3	-22.0461E-3	50.3717E-12	916.120E-3	9.09398E-3
1.78839E-3	49.7631E-12	923.916E-3	-16.6442E-3	49.9489E-12	928.579E-3	299.630E-6
1.78339E-3	49.6212E-12	934.227E-3	-12.2179E-3	49.5800E-12	937.627E-3	-4.86846E-3
1.77839E-3	49.5826E-12	930.400E-3	-18.2550E-3	49.2280E-12	938.365E-3	-18.2793E-3
1.77339E-3	49.2504E-12	932.846E-3	-23.7171E-3	48.9950E-12	941.881E-3	-31.6026E-3
1.76838E-3	48.8798E-12	928.347E-3	-22.2330E-3	48.8057E-12	941.200E-3	-23.6861E-3
1.76338E-3	48.7458E-12	922.862E-3	-6.31076E-3	48.8274E-12	947.995E-3	-17.8733E-3
1.75838E-3	48.5864E-12	933.447E-3	3.39972E-3	48.4292E-12	966.619E-3	-26.3535E-3
1.75338E-3	48.1812E-12	931.823E-3	-4.96927E-3	48.1320E-12	971.970E-3	-16.6899E-3
1.74837E-3	48.0140E-12	932.715E-3	-14.8847E-3	47.9548E-12	968.060E-3	2.71589E-3
1.74337E-3	47.9751E-12	940.113E-3	-20.0061E-3	47.7646E-12	973.637E-3	-6.78369E-3
1.73837E-3	47.6518E-12	937.266E-3	-18.9585E-3	47.4652E-12	970.800E-3	-19.8611E-3
1.73337E-3	47.5086E-12	947.160E-3	-8.47631E-3	47.1218E-12	955.820E-3	-16.2267E-3
1.72836E-3	47.2215E-12	966.564E-3	1.26049E-3	46.4930E-12	956.797E-3	-22.6985E-3
1.72336E-3	46.7122E-12	971.598E-3	-7.93481E-3	46.1167E-12	968.675E-3	-25.6539E-3
1.71836E-3	46.2637E-12	965.036E-3	-17.8134E-3	45.5693E-12	976.601E-3	-12.3659E-3
1.71336E-3	45.8200E-12	971.416E-3	-5.43391E-3	45.2773E-12	983.604E-3	-14.8479E-3
1.70835E-3	45.5603E-12	989.478E-3	3.56398E-3	45.0822E-12	987.644E-3	-31.6380E-3
1.70335E-3	45.1042E-12	992.986E-3	-8.19388E-3	44.5059E-12	998.255E-3	-33.8671E-3
1.69835E-3	44.6082E-12	988.260E-3	-21.5464E-3	44.2006E-12	1.00703E+0	-25.6738E-3
1.69335E-3	44.3949E-12	985.195E-3	-22.3081E-3	43.8872E-12	1.00233E+0	-11.8966E-3
1.68834E-3	44.2008E-12	985.499E-3	-21.1963E-3	43.7962E-12	1.00526E+0	3.61805E-3
1.68334E-3	43.8727E-12	1.00089E+0	-17.9994E-3	43.3722E-12	1.02467E+0	-2.19763E-3
1.67834E-3	43.5323E-12	1.02115E+0	-2.64969E-3	43.1413E-12	1.03733E+0	-16.6043E-3
1.67334E-3	43.3116E-12	1.01959E+0	-3.65793E-3	42.7757E-12	1.03975E+0	-12.9686E-3
1.66833E-3	43.1923E-12	1.00724E+0	-29.9214E-3	42.7202E-12	1.05056E+0	-7.55235E-3
1.66333E-3	42.8305E-12	1.01583E+0	-43.3817E-3	42.5949E-12	1.05301E+0	-21.8365E-3
1.65833E-3	42.3365E-12	1.02801E+0	-42.5979E-3	42.1800E-12	1.03816E+0	-31.2519E-3
1.65333E-3	42.0294E-12	1.03584E+0	-46.0233E-3	41.8575E-12	1.04249E+0	-19.4639E-3
1.64832E-3	41.9581E-12	1.04632E+0	-31.2062E-3	41.7758E-12	1.06947E+0	-10.2723E-3
1.64332E-3	41.6403E-12	1.04754E+0	-10.8825E-3	41.1547E-12	1.07551E+0	-3.89141E-3
1.63832E-3	41.2413E-12	1.05248E+0	-20.6950E-3	40.6432E-12	1.07002E+0	1.04471E-3
1.63332E-3	40.8531E-12	1.06522E+0	-26.7369E-3	40.2168E-12	1.07927E+0	-13.1565E-3
1.62831E-3	40.3920E-12	1.06854E+0	-12.8442E-3	39.7236E-12	1.08347E+0	-27.5067E-3
1.62331E-3	39.9661E-12	1.07333E+0	-2.38381E-3	39.2026E-12	1.09087E+0	-34.5748E-3
1.61831E-3	39.2995E-12	1.08276E+0	1.83252E-3	38.6283E-12	1.09213E+0	-40.1581E-3
1.61331E-3	38.8781E-12	1.07781E+0	4.03287E-3	38.3028E-12	1.06925E+0	-31.8073E-3
1.60830E-3	38.3529E-12	1.07212E+0	-323.539E-6	38.0007E-12	1.07207E+0	-23.8569E-3
1.60330E-3	37.8164E-12	1.07867E+0	-3.15850E-3	37.5033E-12	1.09712E+0	-29.3139E-3
1.59830E-3	37.3959E-12	1.09081E+0	-4.27423E-3	37.3579E-12	1.09881E+0	-31.0449E-3
1.59330E-3	36.9314E-12	1.10764E+0	-17.3199E-3	37.2173E-12	1.10162E+0	-23.1179E-3
1.58829E-3	36.6360E-12	1.11295E+0	-28.5478E-3	36.8059E-12	1.12332E+0	-16.4359E-3
1.58329E-3	36.3242E-12	1.10240E+0	-21.0986E-3	36.4435E-12	1.14085E+0	-13.5504E-3
1.57829E-3	35.8671E-12	1.09722E+0	-12.8282E-3	36.2874E-12	1.14695E+0	-8.90499E-3
1.57329E-3	35.5324E-12	1.10285E+0	-11.8470E-3	36.1407E-12	1.15604E+0	-7.47569E-3
1.56828E-3	35.3552E-12	1.10729E+0	-2.85291E-3	35.5653E-12	1.15763E+0	-15.9535E-3
1.56328E-3	34.9331E-12	1.10589E+0	-3.27692E-3	35.1841E-12	1.14428E+0	-16.7920E-3
1.55828E-3	34.4729E-12	1.10632E+0	-12.8569E-3	34.9078E-12	1.14540E+0	-16.9304E-3
1.55328E-3	34.3030E-12	1.10962E+0	-14.8972E-3	34.7156E-12	1.15596E+0	-30.3391E-3
1.54827E-3	34.0830E-12	1.11258E+0	-26.4776E-3	34.0736E-12	1.15354E+0	-29.8258E-3
1.54327E-3	33.7225E-12	1.12516E+0	-40.4942E-3	33.4873E-12	1.14864E+0	-15.4124E-3
1.53827E-3	33.2251E-12	1.14014E+0	-36.5360E-3	33.1508E-12	1.14485E+0	-7.02056E-3
1.53327E-3	33.0030E-12	1.15375E+0	-24.2382E-3	32.7328E-12	1.13633E+0	1.45825E-3
1.52826E-3	32.8121E-12	1.17182E+0	-14.4148E-3	32.3081E-12	1.14337E+0	-111.756E-6
1.52326E-3	32.1680E-12	1.17835E+0	-16.0375E-3	31.5924E-12	1.16428E+0	-13.0691E-3
1.51826E-3	31.5287E-12	1.17243E+0	-30.5204E-3	31.1345E-12	1.16805E+0	-14.5808E-3
1.51326E-3	31.2197E-12	1.16675E+0	-31.6839E-3	30.8452E-12	1.17087E+0	-17.4780E-3
1.50825E-3	30.9020E-12	1.15661E+0	-13.7234E-3	30.7356E-12	1.18558E+0	-32.2902E-3
1.50325E-3	30.3112E-12	1.14503E+0	-9.53668E-3	30.3341E-12	1.19207E+0	-36.2251E-3
1.49825E-3	29.8603E-12	1.14961E+0	-25.9995E-3	29.8877E-12	1.19796E+0	-23.4443E-3
1.49325E-3	29.7226E-12	1.15841E+0	-33.1897E-3	29.6812E-12	1.21055E+0	-15.3367E-3
1.48824E-3	29.3659E-12	1.16118E+0	-38.9273E-3	29.4969E-12	1.21085E+0	-10.3612E-3
1.48324E-3	28.9458E-12	1.17098E+0	-45.1607E-3	29.2458E-12	1.21153E+0	430.036E-6
1.47824E-3	28.5491E-12	1.18862E+0	-24.8578E-3	28.7350E-12	1.22825E+0	-9.45993E-3
1.47324E-3	28.3277E-12	1.19737E+0	-2.61015E-3	28.2555E-12	1.22964E+0	-28.8885E-3
1.46823E-3	27.8831E-12	1.18816E+0	-11.2179E-3	27.9924E-12	1.21226E+0	-25.9756E-3
1.46323E-3	27.5039E-12	1.18729E+0	-23.5463E-3	27.6834E-12	1.20300E+0	-19.0304E-3
1.45823E-3	27.2110E-12	1.20078E+0	-15.1140E-3	27.1983E-12	1.19013E+0	-18.2912E-3
1.45323E-3	26.8757E-12	1.20520E+0	-3.89156E-3	26.6776E-12	1.18113E+0	-17.8702E-3
1.44822E-3	26.3906E-12	1.20630E+0	-7.04514E-3	26.2693E-12	1.19564E+0	-23.5545E-3
1.44322E-3	26.0248E-12	1.20587E+0	-23.6000E-3	25.9442E-12	1.19798E+0	-23.4801E-3
1.43822E-3	25.7470E-12	1.19754E+0	-34.3381E-3	25.5556E-12	1.18859E+0	-15.0029E-3
1.43322E-3	25.4498E-12	1.19266E+0	-26.2418E-3	25.1381E-12	1.19824E+0	-13.3698E-3
1.42821E-3	24.9033E-12	1.19419E+0	-11.7119E-3	24.7051E-12	1.20519E+0	-21.7516E-3
1.42321E-3	24.3644E-12	1.20474E+0	-11.9073E-3	24.1943E-12	1.18933E+0	-34.9931E-3
1.41821E-3	23.9418E-12	1.20528E+0	-26.4903E-3	23.8934E-12	1.16457E+0	-40.1974E-3
1.41321E-3	23.6924E-12	1.18414E+0	-38.7754E-3	23.4587E-12	1.14792E+0	-33.3480E-3
1.40820E-3	23.1508E-12	1.17785E+0	-32.3237E-3	22.9052E-12	1.15785E+0	-18.6489E-3
1.40320E-3	22.6841E-12	1.19327E+0	-9.10580E-3	22.4612E-12	1.17151E+0	-13.5343E-3
1.39820E-3	22.3167E-12	1.19753E+0	-1.14335E-3	22.3488E-12	1.15931E+0	-21.4019E-3
1.39320E-3	22.0598E-12	1.17953E+0	-23.9756E-3	21.9647E-12	1.13619E+0	-9.45141E-3
1.38819E-3	21.5568E-12	1.14979E+0	-44.7412E-3	21.4878E-12	1.11878E+0	5.83301E-3
1.38319E-3	21.1718E-12	1.13138E+0	-33.0284E-3	20.9280E-12	1.10739E+0	-6.63014E-3
1.37819E-3	20.8869E-12	1.13656E+0	-12.6786E-3	20.5851E-12	1.10178E+0	-22.5441E-3
1.37319E-3	20.4974E-12	1.15720E+0	-6.45046E-3	20.3081E-12	1.11055E+0	-28.7081E-3
1.36818E-3	19.9813E-12	1.16456E+0	-4.18345E-3	19.7285E-12	1.11723E+0	-31.6172E-3
1.36318E-3	19.5189E-12	1.14115E+0	-4.96066E-3	19.1606E-12	1.10056E+0	-20.9730E-3
1.35818E-3	19.1483E-12	1.12034E+0	-10.4163E-3	18.8945E-12	1.08548E+0	-10.7097E-3
1.35318E-3	18.7007E-12	1.11835E+0	705.810E-6	18.5905E-12	1.07982E+0	-15.4795E-3
1.34817E-3	18.3573E-12	1.11431E+0	9.27799E-3	18.2000E-12	1.06825E+0	-13.9938E-3
1.34317E-3	17.9754E-12	1.09791E+0	-10.8223E-3	17.8951E-12	1.06519E+0	-12.4815E-3
1.33817E-3	17.6205E-12	1.07812E+0	-27.1799E-3	17.5974E-12	1.06653E+0	-18.7385E-3
1.33317E-3	17.2695E-12	1.06240E+0	-27.7601E-3	17.3418E-12	1.05439E+0	-17.4416E-3
1.32816E-3	17.0531E-12	1.05093E+0	-19.5793E-3	16.9479E-12	1.04506E+0	-15.3010E-3
1.32316E-3	16.6775E-12	1.04890E+0	-5.15776E-3	16.6257E-12	1.03661E+0	-24.4152E-3
1.31816E-3	16.3749E-12	1.05560E+0	-851.685E-6	16.3183E-12	1.01688E+0	-28.5827E-3
1.31316E-3	16.0363E-12	1.05823E+0	-2.76872E-3	16.0141E-12	996.398E-3	-8.21769E-3
1.30815E-3	15.7099E-12	1.04679E+0	473.939E-6	15.6919E-12	977.902E-3	10.0499E-3
1.30315E-3	15.4716E-12	1.01800E+0	-1.30368E-3	15.4901E-12	959.683E-3	-2.55284E-3
1.29815E-3	15.1861E-12	996.181E-3	-11.8813E-3	15.1422E-12	948.683E-3	-19.4362E-3
1.29315E-3	14.7995E-12	998.477E-3	-16.8558E-3	14.6927E-12	933.077E-3	-20.9593E-3
1.28814E-3	14.4802E-12	993.796E-3	-17.4520E-3	14.3690E-12	907.775E-3	-21.8936E-3
1.28314E-3	14.2314E-12	975.951E-3	-21.4559E-3	14.1554E-12	895.546E-3	-24.4143E-3
1.27814E-3	14.0322E-12	966.632E-3	-20.7670E-3	13.8318E-12	887.003E-3	-24.9925E-3
1.27314E-3	13.6370E-12	957.662E-3	-20.4187E-3	13.4180E-12	867.044E-3	-17.4414E-3
1.26813E-3	13.1628E-12	941.209E-3	-28.5064E-3	12.9888E-12	851.381E-3	1.52704E-3
1.26313E-3	12.8882E-12	928.674E-3	-32.0693E-3	12.7672E-12	856.849E-3	5.74615E-3
1.25813E-3	12.6755E-12	915.193E-3	-20.4553E-3	12.5717E-12	854.634E-3	-13.5296E-3
1.25313E-3	12.3392E-12	888.872E-3	-8.03087E-3	12.2750E-12	822.867E-3	-15.3866E-3
1.24812E-3	11.8909E-12	864.926E-3	-12.4329E-3	11.8792E-12	803.391E-3	-1.30892E-3
1.24312E-3	11.6641E-12	847.772E-3	-26.8027E-3	11.6817E-12	788.323E-3	-6.57403E-3
1.23812E-3	11.4413E-12	831.398E-3	-32.9991E-3	11.5547E-12	754.799E-3	-14.7014E-3
1.23312E-3	11.3334E-12	817.805E-3	-22.6286E-3	11.2845E-12	740.965E-3	-17.9664E-3
1.22811E-3	10.9788E-12	799.210E-3	-9.75712E-3	10.9775E-12	744.890E-3	-25.2707E-3
1.22311E-3	10.6911E-12	778.529E-3	-17.4622E-3	10.6894E-12	740.446E-3	-24.4976E-3
1.21811E-3	10.4947E-12	773.798E-3	-35.6661E-3	10.4859E-12	729.555E-3	-20.2785E-3
1.21311E-3	10.3241E-12	770.037E-3	-33.7597E-3	10.2273E-12	700.770E-3	-17.6571E-3
1.20810E-3	10.0342E-12	750.544E-3	-19.3316E-3	9.92188E-12	660.153E-3	-15.5254E-3
1.20310E-3	9.79967E-12	739.830E-3	-14.3324E-3	9.62984E-12	641.356E-3	-21.0028E-3
1.19810E-3	9.54373E-12	732.421E-3	-7.11544E-3	9.41990E-12	634.656E-3	-28.8429E-3
1.19310E-3	9.38540E-12	699.011E-3	338.684E-6	9.18925E-12	624.142E-3	-22.0077E-3
1.18809E-3	9.14678E-12	667.318E-3	-4.15121E-3	8.94776E-12	614.994E-3	-9.35369E-3
1.18309E-3	8.87372E-12	659.087E-3	-5.86068E-3	8.69800E-12	592.938E-3	-21.1998E-3
1.17809E-3	8.58865E-12	644.675E-3	-4.65948E-3	8.54467E-12	568.074E-3	-38.6665E-3
1.17309E-3	8.35601E-12	625.981E-3	-7.71357E-3	8.29411E-12	547.569E-3	-29.4505E-3
1.16808E-3	8.22744E-12	617.283E-3	-21.8945E-3	8.17135E-12	525.307E-3	-19.9702E-3
1.16308E-3	7.99436E-12	592.866E-3	-37.8876E-3	7.95437E-12	501.826E-3	-16.8648E-3
1.15808E-3	7.76642E-12	551.328E-3	-33.7541E-3	7.74040E-12	486.890E-3	-14.3842E-3
1.15308E-3	7.51851E-12	534.078E-3	-16.6412E-3	7.51329E-12	491.614E-3	-24.1930E-3
1.14807E-3	7.30514E-12	540.507E-3	-9.45377E-3	7.46801E-12	484.320E-3	-31.3116E-3
1.14307E-3	7.22714E-12	529.864E-3	-15.4293E-3	7.26098E-12	459.286E-3	-21.9156E-3
1.13807E-3	7.08281E-12	509.605E-3	-12.5584E-3	7.14350E-12	448.650E-3	-17.6789E-3
1.13307E-3	6.92038E-12	498.011E-3	1.48936E-3	6.91185E-12	443.189E-3	-28.2930E-3
1.12806E-3	6.74403E-12	485.309E-3	-762.713E-6	6.77687E-12	437.397E-3	-33.3801E-3
1.12306E-3	6.64364E-12	476.966E-3	-10.1375E-3	6.76769E-12	436.421E-3	-39.9100E-3
1.11806E-3	6.55927E-12	462.639E-3	-4.44322E-3	6.53039E-12	420.175E-3	-48.4634E-3
1.11306E-3	6.36637E-12	441.360E-3	1.46574E-3	6.23498E-12	391.924E-3	-43.1254E-3
1.10805E-3	6.16716E-12	429.859E-3	-8.61707E-3	6.13196E-12	372.187E-3	-30.9926E-3
1.10305E-3	6.12036E-12	419.961E-3	-26.1368E-3	6.06531E-12	357.702E-3	-21.4431E-3
1.09805E-3	6.02023E-12	408.839E-3	-33.8476E-3	5.98746E-12	352.391E-3	-17.2060E-3
1.09305E-3	5.87428E-12	400.120E-3	-27.1543E-3	5.74647E-12	350.099E-3	-12.9634E-3
1.08804E-3	5.61431E-12	383.898E-3	-13.7943E-3	5.57122E-12	325.118E-3	-9.94326E-3
1.08304E-3	5.46773E-12	358.883E-3	-12.7441E-3	5.56522E-12	303.847E-3	-4.82648E-3
1.07804E-3	5.42330E-12	348.680E-3	-16.0320E-3	5.46766E-12	311.207E-3	934.762E-6
1.07304E-3	5.37284E-12	348.076E-3	-10.1886E-3	5.29305E-12	308.530E-3	-12.5576E-3
1.06803E-3	5.16267E-12	334.919E-3	-12.3549E-3	5.19638E-12	279.145E-3	-30.9266E-3
1.06303E-3	4.99695E-12	327.414E-3	-20.7653E-3	5.10649E-12	265.395E-3	-31.6226E-3
1.05803E-3	4.98603E-12	323.169E-3	-10.7945E-3	4.99929E-12	271.035E-3	-25.5233E-3
1.05303E-3	4.90393E-12	306.461E-3	11.6851E-3	4.93068E-12	263.664E-3	-24.7927E-3
1.04802E-3	4.84298E-12	297.715E-3	12.4457E-3	4.82619E-12	258.225E-3	-21.4416E-3
1.04302E-3	4.83095E-12	306.086E-3	-8.99673E-3	4.85447E-12	266.669E-3	-10.9728E-3
1.03802E-3	4.69469E-12	300.466E-3	-21.9043E-3	4.69491E-12	251.527E-3	-2.46924E-3
1.03302E-3	4.54632E-12	272.689E-3	-20.8494E-3	4.55041E-12	212.928E-3	-3.05999E-3
1.02801E-3	4.41382E-12	252.284E-3	-16.9679E-3	4.37142E-12	200.954E-3	-13.1492E-3
1.02301E-3	4.26742E-12	243.744E-3	-10.6455E-3	4.13080E-12	198.453E-3	-22.6924E-3
1.01801E-3	4.08174E-12	241.909E-3	-14.3311E-3	4.03571E-12	178.937E-3	-21.7318E-3
1.01301E-3	4.03430E-12	244.370E-3	-26.7030E-3	3.94562E-12	170.657E-3	-12.0010E-3
1.00800E-3	3.95398E-12	237.314E-3	-26.0232E-3	3.94405E-12	173.942E-3	-8.21369E-3
1.00300E-3	3.90674E-12	223.165E-3	-16.7849E-3	3.85252E-12	177.249E-3	-11.8356E-3
997.999E-6	3.79777E-12	217.055E-3	-7.36283E-3	3.74491E-12	181.507E-3	-14.5763E-3
992.997E-6	3.65274E-12	203.781E-3	-4.12687E-3	3.61749E-12	176.588E-3	-19.4190E-3
987.994E-6	3.63388E-12	178.651E-3	-18.6816E-3	3.68729E-12	168.235E-3	-13.1751E-3
982.991E-6	3.62733E-12	168.178E-3	-30.5541E-3	3.64582E-12	165.771E-3	4.12960E-3
977.989E-6	3.57022E-12	176.776E-3	-23.9237E-3	3.55836E-12	158.463E-3	3.47366E-3
972.986E-6	3.37767E-12	183.279E-3	-19.8904E-3	3.45421E-12	150.193E-3	-10.2515E-3
967.984E-6	3.39338E-12	185.389E-3	-25.3046E-3	3.50797E-12	146.202E-3	-17.5537E-3
962.981E-6	3.41829E-12	186.466E-3	-28.1834E-3	3.46026E-12	139.351E-3	-24.5529E-3
957.979E-6	3.36902E-12	176.146E-3	-32.7580E-3	3.36216E-12	135.309E-3	-25.8756E-3
952.976E-6	3.28088E-12	168.231E-3	-35.9994E-3	3.26377E-12	140.377E-3	-21.3019E-3
947.974E-6	3.19898E-12	166.175E-3	-24.5765E-3	3.28123E-12	142.687E-3	-18.8083E-3
942.971E-6	3.21834E-12	150.300E-3	-13.1424E-3	3.23569E-12	131.406E-3	-13.1686E-3
937.969E-6	3.22120E-12	139.801E-3	-13.6189E-3	3.14973E-12	119.433E-3	-10.8904E-3
932.966E-6	3.15246E-12	141.366E-3	-3.47059E-3	3.09016E-12	113.620E-3	-19.8322E-3
927.964E-6	3.06456E-12	129.864E-3	8.13443E-3	2.98558E-12	97.5460E-3	-24.6961E-3
922.961E-6	2.96136E-12	122.137E-3	-7.47494E-3	2.99943E-12	92.3949E-3	-14.9672E-3
917.959E-6	3.01608E-12	135.255E-3	-22.2596E-3	2.97175E-12	105.526E-3	-12.2791E-3
912.956E-6	2.95222E-12	140.739E-3	-21.2373E-3	2.90592E-12	101.030E-3	-16.3432E-3
907.954E-6	2.87992E-12	125.163E-3	-24.8602E-3	2.82629E-12	94.0827E-3	-10.1296E-3
902.951E-6	2.73537E-12	114.025E-3	-21.6430E-3	2.75467E-12	100.606E-3	-15.4034E-3
897.949E-6	2.74857E-12	110.837E-3	-9.61775E-3	2.79007E-12	98.2111E-3	-32.7019E-3
892.946E-6	2.77869E-12	104.977E-3	-9.67937E-3	2.81541E-12	95.0758E-3	-28.8901E-3
887.944E-6	2.73361E-12	104.149E-3	-9.59164E-3	2.76985E-12	102.586E-3	-17.6338E-3
882.941E-6	2.69556E-12	94.6018E-3	-3.31267E-3	2.63426E-12	97.0721E-3	-24.2861E-3
877.939E-6	2.61432E-12	71.5569E-3	-10.7387E-3	2.66049E-12	83.0583E-3	-25.4532E-3
872.936E-6	2.59800E-12	69.9515E-3	-24.1290E-3	2.69468E-12	86.6942E-3	-15.0578E-3
867.934E-6	2.63523E-12	84.7964E-3	-27.5809E-3	2.65688E-12	89.1370E-3	-11.3929E-3
862.931E-6	2.64033E-12	84.2585E-3	-26.1922E-3	2.59288E-12	83.4053E-3	-15.2777E-3
857.929E-6	2.52270E-12	82.4564E-3	-23.7700E-3	2.51103E-12	84.6805E-3	-21.4756E-3
852.926E-6	2.52616E-12	90.1608E-3	-16.1202E-3	2.55262E-12	80.6072E-3	-27.8886E-3
847.924E-6	2.58478E-12	97.8606E-3	-17.2038E-3	2.54549E-12	68.8046E-3	-23.2803E-3
842.921E-6	2.51318E-12	99.4922E-3	-27.6816E-3	2.49564E-12	68.2198E-3	-11.4696E-3
837.919E-6	2.45651E-12	83.2555E-3	-24.9715E-3	2.38394E-12	70.3253E-3	-9.80790E-3
832.916E-6	2.36339E-12	64.1727E-3	-19.6219E-3	2.42315E-12	68.5697E-3	-11.3078E-3
827.914E-6	2.39961E-12	66.1772E-3	-14.8353E-3	2.46164E-12	67.0544E-3	-15.8907E-3
822.911E-6	2.40336E-12	74.8167E-3	-476.223E-6	2.41196E-12	56.4846E-3	-23.1552E-3
817.909E-6	2.26772E-12	80.3478E-3	-4.02416E-3	2.30574E-12	55.3205E-3	-24.9545E-3
812.906E-6	2.23855E-12	91.4117E-3	-21.6268E-3	2.28412E-12	73.5418E-3	-15.3226E-3
807.904E-6	2.24482E-12	90.1078E-3	-20.3455E-3	2.34086E-12	80.9719E-3	167.768E-6
802.901E-6	2.29680E-12	76.2188E-3	-14.3352E-3	2.27680E-12	57.1917E-3	863.682E-6
797.899E-6	2.23320E-12	72.9888E-3	-20.3335E-3	2.22862E-12	32.5628E-3	-6.96519E-3
792.896E-6	2.17182E-12	67.3923E-3	-27.3127E-3	2.17738E-12	34.2688E-3	-18.6240E-3
787.894E-6	2.18498E-12	52.0940E-3	-25.9198E-3	2.17715E-12	44.8054E-3	-30.5140E-3
782.891E-6	2.14776E-12	44.5541E-3	-12.6119E-3	2.19035E-12	48.9064E-3	-27.3732E-3
777.889E-6	2.20839E-12	48.2255E-3	8.39178E-3	2.14142E-12	54.6196E-3	-24.0837E-3
772.886E-6	2.17555E-12	56.7383E-3	14.7368E-3	2.08567E-12	56.2956E-3	-16.9599E-3
767.884E-6	2.13068E-12	60.0435E-3	4.97991E-3	2.02071E-12	48.4222E-3	4.36970E-3
762.881E-6	2.06346E-12	55.0946E-3	-2.66558E-3	2.04041E-12	41.0304E-3	1.91724E-3
757.879E-6	2.07301E-12	42.8678E-3	-12.7767E-3	2.10571E-12	35.6720E-3	-23.4262E-3
752.876E-6	2.09172E-12	34.6912E-3	-14.8155E-3	2.02168E-12	36.3134E-3	-30.4154E-3
747.874E-6	2.04650E-12	49.2091E-3	-3.31454E-3	1.95947E-12	39.7071E-3	-18.5573E-3
742.871E-6	1.98399E-12	54.2590E-3	-4.14899E-3	1.96039E-12	39.2240E-3	-15.3134E-3
737.869E-6	1.93697E-12	42.5680E-3	-20.3107E-3	2.03482E-12	40.6957E-3	-21.3412E-3
732.866E-6	2.03731E-12	45.0513E-3	-21.9156E-3	2.04416E-12	38.3226E-3	-18.0068E-3
727.864E-6	1.96347E-12	48.4699E-3	-2.67240E-3	1.89503E-12	31.0698E-3	-12.1292E-3
722.861E-6	1.86062E-12	44.8709E-3	2.02836E-3	1.90582E-12	38.5872E-3	-9.33241E-3
717.859E-6	1.86423E-12	52.7868E-3	-8.67440E-3	1.94974E-12	51.0476E-3	-13.1620E-3
712.856E-6	1.94044E-12	60.9970E-3	-12.8781E-3	1.97958E-12	45.7477E-3	-21.3675E-3
707.854E-6	1.97891E-12	54.8384E-3	-16.7379E-3	1.96555E-12	29.2470E-3	-23.3894E-3
702.851E-6	1.85514E-12	51.7199E-3	-20.4696E-3	1.83473E-12	28.2387E-3	-27.0108E-3
697.849E-6	1.86814E-12	47.6580E-3	-19.0048E-3	1.90585E-12	38.3437E-3	-26.0520E-3
692.846E-6	1.91348E-12	32.6165E-3	-16.3700E-3	1.92148E-12	30.5207E-3	-9.16756E-3
687.844E-6	1.91907E-12	18.6180E-3	-14.2983E-3	1.89144E-12	24.4397E-3	-13.4451E-3
682.841E-6	1.92046E-12	9.65650E-3	-15.3273E-3	1.85833E-12	30.0310E-3	-37.1161E-3
677.839E-6	1.83762E-12	4.72875E-3	-16.3439E-3	1.77493E-12	24.4661E-3	-30.0794E-3
672.836E-6	1.83190E-12	14.8180E-3	-13.6790E-3	1.85413E-12	24.1833E-3	-21.0034E-3
667.834E-6	1.85637E-12	27.3763E-3	-4.30126E-3	1.87400E-12	31.2970E-3	-31.9858E-3
662.831E-6	1.85286E-12	24.5367E-3	-839.338E-6	1.76013E-12	28.6749E-3	-28.8536E-3
657.829E-6	1.76973E-12	25.7346E-3	-13.1949E-3	1.73232E-12	21.5671E-3	-16.9197E-3
652.826E-6	1.74588E-12	40.8749E-3	-14.7554E-3	1.72146E-12	21.6067E-3	-13.0643E-3
647.824E-6	1.69194E-12	53.8279E-3	-5.91690E-3	1.74480E-12	23.5499E-3	-19.1939E-3
642.821E-6	1.70571E-12	54.5571E-3	-19.0948E-3	1.77507E-12	26.7004E-3	-24.9268E-3
637.819E-6	1.72142E-12	41.0245E-3	-33.9732E-3	1.71685E-12	33.0751E-3	-27.2333E-3
632.816E-6	1.66846E-12	22.0805E-3	-20.4522E-3	1.66273E-12	31.4436E-3	-31.6655E-3
627.814E-6	1.60526E-12	20.6811E-3	-10.8331E-3	1.71686E-12	33.0899E-3	-28.9145E-3
622.811E-6	1.62718E-12	34.7442E-3	-13.1142E-3	1.77405E-12	34.7689E-3	-20.5970E-3
617.809E-6	1.71879E-12	42.5797E-3	-17.9358E-3	1.75134E-12	24.5498E-3	-13.6239E-3
612.806E-6	1.72537E-12	45.1341E-3	-33.3053E-3	1.64592E-12	20.8317E-3	-10.6402E-3
607.804E-6	1.60568E-12	47.7783E-3	-35.3437E-3	1.61222E-12	31.9238E-3	-17.3507E-3
602.801E-6	1.63337E-12	47.1450E-3	-20.6503E-3	1.69064E-12	35.6385E-3	-19.4739E-3
597.799E-6	1.70791E-12	48.3790E-3	-12.1045E-3	1.71150E-12	25.2728E-3	-5.36487E-3
592.796E-6	1.68050E-12	50.2145E-3	-13.9951E-3	1.64585E-12	26.2548E-3	-3.22712E-3
587.794E-6	1.62831E-12	45.3762E-3	-20.6495E-3	1.54916E-12	34.1022E-3	-12.7106E-3
582.791E-6	1.57431E-12	36.6811E-3	-24.5093E-3	1.57410E-12	29.6400E-3	-4.73565E-3
577.789E-6	1.59312E-12	28.8136E-3	-12.9621E-3	1.57539E-12	24.6992E-3	-2.08078E-3
572.786E-6	1.64938E-12	28.5576E-3	10.6647E-3	1.54245E-12	26.9370E-3	-22.5174E-3
567.784E-6	1.54243E-12	38.4824E-3	14.3739E-3	1.45658E-12	31.7553E-3	-33.5479E-3
562.781E-6	1.47360E-12	46.3714E-3	-2.90453E-3	1.47573E-12	36.8453E-3	-27.6933E-3
557.779E-6	1.42824E-12	38.2628E-3	-6.00520E-3	1.51255E-12	35.0189E-3	-28.6973E-3
552.776E-6	1.48872E-12	21.5084E-3	-528.076E-6	1.52296E-12	25.6987E-3	-28.6635E-3
547.774E-6	1.48027E-12	17.0964E-3	-6.36980E-3	1.42234E-12	36.1787E-3	-22.6895E-3
542.771E-6	1.41078E-12	27.5826E-3	-13.1216E-3	1.40491E-12	58.2999E-3	-32.4360E-3
537.769E-6	1.43333E-12	31.5552E-3	-16.4596E-3	1.44299E-12	56.2715E-3	-43.0003E-3
532.766E-6	1.42596E-12	21.2354E-3	-14.2036E-3	1.50341E-12	41.5083E-3	-36.0077E-3
527.764E-6	1.41374E-12	14.4098E-3	-7.45616E-3	1.46072E-12	40.2421E-3	-32.2911E-3
522.761E-6	1.45493E-12	21.4756E-3	-9.41731E-3	1.42396E-12	40.0435E-3	-29.3468E-3
517.759E-6	1.38974E-12	41.4499E-3	-18.2015E-3	1.38819E-12	29.4079E-3	-15.5182E-3
512.756E-6	1.32645E-12	51.8669E-3	-21.4772E-3	1.40936E-12	27.4682E-3	-12.4019E-3
507.754E-6	1.38189E-12	38.9907E-3	-22.6398E-3	1.43362E-12	37.9434E-3	-14.5482E-3
502.751E-6	1.43030E-12	24.5217E-3	-29.9305E-3	1.38232E-12	50.1076E-3	-7.51250E-3
497.749E-6	1.40319E-12	25.9620E-3	-33.3575E-3	1.31265E-12	49.6048E-3	-11.4411E-3
492.746E-6	1.31381E-12	34.9341E-3	-21.2761E-3	1.28677E-12	27.4807E-3	-16.5181E-3
487.744E-6	1.30440E-12	45.4538E-3	-12.6322E-3	1.30603E-12	16.8101E-3	-8.48654E-3
482.741E-6	1.33462E-12	54.2466E-3	-15.0120E-3	1.33005E-12	34.3896E-3	-1.83894E-3
477.739E-6	1.32627E-12	50.4194E-3	-15.5243E-3	1.19575E-12	49.7340E-3	3.42453E-3
472.736E-6	1.23320E-12	41.8586E-3	-17.6169E-3	1.18370E-12	52.8047E-3	8.18388E-3
467.734E-6	1.16342E-12	43.8782E-3	-19.5772E-3	1.26896E-12	55.8710E-3	-6.44829E-3
462.731E-6	1.22920E-12	44.0185E-3	-20.1032E-3	1.29820E-12	55.6304E-3	-30.6696E-3
457.729E-6	1.26607E-12	29.5943E-3	-24.7863E-3	1.25149E-12	53.4903E-3	-33.6195E-3
452.726E-6	1.17547E-12	22.9259E-3	-26.3744E-3	1.18820E-12	57.2397E-3	-19.4953E-3
447.724E-6	1.12861E-12	30.9761E-3	-18.6831E-3	1.22180E-12	55.3066E-3	-18.9464E-3
442.721E-6	1.15708E-12	34.1062E-3	-15.0300E-3	1.18772E-12	53.2377E-3	-30.7569E-3
437.719E-6	1.25091E-12	35.1510E-3	-23.0682E-3	1.19552E-12	58.5837E-3	-35.1422E-3
432.716E-6	1.17525E-12	32.1014E-3	-27.7203E-3	1.11875E-12	55.7890E-3	-29.8668E-3
427.714E-6	1.13672E-12	31.7576E-3	-27.9571E-3	1.09289E-12	41.6798E-3	-11.3049E-3
422.711E-6	1.07544E-12	50.6135E-3	-29.3751E-3	1.11571E-12	35.1292E-3	3.43691E-3
417.709E-6	1.13142E-12	66.7619E-3	-17.6889E-3	1.09927E-12	32.3385E-3	-2.98628E-3
412.706E-6	1.12252E-12	66.4116E-3	-7.19829E-3	1.08049E-12	18.8075E-3	-4.80970E-3
407.704E-6	1.07364E-12	63.6402E-3	-17.6092E-3	976.587E-15	14.5398E-3	115.016E-6
402.701E-6	1.03781E-12	64.3085E-3	-16.4266E-3	976.473E-15	29.0664E-3	-8.78104E-3
397.699E-6	1.00882E-12	63.1452E-3	-9.92582E-3	1.04313E-12	35.1633E-3	-14.4196E-3
392.696E-6	1.03140E-12	60.0486E-3	-20.5559E-3	994.845E-15	32.0676E-3	-8.17499E-3
387.694E-6	1.00496E-12	63.7704E-3	-19.3646E-3	968.757E-15	37.1904E-3	-14.3008E-3
382.691E-6	950.603E-15	63.3599E-3	-6.33121E-3	906.684E-15	38.6919E-3	-23.2327E-3
377.689E-6	894.948E-15	48.8573E-3	-4.14528E-3	972.209E-15	39.4316E-3	-11.7489E-3
372.686E-6	885.644E-15	46.8833E-3	-2.41884E-3	994.836E-15	52.1718E-3	-8.98390E-3
367.684E-6	979.255E-15	59.9283E-3	-6.76513E-3	936.757E-15	58.8877E-3	-28.3856E-3
362.681E-6	937.646E-15	63.8737E-3	-31.2153E-3	852.938E-15	52.1004E-3	-30.9856E-3
357.679E-6	855.702E-15	63.1933E-3	-41.4810E-3	859.059E-15	51.0211E-3	-19.5173E-3
352.676E-6	809.664E-15	64.0768E-3	-23.7110E-3	895.863E-15	52.2848E-3	-17.9013E-3
347.674E-6	925.509E-15	56.7409E-3	-7.44036E-3	950.673E-15	48.6378E-3	-15.1316E-3
342.671E-6	879.017E-15	45.5165E-3	-2.90478E-3	818.122E-15	55.6695E-3	-15.9984E-3
337.669E-6	800.753E-15	36.9696E-3	-2.41414E-3	731.182E-15	62.2033E-3	-19.0671E-3
332.666E-6	748.559E-15	35.7806E-3	-19.1454E-3	775.397E-15	52.7438E-3	-10.7989E-3
327.664E-6	789.985E-15	39.5953E-3	-37.7716E-3	815.541E-15	43.0460E-3	-10.4131E-3
322.661E-6	842.187E-15	39.3710E-3	-29.6799E-3	669.824E-15	40.1596E-3	-22.7620E-3
317.659E-6	746.240E-15	41.0704E-3	-23.7006E-3	641.233E-15	43.1330E-3	-28.8828E-3
312.656E-6	650.650E-15	44.5282E-3	-24.1288E-3	648.601E-15	49.2978E-3	-24.7753E-3
307.654E-6	649.124E-15	47.9867E-3	-11.6684E-3	703.890E-15	51.4188E-3	-17.5074E-3
302.651E-6	665.281E-15	50.3312E-3	-11.7420E-3	689.634E-15	50.8607E-3	-22.3025E-3
297.649E-6	667.923E-15	49.5614E-3	-23.5980E-3	629.793E-15	63.0175E-3	-33.5623E-3
292.646E-6	578.341E-15	49.8148E-3	-16.2428E-3	558.034E-15	76.4043E-3	-33.7470E-3
287.644E-6	562.088E-15	42.0399E-3	-4.58622E-3	617.142E-15	76.7765E-3	-21.4782E-3
282.641E-6	550.230E-15	32.1334E-3	-10.9366E-3	671.454E-15	73.8346E-3	-8.73662E-3
277.639E-6	624.998E-15	38.0275E-3	-21.8457E-3	626.899E-15	63.1538E-3	-19.7318E-3
272.636E-6	614.761E-15	45.8055E-3	-28.3193E-3	565.994E-15	51.3227E-3	-41.9298E-3
267.634E-6	537.064E-15	48.8233E-3	-27.4301E-3	498.838E-15	50.5601E-3	-35.0125E-3
262.631E-6	536.741E-15	54.4404E-3	-14.1183E-3	561.696E-15	51.7542E-3	-16.3785E-3
257.629E-6	528.370E-15	52.4717E-3	-1.33411E-3	577.085E-15	51.6666E-3	-7.15287E-3
252.626E-6	555.871E-15	48.8545E-3	-3.57261E-3	546.184E-15	62.2310E-3	-2.66987E-3
247.624E-6	527.647E-15	49.8258E-3	-7.27070E-3	439.870E-15	64.8663E-3	-10.8205E-3
242.621E-6	480.275E-15	40.0460E-3	-3.85463E-3	432.598E-15	44.9867E-3	-18.3492E-3
237.619E-6	470.701E-15	29.5658E-3	-7.90879E-3	486.509E-15	34.9243E-3	-19.6708E-3
232.616E-6	482.490E-15	39.0686E-3	-19.4418E-3	544.920E-15	39.6018E-3	-22.4525E-3
227.614E-6	488.977E-15	46.3209E-3	-28.4151E-3	395.166E-15	41.1260E-3	-20.6912E-3
222.611E-6	375.608E-15	36.4437E-3	-31.7376E-3	346.146E-15	36.5838E-3	-10.8859E-3
217.609E-6	345.326E-15	29.3643E-3	-22.6191E-3	379.384E-15	34.1856E-3	-4.44747E-3
212.606E-6	411.009E-15	27.6468E-3	490.635E-6	423.608E-15	39.5540E-3	-11.9112E-3
207.604E-6	403.248E-15	19.6554E-3	13.0377E-3	398.200E-15	40.3934E-3	-18.5858E-3
202.601E-6	292.086E-15	16.7888E-3	-213.667E-6	267.550E-15	37.9315E-3	-15.8516E-3
197.599E-6	261.333E-15	24.6676E-3	-11.6608E-3	328.855E-15	35.7295E-3	-20.5476E-3
192.596E-6	300.831E-15	33.1662E-3	-10.0456E-3	370.760E-15	28.3295E-3	-28.5422E-3
187.594E-6	356.121E-15	44.3341E-3	-10.7173E-3	367.089E-15	25.5719E-3	-28.9412E-3
182.591E-6	310.083E-15	53.1298E-3	-4.54402E-3	289.653E-15	24.9272E-3	-33.9318E-3
177.589E-6	242.883E-15	58.8994E-3	-1.73038E-3	228.862E-15	14.4603E-3	-38.6066E-3
172.586E-6	220.605E-15	62.7253E-3	-9.58340E-3	289.958E-15	915.161E-6	-31.9511E-3
167.584E-6	290.063E-15	55.1378E-3	-7.20829E-3	276.993E-15	-1.59074E-3	-25.5681E-3
162.581E-6	263.199E-15	42.9767E-3	-9.02974E-3	233.954E-15	13.9810E-3	-15.0769E-3
157.579E-6	243.040E-15	45.9462E-3	-23.0337E-3	210.308E-15	36.0678E-3	-6.88850E-3
152.576E-6	205.137E-15	46.4112E-3	-27.4511E-3	200.376E-15	43.7768E-3	-12.9434E-3
147.574E-6	196.636E-15	32.5379E-3	-17.0146E-3	171.236E-15	33.4938E-3	-6.08026E-3
142.571E-6	171.106E-15	34.6331E-3	-12.7316E-3	199.592E-15	27.9719E-3	-1.95113E-3
137.569E-6	194.238E-15	41.7945E-3	-23.0794E-3	198.755E-15	30.1976E-3	-20.8648E-3
132.566E-6	147.267E-15	26.4418E-3	-38.9022E-3	98.2209E-15	27.9140E-3	-34.1700E-3
127.564E-6	117.979E-15	12.3330E-3	-48.5874E-3	102.188E-15	34.2268E-3	-32.6145E-3
122.561E-6	95.1081E-15	17.1089E-3	-36.7859E-3	120.010E-15	39.3287E-3	-27.1790E-3
117.559E-6	156.527E-15	26.8233E-3	-17.4641E-3	123.952E-15	28.1647E-3	-21.5176E-3
112.556E-6	137.240E-15	41.3334E-3	-16.0908E-3	65.0439E-15	18.9979E-3	-14.5214E-3
107.554E-6	45.5999E-15	53.8934E-3	-23.3595E-3	43.2980E-15	18.1335E-3	-13.6117E-3
102.551E-6	42.0511E-15	37.8581E-3	-25.3372E-3	81.6106E-15	23.5194E-3	-19.6162E-3
97.5488E-6	66.5175E-15	6.93636E-3	-22.7558E-3	101.177E-15	32.1348E-3	-18.9340E-3
92.5463E-6	114.317E-15	5.33458E-3	-13.5116E-3	78.8117E-15	33.1955E-3	-21.6873E-3
87.5438E-6	55.3045E-15	17.7142E-3	-6.57464E-3	-19.2543E-15	28.0141E-3	-34.6037E-3
82.5413E-6	-20.1263E-15	23.2213E-3	-9.87632E-3	26.2343E-15	31.6489E-3	-31.5297E-3
77.5388E-6	45.3645E-15	33.7630E-3	-9.95660E-3	84.7932E-15	44.0616E-3	-20.7757E-3
72.5363E-6	76.8848E-15	29.9767E-3	-9.81422E-3	-11.5029E-15	47.1668E-3	-18.6149E-3
67.5338E-6	32.8435E-15	17.0976E-3	-19.4537E-3	-79.4088E-15	44.5501E-3	-9.52303E-3
62.5313E-6	-37.7916E-15	25.3385E-3	-27.3079E-3	-53.3207E-15	42.2092E-3	-114.127E-6
57.5288E-6	-38.5676E-15	29.2418E-3	-29.8689E-3	12.7891E-15	32.5316E-3	1.57516E-3
52.5263E-6	3.68616E-15	17.3828E-3	-25.6537E-3	-35.2368E-15	26.0305E-3	1.53307E-3
47.5238E-6	-4.14378E-15	18.2631E-3	-12.5646E-3	-68.2481E-15	30.9814E-3	-3.17351E-3
42.5213E-6	-62.7201E-15	26.6177E-3	-844.020E-6	-119.117E-15	28.5393E-3	-12.3209E-3
37.5188E-6	-79.2868E-15	26.5521E-3	-6.39156E-3	-89.8895E-15	21.6882E-3	-15.4696E-3
32.5163E-6	-99.9428E-15	28.9717E-3	-17.6118E-3	-56.9479E-15	34.2373E-3	-13.6170E-3
27.5138E-6	-62.3190E-15	35.6023E-3	-17.7963E-3	-73.9593E-15	51.1610E-3	-15.7924E-3
22.5113E-6	-119.866E-15	31.1436E-3	-20.5484E-3	-133.608E-15	50.6986E-3	-12.9631E-3
17.5088E-6	-107.781E-15	26.1577E-3	-30.5171E-3	-175.914E-15	47.3459E-3	-2.42473E-3
12.5063E-6	-140.392E-15	32.1162E-3	-32.3041E-3	-127.278E-15	46.8461E-3	-576.608E-6
7.50375E-6	-122.561E-15	31.7115E-3	-26.4449E-3	-88.5467E-15	41.9035E-3	-1.51174E-3
2.50125E-6	-130.408E-15	33.3396E-3	-26.1648E-3	-117.198E-15	41.2739E-3	8.44010E-3
-2.50125E-6	-114.530E-15	45.3424E-3	-27.4146E-3	-175.190E-15	40.0726E-3	8.65617E-3
-7.50375E-6	-204.906E-15	36.1471E-3	-18.7258E-3	-236.104E-15	29.6778E-3	-2.57754E-3
-12.5063E-6	-213.895E-15	21.7975E-3	-8.58550E-3	-136.599E-15	21.8870E-3	-4.10656E-3
-17.5088E-6	-147.053E-15	26.8597E-3	-11.4483E-3	-151.596E-15	25.5617E-3	-9.68957E-3
-22.5113E-6	-191.365E-15	27.2090E-3	-23.2310E-3	-226.722E-15	38.0522E-3	-21.9514E-3
-27.5138E-6	-277.084E-15	29.3574E-3	-31.3491E-3	-279.421E-15	49.9865E-3	-23.6237E-3
-32.5163E-6	-271.670E-15	42.3874E-3	-24.8958E-3	-258.634E-15	44.6125E-3	-27.7508E-3
-37.5188E-6	-233.235E-15	39.5165E-3	-15.1107E-3	-195.951E-15	22.2131E-3	-31.3245E-3
-42.5213E-6	-192.917E-15	28.2551E-3	-14.3206E-3	-238.963E-15	17.9792E-3	-23.1683E-3
-47.5238E-6	-274.747E-15	33.7736E-3	-5.37959E-3	-355.384E-15	39.5695E-3	-14.1634E-3
-52.5263E-6	-342.174E-15	46.9942E-3	1.86543E-3	-294.148E-15	51.9459E-3	-15.6779E-3
-57.5288E-6	-346.900E-15	49.1295E-3	-15.6489E-3	-288.123E-15	53.6734E-3	-25.3962E-3
-62.5313E-6	-286.466E-15	51.0567E-3	-26.4779E-3	-344.746E-15	59.8570E-3	-30.0547E-3
-67.5338E-6	-307.898E-15	51.8445E-3	-15.8303E-3	-390.470E-15	56.5903E-3	-30.3308E-3
-72.5363E-6	-411.580E-15	44.6458E-3	-15.2351E-3	-417.753E-15	53.1731E-3	-26.3743E-3
-77.5388E-6	-387.035E-15	52.6932E-3	-27.3539E-3	-340.125E-15	64.0636E-3	-22.6355E-3
-82.5413E-6	-415.259E-15	58.4204E-3	-23.5467E-3	-410.219E-15	65.9087E-3	-30.7216E-3
-87.5438E-6	-393.086E-15	47.0292E-3	-13.6779E-3	-456.990E-15	51.3232E-3	-27.2264E-3
-92.5463E-6	-426.655E-15	55.6731E-3	-17.9911E-3	-505.940E-15	43.3571E-3	-13.4208E-3
-97.5488E-6	-478.832E-15	72.6369E-3	-25.4487E-3	-487.036E-15	52.8908E-3	-15.4182E-3
-102.551E-6	-475.422E-15	59.6312E-3	-28.5817E-3	-455.996E-15	65.8026E-3	-7.64625E-3
-107.554E-6	-539.841E-15	42.9251E-3	-22.9135E-3	-510.212E-15	67.1643E-3	5.65771E-3
-112.556E-6	-539.736E-15	46.1557E-3	-15.8249E-3	-551.010E-15	60.7957E-3	-9.12212E-3
-117.559E-6	-513.011E-15	55.5118E-3	-24.6238E-3	-588.582E-15	52.9239E-3	-28.9373E-3
-122.561E-6	-580.664E-15	62.0055E-3	-36.2320E-3	-608.627E-15	59.5094E-3	-31.0293E-3
-127.564E-6	-620.451E-15	61.6249E-3	-27.3229E-3	-577.124E-15	80.9278E-3	-26.0253E-3
-132.566E-6	-578.502E-15	58.6260E-3	-8.59649E-3	-589.776E-15	86.6669E-3	-16.4220E-3
-137.569E-6	-598.853E-15	68.5882E-3	-8.56320E-3	-651.300E-15	77.8753E-3	-13.1308E-3
-142.571E-6	-709.640E-15	83.0815E-3	-11.8071E-3	-754.353E-15	73.9000E-3	-23.0966E-3
-147.574E-6	-731.561E-15	83.1791E-3	880.092E-6	-712.160E-15	72.0104E-3	-31.0900E-3
-152.576E-6	-701.784E-15	76.4163E-3	10.3235E-3	-690.624E-15	72.4103E-3	-27.1724E-3
-157.579E-6	-692.359E-15	76.0742E-3	4.84425E-3	-747.569E-15	73.4229E-3	-20.5469E-3
-162.581E-6	-785.123E-15	74.5799E-3	-8.46438E-3	-822.346E-15	73.2595E-3	-24.4276E-3
-167.584E-6	-859.386E-15	74.5808E-3	-20.3363E-3	-869.936E-15	90.1887E-3	-25.1869E-3
-172.586E-6	-867.294E-15	85.4812E-3	-19.8062E-3	-794.784E-15	112.058E-3	-21.4412E-3
-177.589E-6	-830.002E-15	86.7430E-3	-2.23489E-3	-884.707E-15	105.393E-3	-22.4758E-3
-182.591E-6	-879.580E-15	82.5564E-3	2.87059E-3	-926.742E-15	96.4764E-3	-15.2554E-3
-187.594E-6	-976.259E-15	83.7338E-3	-7.48529E-3	-966.686E-15	101.258E-3	-14.5295E-3
-192.596E-6	-1.00346E-12	81.7486E-3	-13.6400E-3	-952.804E-15	98.9952E-3	-23.1343E-3
-197.599E-6	-948.959E-15	84.7613E-3	-14.7749E-3	-939.699E-15	98.7019E-3	-22.1028E-3
-202.601E-6	-966.721E-15	92.3344E-3	-11.3969E-3	-1.04298E-12	108.446E-3	-19.6246E-3
-207.604E-6	-1.08135E-12	96.3780E-3	-10.8988E-3	-1.07181E-12	107.187E-3	-15.3483E-3
-212.606E-6	-1.07810E-12	102.146E-3	-15.0191E-3	-1.07482E-12	85.1761E-3	-11.8841E-3
-217.609E-6	-1.09948E-12	114.700E-3	-21.9313E-3	-1.08278E-12	78.3697E-3	-13.0114E-3
-222.611E-6	-1.10548E-12	111.021E-3	-13.7931E-3	-1.12764E-12	88.7250E-3	-15.2386E-3
-227.614E-6	-1.12823E-12	95.8930E-3	-3.24776E-3	-1.23117E-12	96.4866E-3	-16.2806E-3
-232.616E-6	-1.25509E-12	99.6791E-3	-9.53195E-3	-1.27104E-12	111.208E-3	-9.03892E-3
-237.619E-6	-1.30810E-12	103.969E-3	-11.5808E-3	-1.28025E-12	120.877E-3	-7.59872E-3
-242.621E-6	-1.31820E-12	97.1241E-3	-8.61174E-3	-1.28857E-12	123.019E-3	-15.2968E-3
-247.624E-6	-1.30758E-12	97.2381E-3	-15.3850E-3	-1.37382E-12	126.510E-3	-19.0900E-3
-252.626E-6	-1.35896E-12	100.495E-3	-25.6865E-3	-1.41623E-12	120.799E-3	-26.2309E-3
-257.629E-6	-1.44664E-12	100.382E-3	-29.1426E-3	-1.44817E-12	107.068E-3	-24.4154E-3
-262.631E-6	-1.50731E-12	109.937E-3	-24.9290E-3	-1.39823E-12	107.855E-3	-15.5780E-3
-267.634E-6	-1.44867E-12	123.314E-3	-13.0910E-3	-1.47459E-12	123.220E-3	-25.9024E-3
-272.636E-6	-1.49379E-12	121.749E-3	-5.34797E-3	-1.53705E-12	124.123E-3	-31.3881E-3
-277.639E-6	-1.61729E-12	120.379E-3	-6.51277E-3	-1.61953E-12	123.224E-3	-21.2436E-3
-282.641E-6	-1.67648E-12	128.213E-3	-10.9838E-3	-1.63403E-12	138.217E-3	-22.7801E-3
-287.644E-6	-1.62030E-12	130.080E-3	-20.1865E-3	-1.63399E-12	137.106E-3	-37.0346E-3
-292.646E-6	-1.61228E-12	124.518E-3	-28.8097E-3	-1.64698E-12	128.242E-3	-41.3074E-3
-297.649E-6	-1.67441E-12	120.922E-3	-24.2134E-3	-1.81609E-12	134.034E-3	-37.9857E-3
-302.651E-6	-1.80387E-12	115.321E-3	-14.2186E-3	-1.79582E-12	131.702E-3	-41.7267E-3
-307.654E-6	-1.78431E-12	103.409E-3	-18.4048E-3	-1.77408E-12	124.942E-3	-32.2373E-3
-312.656E-6	-1.75182E-12	109.102E-3	-17.4210E-3	-1.80754E-12	125.162E-3	-18.3981E-3
-317.659E-6	-1.81997E-12	122.906E-3	-3.95488E-3	-1.93934E-12	120.313E-3	-19.8515E-3
-322.661E-6	-1.94273E-12	123.152E-3	-10.4794E-3	-1.98209E-12	116.512E-3	-10.9056E-3
-327.664E-6	-1.99943E-12	124.769E-3	-21.0346E-3	-1.96458E-12	124.909E-3	-524.633E-6
-332.666E-6	-2.05499E-12	129.232E-3	-14.5542E-3	-2.01227E-12	131.527E-3	-4.10106E-3
-337.669E-6	-2.06417E-12	128.103E-3	-6.84079E-3	-2.10463E-12	129.549E-3	-3.59372E-3
-342.671E-6	-2.14456E-12	131.545E-3	-1.86754E-3	-2.19138E-12	131.738E-3	-5.82246E-3
-347.674E-6	-2.27921E-12	130.133E-3	-16.5966E-3	-2.22076E-12	127.683E-3	-12.5867E-3
-352.676E-6	-2.27987E-12	119.427E-3	-43.0206E-3	-2.20669E-12	113.888E-3	-2.45639E-3
-357.679E-6	-2.29272E-12	121.394E-3	-36.1118E-3	-2.24598E-12	112.843E-3	9.32779E-3
-362.681E-6	-2.36458E-12	128.559E-3	-8.15859E-3	-2.29168E-12	118.916E-3	3.73033E-3
-367.684E-6	-2.36871E-12	129.022E-3	-5.24782E-3	-2.36214E-12	116.964E-3	-1.82042E-3
-372.686E-6	-2.49378E-12	131.111E-3	-22.3948E-3	-2.41083E-12	122.372E-3	-8.30211E-3
-377.689E-6	-2.45638E-12	130.641E-3	-31.7468E-3	-2.38399E-12	132.906E-3	-26.8437E-3
-382.691E-6	-2.43668E-12	131.421E-3	-30.9174E-3	-2.39321E-12	126.652E-3	-34.7617E-3
-387.694E-6	-2.44826E-12	144.577E-3	-22.1049E-3	-2.54590E-12	124.590E-3	-24.2211E-3
-392.696E-6	-2.57606E-12	150.103E-3	-13.9988E-3	-2.59367E-12	128.541E-3	-15.9710E-3
-397.699E-6	-2.63363E-12	137.830E-3	-15.8968E-3	-2.60132E-12	122.298E-3	-9.58585E-3
-402.701E-6	-2.55963E-12	124.497E-3	-19.5286E-3	-2.61179E-12	129.149E-3	-1.00943E-3
-407.704E-6	-2.62267E-12	114.971E-3	-8.94899E-3	-2.65181E-12	134.948E-3	-5.29497E-3
-412.706E-6	-2.74419E-12	108.119E-3	-261.170E-6	-2.79808E-12	123.165E-3	-2.47804E-3
-417.709E-6	-2.83807E-12	102.856E-3	-17.4870E-3	-2.85022E-12	125.011E-3	3.95815E-3
-422.711E-6	-2.86728E-12	103.021E-3	-31.7425E-3	-2.81173E-12	144.708E-3	-17.6249E-3
-427.714E-6	-2.85638E-12	110.908E-3	-23.2240E-3	-2.90816E-12	153.266E-3	-32.1866E-3
-432.716E-6	-2.92005E-12	118.687E-3	-19.0176E-3	-2.94878E-12	148.494E-3	-23.3777E-3
-437.719E-6	-3.00686E-12	125.124E-3	-18.1835E-3	-2.96696E-12	137.607E-3	-15.6362E-3
-442.721E-6	-3.10431E-12	119.182E-3	-12.7469E-3	-2.97919E-12	124.343E-3	-16.7108E-3
-447.724E-6	-3.05223E-12	109.594E-3	-20.7309E-3	-2.94997E-12	115.745E-3	-21.5115E-3
-452.726E-6	-3.05110E-12	114.661E-3	-26.0689E-3	-3.06473E-12	110.759E-3	-24.4469E-3
-457.729E-6	-3.12294E-12	116.738E-3	-18.9976E-3	-3.09112E-12	104.318E-3	-17.2050E-3
-462.731E-6	-3.17734E-12	116.276E-3	-23.8770E-3	-3.10272E-12	92.2510E-3	-8.04980E-3
-467.734E-6	-3.21407E-12	114.155E-3	-25.1852E-3	-3.11735E-12	87.0365E-3	-14.0553E-3
-472.736E-6	-3.17808E-12	100.490E-3	-8.56335E-3	-3.15940E-12	97.4040E-3	-19.3158E-3
-477.739E-6	-3.17080E-12	97.4728E-3	-5.35112E-3	-3.23602E-12	105.984E-3	-9.65139E-3
-482.741E-6	-3.26088E-12	108.009E-3	-16.5093E-3	-3.29950E-12	107.891E-3	-1.24214E-3
-487.744E-6	-3.32442E-12	108.597E-3	-22.2550E-3	-3.31238E-12	106.821E-3	-3.08949E-3
-492.746E-6	-3.36935E-12	105.582E-3	-26.8179E-3	-3.28477E-12	102.234E-3	-3.77597E-3
-497.749E-6	-3.37004E-12	107.010E-3	-25.6229E-3	-3.38577E-12	101.048E-3	-5.13691E-3
-502.751E-6	-3.38439E-12	99.1183E-3	-18.9412E-3	-3.48562E-12	100.256E-3	-9.73619E-3
-507.754E-6	-3.51124E-12	98.9145E-3	-12.7612E-3	-3.51559E-12	94.1177E-3	-9.73383E-3
-512.756E-6	-3.55992E-12	116.634E-3	-7.71186E-3	-3.53672E-12	87.3444E-3	-7.83677E-3
-517.759E-6	-3.57367E-12	121.907E-3	-13.1350E-3	-3.55026E-12	89.1657E-3	-10.5886E-3
-522.761E-6	-3.52148E-12	111.948E-3	-28.3839E-3	-3.60316E-12	95.8166E-3	-10.5541E-3
-527.764E-6	-3.65589E-12	111.161E-3	-33.0682E-3	-3.66685E-12	100.306E-3	-11.5883E-3
-532.766E-6	-3.73105E-12	110.649E-3	-19.1049E-3	-3.65794E-12	95.8154E-3	-20.2154E-3
-537.769E-6	-3.67444E-12	94.5413E-3	-9.61088E-3	-3.62779E-12	87.9336E-3	-20.1003E-3
-542.771E-6	-3.66890E-12	91.2781E-3	-20.5639E-3	-3.66384E-12	93.7778E-3	-16.6245E-3
-547.774E-6	-3.72674E-12	94.5775E-3	-36.0900E-3	-3.78990E-12	97.2225E-3	-24.9319E-3
-552.776E-6	-3.77306E-12	78.1277E-3	-39.0729E-3	-3.74352E-12	87.5491E-3	-31.3926E-3
-557.779E-6	-3.73876E-12	69.9689E-3	-32.5178E-3	-3.70759E-12	89.3235E-3	-25.2975E-3
-562.781E-6	-3.77769E-12	79.7071E-3	-8.35123E-3	-3.77476E-12	94.0513E-3	-24.2092E-3
-567.784E-6	-3.83287E-12	88.4552E-3	8.97606E-3	-3.90045E-12	78.9305E-3	-26.6156E-3
-572.786E-6	-3.85944E-12	96.1992E-3	-3.08681E-3	-3.96202E-12	67.7549E-3	-16.2255E-3
-577.789E-6	-3.94804E-12	96.3846E-3	-12.6721E-3	-3.96323E-12	74.6472E-3	-7.26726E-3
-582.791E-6	-3.92913E-12	81.3342E-3	-16.7350E-3	-3.98193E-12	79.9212E-3	-462.193E-6
-587.794E-6	-3.97397E-12	78.8413E-3	-30.4811E-3	-4.02786E-12	77.3850E-3	5.29830E-3
-592.796E-6	-4.04889E-12	93.5775E-3	-26.5218E-3	-4.08107E-12	76.8705E-3	-9.92044E-3
-597.799E-6	-4.12403E-12	95.3135E-3	-9.35844E-3	-4.16325E-12	77.3413E-3	-22.9212E-3
-602.801E-6	-4.17069E-12	89.6303E-3	-17.9892E-3	-4.15959E-12	70.8056E-3	-6.99408E-3
-607.804E-6	-4.18557E-12	88.9728E-3	-33.7705E-3	-4.12613E-12	67.8668E-3	221.767E-6
-612.806E-6	-4.12607E-12	84.0371E-3	-28.5923E-3	-4.17205E-12	63.4754E-3	-15.3718E-3
-617.809E-6	-4.22942E-12	72.8028E-3	-28.3386E-3	-4.23360E-12	50.6361E-3	-19.0894E-3
-622.811E-6	-4.22555E-12	61.6876E-3	-35.3426E-3	-4.22835E-12	54.3192E-3	-8.81418E-3
-627.814E-6	-4.25109E-12	59.0366E-3	-20.7052E-3	-4.19562E-12	63.7178E-3	-3.03083E-3
-632.816E-6	-4.18126E-12	62.7379E-3	-13.1484E-3	-4.19790E-12	62.7475E-3	-5.52162E-3
-637.819E-6	-4.18769E-12	73.6262E-3	-25.4511E-3	-4.25713E-12	57.4134E-3	-13.7314E-3
-642.821E-6	-4.25072E-12	85.3972E-3	-21.2463E-3	-4.31092E-12	53.0546E-3	-19.6762E-3
-647.824E-6	-4.26137E-12	73.9929E-3	-16.1706E-3	-4.26306E-12	52.0228E-3	-15.7354E-3
-652.826E-6	-4.23371E-12	55.9712E-3	-19.2153E-3	-4.24906E-12	57.3735E-3	-10.4643E-3
-657.829E-6	-4.24570E-12	53.7706E-3	-11.8924E-3	-4.37068E-12	70.4052E-3	-19.8748E-3
-662.831E-6	-4.31602E-12	63.1099E-3	-11.8908E-3	-4.41296E-12	79.2936E-3	-25.8378E-3
-667.834E-6	-4.40879E-12	74.7976E-3	-19.1609E-3	-4.41744E-12	79.1060E-3	-20.0435E-3
-672.836E-6	-4.37768E-12	69.5325E-3	-16.1743E-3	-4.36164E-12	76.0957E-3	-25.5457E-3
-677.839E-6	-4.39413E-12	54.8131E-3	-15.9298E-3	-4.39620E-12	67.5662E-3	-28.0026E-3
-682.841E-6	-4.47739E-12	53.2400E-3	-23.1412E-3	-4.47308E-12	63.2434E-3	-18.3567E-3
-687.844E-6	-4.54445E-12	59.7253E-3	-14.6995E-3	-4.47864E-12	69.1285E-3	-13.9525E-3
-692.846E-6	-4.57889E-12	62.0543E-3	-3.76019E-3	-4.47148E-12	63.6857E-3	-15.0931E-3
-697.849E-6	-4.57290E-12	67.9255E-3	-5.80145E-3	-4.45770E-12	52.5833E-3	-19.3828E-3
-702.851E-6	-4.55422E-12	73.2030E-3	-12.0071E-3	-4.48196E-12	51.7417E-3	-17.5521E-3
-707.854E-6	-4.58864E-12	59.8866E-3	-19.6693E-3	-4.56739E-12	52.3632E-3	-11.2732E-3
-712.856E-6	-4.57822E-12	51.0257E-3	-23.6171E-3	-4.55486E-12	52.7704E-3	-15.1665E-3
-717.859E-6	-4.57294E-12	60.2151E-3	-17.6897E-3	-4.45055E-12	63.5982E-3	-19.9829E-3
-722.861E-6	-4.57692E-12	62.7525E-3	-10.5879E-3	-4.52581E-12	76.9795E-3	-18.6100E-3
-727.864E-6	-4.52456E-12	68.5109E-3	-19.8289E-3	-4.57477E-12	79.2448E-3	-13.5545E-3
-732.866E-6	-4.57017E-12	78.7524E-3	-31.0887E-3	-4.67260E-12	71.9531E-3	-19.2435E-3
-737.869E-6	-4.66638E-12	70.4245E-3	-21.1662E-3	-4.63601E-12	63.8200E-3	-23.9867E-3
-742.871E-6	-4.64573E-12	53.0144E-3	-2.19380E-3	-4.62459E-12	61.7656E-3	-12.7939E-3
-747.874E-6	-4.61088E-12	51.6592E-3	5.65404E-3	-4.71394E-12	65.0970E-3	-16.3424E-3
-752.876E-6	-4.67514E-12	56.6527E-3	273.960E-6	-4.80288E-12	64.6848E-3	-31.5906E-3
-757.879E-6	-4.84555E-12	55.4869E-3	-13.8633E-3	-4.83302E-12	65.3673E-3	-26.3875E-3
-762.881E-6	-4.85134E-12	60.6605E-3	-18.8356E-3	-4.82086E-12	74.9535E-3	-7.71641E-3
-767.884E-6	-4.80164E-12	67.2443E-3	-11.0550E-3	-4.83772E-12	77.0139E-3	-5.33303E-3
-772.886E-6	-4.91878E-12	65.4323E-3	-9.08961E-3	-4.91584E-12	71.5201E-3	-11.9435E-3
-777.889E-6	-4.99084E-12	69.6305E-3	-11.0501E-3	-5.04545E-12	80.5417E-3	-14.5308E-3
-782.891E-6	-5.02064E-12	77.0965E-3	-7.76520E-3	-5.01084E-12	91.8544E-3	-24.9139E-3
-787.894E-6	-5.02110E-12	78.8483E-3	-9.49072E-3	-4.95229E-12	79.8824E-3	-30.6577E-3
-792.896E-6	-5.01346E-12	84.0520E-3	-14.0447E-3	-5.04236E-12	64.1585E-3	-28.8236E-3
-797.899E-6	-4.99912E-12	84.0801E-3	-8.92536E-3	-5.06810E-12	68.8339E-3	-33.3412E-3
-802.901E-6	-5.07624E-12	74.8811E-3	-1.60196E-3	-5.04471E-12	76.6190E-3	-25.8848E-3
-807.904E-6	-5.06851E-12	79.0114E-3	-3.37283E-3	-5.03504E-12	79.2662E-3	-4.86334E-3
-812.906E-6	-5.02429E-12	94.7548E-3	-9.61519E-3	-5.04598E-12	85.2295E-3	-4.54352E-3
-817.909E-6	-5.02438E-12	90.9248E-3	-21.6352E-3	-5.09564E-12	84.8177E-3	-21.1930E-3
-822.911E-6	-5.09346E-12	79.6380E-3	-32.0557E-3	-5.19270E-12	80.3797E-3	-28.2855E-3
-827.914E-6	-5.12893E-12	81.0372E-3	-26.3927E-3	-5.13783E-12	83.5418E-3	-23.5325E-3
-832.916E-6	-5.17241E-12	78.8567E-3	-23.8722E-3	-5.23831E-12	83.5977E-3	-4.26617E-3
-837.919E-6	-5.18727E-12	81.4324E-3	-25.2204E-3	-5.29486E-12	89.8301E-3	9.91454E-3
-842.921E-6	-5.24517E-12	93.6605E-3	-19.4381E-3	-5.37448E-12	108.820E-3	-8.14997E-3
-847.924E-6	-5.29845E-12	88.5864E-3	-24.2203E-3	-5.43402E-12	112.070E-3	-30.5160E-3
-852.926E-6	-5.36682E-12	80.7962E-3	-36.5358E-3	-5.44497E-12	104.814E-3	-31.8998E-3
-857.929E-6	-5.38800E-12	85.6214E-3	-30.8254E-3	-5.38465E-12	106.538E-3	-21.7395E-3
-862.931E-6	-5.38157E-12	86.7529E-3	-14.9945E-3	-5.48009E-12	103.052E-3	-9.40855E-3
-867.934E-6	-5.47843E-12	90.5552E-3	-15.7855E-3	-5.52947E-12	94.6300E-3	-307.068E-6
-872.936E-6	-5.55049E-12	99.6137E-3	-18.7292E-3	-5.58825E-12	105.751E-3	5.63445E-3
-877.939E-6	-5.58745E-12	96.5506E-3	-13.8075E-3	-5.52468E-12	119.231E-3	268.554E-6
-882.941E-6	-5.52740E-12	93.5456E-3	-20.9101E-3	-5.53346E-12	121.914E-3	-3.17921E-3
-887.944E-6	-5.54176E-12	114.039E-3	-24.3103E-3	-5.64887E-12	124.730E-3	-567.052E-6
-892.946E-6	-5.62932E-12	139.212E-3	-13.9963E-3	-5.67325E-12	122.832E-3	-9.30019E-3
-897.949E-6	-5.63785E-12	150.362E-3	-20.0542E-3	-5.60113E-12	121.733E-3	-17.5452E-3
-902.951E-6	-5.64896E-12	148.335E-3	-25.4134E-3	-5.62702E-12	135.137E-3	-20.6934E-3
-907.954E-6	-5.65486E-12	127.541E-3	-13.6909E-3	-5.71770E-12	140.275E-3	-29.6051E-3
-912.956E-6	-5.75434E-12	104.326E-3	-8.88707E-3	-5.86415E-12	131.880E-3	-34.4652E-3
-917.959E-6	-5.85447E-12	113.107E-3	-5.88333E-3	-5.83674E-12	137.461E-3	-24.6636E-3
-922.961E-6	-5.86728E-12	133.910E-3	2.66041E-3	-5.82678E-12	147.017E-3	-15.6121E-3
-927.964E-6	-5.92462E-12	127.928E-3	2.11155E-3	-5.93595E-12	155.067E-3	-3.81383E-3
-932.966E-6	-6.00139E-12	122.319E-3	-8.82321E-3	-6.02698E-12	173.512E-3	6.88872E-3
-937.969E-6	-6.13669E-12	134.100E-3	-24.7360E-3	-6.08075E-12	174.344E-3	-7.89413E-3
-942.971E-6	-6.17663E-12	140.374E-3	-41.3609E-3	-6.12195E-12	147.401E-3	-19.6629E-3
-947.974E-6	-6.23411E-12	147.930E-3	-38.8741E-3	-6.13253E-12	138.870E-3	-18.1915E-3
-952.976E-6	-6.24926E-12	160.922E-3	-24.8970E-3	-6.15591E-12	156.904E-3	-25.0260E-3
-957.979E-6	-6.36758E-12	162.147E-3	-27.6917E-3	-6.29076E-12	164.883E-3	-26.4511E-3
-962.981E-6	-6.41993E-12	167.430E-3	-39.0523E-3	-6.29264E-12	165.844E-3	-14.7411E-3
-967.984E-6	-6.50029E-12	188.950E-3	-34.5844E-3	-6.30066E-12	171.166E-3	-10.1889E-3
-972.986E-6	-6.49070E-12	190.732E-3	-21.1056E-3	-6.35523E-12	169.419E-3	-16.0620E-3
-977.989E-6	-6.51518E-12	180.529E-3	-16.3889E-3	-6.48012E-12	175.720E-3	-16.7302E-3
-982.991E-6	-6.53786E-12	187.198E-3	-13.9257E-3	-6.53600E-12	192.109E-3	-21.0199E-3
-987.994E-6	-6.71063E-12	190.303E-3	-13.3661E-3	-6.58529E-12	192.637E-3	-29.2051E-3
-992.997E-6	-6.71703E-12	182.175E-3	-24.1998E-3	-6.57661E-12	186.732E-3	-18.5242E-3
-997.999E-6	-6.72771E-12	174.690E-3	-25.9474E-3	-6.67393E-12	193.072E-3	-4.35075E-3
-1.00300E-3	-6.76075E-12	173.071E-3	-8.29606E-3	-6.81733E-12	197.983E-3	-8.44367E-3
-1.00800E-3	-6.94982E-12	185.219E-3	-5.89709E-3	-6.93746E-12	209.017E-3	-8.89150E-3
-1.01301E-3	-7.04097E-12	194.853E-3	-16.6091E-3	-6.99837E-12	234.766E-3	-9.21444E-3
-1.01801E-3	-7.05962E-12	187.857E-3	-15.7120E-3	-7.06011E-12	245.746E-3	-21.0440E-3
-1.02301E-3	-7.13309E-12	189.163E-3	-21.9270E-3	-7.16362E-12	244.305E-3	-19.3075E-3
-1.02801E-3	-7.27206E-12	205.480E-3	-28.2695E-3	-7.34222E-12	251.273E-3	-13.8459E-3
-1.03302E-3	-7.41359E-12	222.671E-3	-21.8771E-3	-7.39128E-12	257.424E-3	-16.9709E-3
-1.03802E-3	-7.37175E-12	233.460E-3	-23.9922E-3	-7.41896E-12	262.966E-3	-12.9486E-3
-1.04302E-3	-7.45856E-12	233.661E-3	-19.4716E-3	-7.53736E-12	274.037E-3	-8.15988E-3
-1.04802E-3	-7.50716E-12	230.978E-3	-5.55150E-3	-7.63022E-12	279.095E-3	-13.8662E-3
-1.05303E-3	-7.66071E-12	238.927E-3	-10.2550E-3	-7.68373E-12	279.172E-3	-17.0510E-3
-1.05803E-3	-7.72428E-12	257.718E-3	-18.8346E-3	-7.78717E-12	283.913E-3	-19.7097E-3
-1.06303E-3	-7.76551E-12	261.527E-3	-7.83231E-3	-7.80549E-12	290.093E-3	-33.9533E-3
-1.06803E-3	-7.89413E-12	258.092E-3	-123.884E-6	-7.92723E-12	289.939E-3	-29.0391E-3
-1.07304E-3	-7.92533E-12	272.556E-3	-9.54153E-3	-8.04040E-12	286.605E-3	-8.84803E-3
-1.07804E-3	-8.05013E-12	283.134E-3	-16.0473E-3	-8.12565E-12	292.993E-3	-13.2746E-3
-1.08304E-3	-8.12882E-12	271.612E-3	-19.9621E-3	-8.10740E-12	302.702E-3	-27.9647E-3
-1.08804E-3	-8.19252E-12	270.519E-3	-27.9546E-3	-8.26244E-12	322.148E-3	-25.8834E-3
-1.09305E-3	-8.25440E-12	294.173E-3	-23.6701E-3	-8.46798E-12	348.819E-3	-23.9885E-3
-1.09805E-3	-8.42247E-12	305.023E-3	-18.0147E-3	-8.55865E-12	354.240E-3	-21.0143E-3
-1.10305E-3	-8.58715E-12	308.267E-3	-24.9814E-3	-8.65818E-12	361.089E-3	-6.95585E-3
-1.10805E-3	-8.71104E-12	328.318E-3	-19.9331E-3	-8.79272E-12	379.131E-3	-12.8636E-3
-1.11306E-3	-8.82866E-12	338.730E-3	-8.50245E-3	-8.91384E-12	383.092E-3	-26.0486E-3
-1.11806E-3	-8.98976E-12	347.835E-3	-5.43365E-3	-9.07613E-12	386.841E-3	-14.6782E-3
-1.12306E-3	-9.15153E-12	375.135E-3	-3.20854E-3	-9.26959E-12	408.516E-3	-3.92981E-3
-1.12806E-3	-9.26190E-12	387.121E-3	-12.0675E-3	-9.30255E-12	432.124E-3	-8.81042E-3
-1.13307E-3	-9.35248E-12	386.146E-3	-21.4591E-3	-9.30908E-12	439.145E-3	-11.0120E-3
-1.13807E-3	-9.47744E-12	390.291E-3	-13.1590E-3	-9.57385E-12	438.946E-3	-10.1447E-3
-1.14307E-3	-9.69451E-12	389.699E-3	-6.94901E-3	-9.72725E-12	445.286E-3	-16.2311E-3
-1.14807E-3	-9.79208E-12	399.807E-3	-4.19949E-3	-9.75017E-12	460.327E-3	-20.7627E-3
-1.15308E-3	-9.88996E-12	428.897E-3	-182.373E-6	-9.89552E-12	481.803E-3	-16.8128E-3
-1.15808E-3	-10.0227E-12	446.608E-3	-11.0721E-3	-10.0606E-12	492.695E-3	-10.1945E-3
-1.16308E-3	-10.2487E-12	458.807E-3	-22.3122E-3	-10.2917E-12	499.397E-3	-10.9187E-3
-1.16808E-3	-10.3749E-12	484.524E-3	-11.4522E-3	-10.4580E-12	520.296E-3	-19.9860E-3
-1.17309E-3	-10.5813E-12	496.427E-3	1.69852E-3	-10.6045E-12	532.377E-3	-26.6423E-3
-1.17809E-3	-10.7786E-12	487.300E-3	-10.6038E-3	-10.8624E-12	534.751E-3	-13.0939E-3
-1.18309E-3	-11.0041E-12	492.551E-3	-21.7122E-3	-11.0547E-12	562.124E-3	2.30614E-3
-1.18809E-3	-11.2618E-12	512.087E-3	-7.72061E-3	-11.2536E-12	593.151E-3	-7.21566E-3
-1.19310E-3	-11.5076E-12	526.230E-3	-7.49860E-3	-11.4653E-12	604.357E-3	-16.4885E-3
-1.19810E-3	-11.7566E-12	548.821E-3	-16.6037E-3	-11.6652E-12	619.634E-3	-9.41547E-3
-1.20310E-3	-11.9182E-12	573.985E-3	-9.01214E-3	-11.8939E-12	640.570E-3	-4.83023E-3
-1.20810E-3	-12.1252E-12	584.906E-3	-19.2049E-3	-12.1614E-12	651.033E-3	-7.69905E-3
-1.21311E-3	-12.3861E-12	601.025E-3	-37.2271E-3	-12.3237E-12	668.303E-3	-10.5758E-3
-1.21811E-3	-12.6362E-12	624.087E-3	-28.0323E-3	-12.4467E-12	692.428E-3	-21.8590E-3
-1.22311E-3	-12.7436E-12	632.525E-3	-21.5223E-3	-12.6199E-12	700.066E-3	-33.4307E-3
-1.22811E-3	-12.8696E-12	641.284E-3	-29.5801E-3	-12.8317E-12	711.338E-3	-31.5297E-3
-1.23312E-3	-13.1861E-12	662.701E-3	-31.9635E-3	-13.1374E-12	737.324E-3	-21.5405E-3
-1.23812E-3	-13.4348E-12	675.919E-3	-27.0060E-3	-13.3656E-12	756.189E-3	-9.48047E-3
-1.24312E-3	-13.5905E-12	694.875E-3	-17.8941E-3	-13.5088E-12	771.813E-3	5.34117E-3
-1.24812E-3	-13.7226E-12	726.434E-3	-13.6163E-3	-13.7101E-12	793.459E-3	8.39697E-3
-1.25313E-3	-13.8529E-12	745.936E-3	-12.4108E-3	-14.0541E-12	805.586E-3	-5.19433E-3
-1.25813E-3	-14.1976E-12	756.010E-3	-13.3112E-3	-14.3664E-12	814.889E-3	-11.8732E-3
-1.26313E-3	-14.5558E-12	764.749E-3	-16.9771E-3	-14.6183E-12	838.904E-3	-18.1904E-3
-1.26813E-3	-14.6928E-12	767.004E-3	-14.8799E-3	-14.8650E-12	865.283E-3	-26.2591E-3
-1.27314E-3	-14.9425E-12	767.663E-3	-11.0785E-3	-15.2398E-12	879.793E-3	-17.5064E-3
-1.27814E-3	-15.4415E-12	782.352E-3	-13.4945E-3	-15.5578E-12	886.322E-3	-7.79153E-3
-1.28314E-3	-15.7700E-12	806.588E-3	-24.6009E-3	-15.7528E-12	892.850E-3	-16.5347E-3
-1.28814E-3	-15.8773E-12	837.225E-3	-33.2377E-3	-15.9709E-12	915.779E-3	-15.9456E-3
-1.29315E-3	-16.2859E-12	869.069E-3	-27.7480E-3	-16.3771E-12	943.131E-3	6.39729E-3
-1.29815E-3	-16.7005E-12	878.811E-3	-17.2141E-3	-16.6820E-12	945.310E-3	10.3044E-3
-1.30315E-3	-16.9105E-12	879.964E-3	-18.0067E-3	-16.8464E-12	949.699E-3	-4.10072E-3
-1.30815E-3	-17.1502E-12	901.847E-3	-19.7915E-3	-17.1243E-12	974.716E-3	-10.6258E-3
-1.31316E-3	-17.5212E-12	926.730E-3	-10.4003E-3	-17.4646E-12	985.388E-3	-16.9906E-3
-1.31816E-3	-17.7488E-12	940.773E-3	-10.2410E-3	-17.7091E-12	982.239E-3	-16.4083E-3
-1.32316E-3	-18.1067E-12	962.378E-3	-9.11079E-3	-17.9642E-12	996.965E-3	-13.9170E-3
-1.32816E-3	-18.3311E-12	978.674E-3	2.59107E-3	-18.2478E-12	1.01794E+0	-21.1238E-3
-1.33317E-3	-18.6538E-12	974.791E-3	-4.64192E-3	-18.5010E-12	1.02846E+0	-15.0670E-3
-1.33817E-3	-18.9013E-12	974.084E-3	-13.9201E-3	-18.8362E-12	1.03946E+0	-1.13137E-3
-1.34317E-3	-19.2434E-12	982.737E-3	-3.82299E-3	-19.1848E-12	1.05105E+0	-7.67449E-3
-1.34817E-3	-19.4726E-12	996.489E-3	1.18517E-3	-19.5286E-12	1.05929E+0	-17.7847E-3
-1.35318E-3	-19.7988E-12	1.02358E+0	-10.3113E-3	-19.7511E-12	1.08004E+0	-8.57505E-3
-1.35818E-3	-20.2954E-12	1.04304E+0	-20.5583E-3	-20.3073E-12	1.10606E+0	-5.78437E-3
-1.36318E-3	-20.7236E-12	1.04137E+0	-24.5435E-3	-20.8365E-12	1.11468E+0	-19.1923E-3
-1.36818E-3	-21.2642E-12	1.06036E+0	-24.7942E-3	-21.2609E-12	1.12403E+0	-25.5285E-3
-1.37319E-3	-21.7801E-12	1.09844E+0	-8.23969E-3	-21.6335E-12	1.14195E+0	-28.2946E-3
-1.37819E-3	-22.1300E-12	1.11368E+0	-1.39878E-3	-22.0488E-12	1.14678E+0	-31.1753E-3
-1.38319E-3	-22.4760E-12	1.11838E+0	-18.0490E-3	-22.3677E-12	1.15378E+0	-23.6606E-3
-1.38819E-3	-22.9122E-12	1.12733E+0	-15.2913E-3	-22.8306E-12	1.16802E+0	-19.9029E-3
-1.39320E-3	-23.3488E-12	1.13083E+0	4.22431E-3	-23.1196E-12	1.16285E+0	-22.8415E-3
-1.39820E-3	-23.6731E-12	1.13735E+0	5.07394E-3	-23.4249E-12	1.16163E+0	-17.2672E-3
-1.40320E-3	-23.9774E-12	1.15794E+0	4.48064E-3	-23.8186E-12	1.17128E+0	-18.1508E-3
-1.40820E-3	-24.4946E-12	1.17003E+0	6.88629E-3	-24.0784E-12	1.17036E+0	-22.3365E-3
-1.41321E-3	-24.8898E-12	1.16474E+0	-10.6910E-3	-24.4654E-12	1.17126E+0	-12.1450E-3
-1.41821E-3	-25.2627E-12	1.17378E+0	-21.1487E-3	-24.6534E-12	1.17454E+0	-4.87481E-3
-1.42321E-3	-25.6486E-12	1.18893E+0	-15.7707E-3	-25.0663E-12	1.17609E+0	-11.7538E-3
-1.42821E-3	-25.9814E-12	1.19008E+0	-23.4751E-3	-25.5770E-12	1.18888E+0	-13.0385E-3
-1.43322E-3	-26.3765E-12	1.19575E+0	-19.2324E-3	-25.9998E-12	1.21125E+0	-5.29360E-3
-1.43822E-3	-26.7295E-12	1.20658E+0	1.84783E-3	-26.3124E-12	1.22540E+0	-8.08873E-3
-1.44322E-3	-27.0222E-12	1.21423E+0	2.96429E-3	-26.8470E-12	1.22211E+0	-6.00544E-3
-1.44822E-3	-27.3373E-12	1.21943E+0	-3.77752E-3	-27.3097E-12	1.21731E+0	6.89777E-3
-1.45323E-3	-27.6882E-12	1.22264E+0	-2.88536E-3	-27.9218E-12	1.22542E+0	1.28719E-3
-1.45823E-3	-28.1583E-12	1.23075E+0	-10.1684E-3	-28.3713E-12	1.23427E+0	-13.8334E-3
-1.46323E-3	-28.6691E-12	1.23978E+0	-23.9655E-3	-28.8680E-12	1.23689E+0	-19.7815E-3
-1.46823E-3	-29.1412E-12	1.23527E+0	-17.4433E-3	-29.4308E-12	1.23062E+0	-23.1752E-3
-1.47324E-3	-29.5486E-12	1.22982E+0	-161.490E-6	-29.9154E-12	1.22373E+0	-18.3063E-3
-1.47824E-3	-29.7539E-12	1.23694E+0	-2.83267E-3	-30.1727E-12	1.22695E+0	-14.0599E-3
-1.48324E-3	-30.1876E-12	1.23844E+0	-18.0998E-3	-30.5029E-12	1.23182E+0	-19.2554E-3
-1.48824E-3	-30.6708E-12	1.23759E+0	-28.5347E-3	-30.9705E-12	1.22726E+0	-16.4342E-3
-1.49325E-3	-31.0135E-12	1.24487E+0	-30.8971E-3	-31.2877E-12	1.22240E+0	-7.05136E-3
-1.49825E-3	-31.2344E-12	1.24157E+0	-23.1304E-3	-31.5611E-12	1.22183E+0	-15.6733E-3
-1.50325E-3	-31.3818E-12	1.23456E+0	-16.5123E-3	-31.8543E-12	1.21283E+0	-28.2431E-3
-1.50825E-3	-32.0220E-12	1.23246E+0	-23.1075E-3	-32.3668E-12	1.20410E+0	-18.5491E-3
-1.51326E-3	-32.3892E-12	1.21673E+0	-27.8620E-3	-32.4589E-12	1.20682E+0	-13.2521E-3
-1.51826E-3	-32.7257E-12	1.19278E+0	-24.7089E-3	-32.8127E-12	1.20172E+0	-16.9403E-3
-1.52326E-3	-33.0344E-12	1.18802E+0	-11.0056E-3	-33.3888E-12	1.18923E+0	-14.2217E-3
-1.52826E-3	-33.4726E-12	1.19867E+0	4.42730E-3	-33.8220E-12	1.19426E+0	-19.6934E-3
-1.53327E-3	-33.8651E-12	1.19615E+0	3.52878E-3	-34.1290E-12	1.20700E+0	-32.8734E-3
-1.53827E-3	-34.3653E-12	1.18964E+0	-9.70076E-3	-34.5089E-12	1.21728E+0	-30.8947E-3
-1.54327E-3	-34.6732E-12	1.19153E+0	-9.70170E-3	-35.0212E-12	1.22185E+0	-20.6554E-3
-1.54827E-3	-35.1127E-12	1.19384E+0	-1.29124E-3	-35.5249E-12	1.20902E+0	-22.5232E-3
-1.55328E-3	-35.6955E-12	1.20468E+0	-7.63324E-3	-35.8563E-12	1.19215E+0	-23.3897E-3
-1.55828E-3	-36.1184E-12	1.22108E+0	-12.5924E-3	-36.2501E-12	1.18213E+0	-21.5397E-3
-1.56328E-3	-36.5952E-12	1.21116E+0	-12.7019E-3	-36.7571E-12	1.17149E+0	-26.9791E-3
-1.56828E-3	-37.0466E-12	1.19577E+0	-19.9242E-3	-37.0141E-12	1.16233E+0	-20.2723E-3
-1.57329E-3	-37.4016E-12	1.20393E+0	-20.8312E-3	-37.3241E-12	1.16047E+0	-10.0086E-3
-1.57829E-3	-37.6537E-12	1.20582E+0	-23.5670E-3	-37.7078E-12	1.15453E+0	-15.0428E-3
-1.58329E-3	-38.1300E-12	1.19088E+0	-40.3429E-3	-37.9513E-12	1.14457E+0	-11.5878E-3
-1.58829E-3	-38.5124E-12	1.18156E+0	-39.9363E-3	-38.2260E-12	1.14636E+0	-4.46062E-3
-1.59330E-3	-38.8670E-12	1.17695E+0	-26.8417E-3	-38.6869E-12	1.14003E+0	-14.0752E-3
-1.59830E-3	-39.0020E-12	1.16656E+0	-27.8414E-3	-39.0930E-12	1.12371E+0	-21.8652E-3
-1.60330E-3	-39.6783E-12	1.16594E+0	-24.8137E-3	-39.3437E-12	1.13086E+0	-19.6866E-3
-1.60830E-3	-40.0962E-12	1.16972E+0	-12.8727E-3	-39.7329E-12	1.13585E+0	-19.1826E-3
-1.61331E-3	-40.5983E-12	1.16302E+0	-9.05963E-3	-40.3628E-12	1.11421E+0	-16.5634E-3
-1.61831E-3	-40.7967E-12	1.15803E+0	-17.8271E-3	-41.0682E-12	1.11135E+0	-7.75071E-3
-1.62331E-3	-41.4713E-12	1.14712E+0	-24.2209E-3	-41.4670E-12	1.13028E+0	-5.94392E-3
-1.62831E-3	-41.8758E-12	1.12469E+0	-15.1871E-3	-41.6814E-12	1.12496E+0	-17.5008E-3
-1.63332E-3	-42.2284E-12	1.11829E+0	-13.1028E-3	-42.3425E-12	1.11119E+0	-23.5861E-3
-1.63832E-3	-42.6998E-12	1.11405E+0	-16.5940E-3	-43.0351E-12	1.11546E+0	-16.9671E-3
-1.64332E-3	-43.1514E-12	1.10864E+0	-12.7124E-3	-43.3158E-12	1.11599E+0	-8.64436E-3
-1.64832E-3	-43.5126E-12	1.12477E+0	-11.8051E-3	-43.3915E-12	1.11158E+0	-4.54217E-3
-1.65333E-3	-43.9047E-12	1.13617E+0	-13.2046E-3	-43.7351E-12	1.10491E+0	-13.7408E-3
-1.65833E-3	-44.2402E-12	1.12481E+0	-23.1902E-3	-44.1668E-12	1.07826E+0	-30.0489E-3
-1.66333E-3	-44.5213E-12	1.11042E+0	-38.6885E-3	-44.5679E-12	1.05752E+0	-22.2135E-3
-1.66833E-3	-44.6462E-12	1.10825E+0	-34.4636E-3	-44.6104E-12	1.06152E+0	-315.673E-6
-1.67334E-3	-44.8332E-12	1.10348E+0	-26.2507E-3	-44.8589E-12	1.06459E+0	-443.341E-6
-1.67834E-3	-45.1227E-12	1.09277E+0	-29.7833E-3	-45.2080E-12	1.06475E+0	-9.42412E-3
-1.68334E-3	-45.5354E-12	1.08300E+0	-23.9034E-3	-45.6976E-12	1.06280E+0	-14.9365E-3
-1.68834E-3	-45.7430E-12	1.06749E+0	-12.9992E-3	-46.1699E-12	1.04771E+0	-19.5642E-3
-1.69335E-3	-45.9648E-12	1.06055E+0	-4.07694E-3	-46.1518E-12	1.04241E+0	-21.1343E-3
-1.69835E-3	-46.2089E-12	1.05873E+0	-2.21739E-3	-46.5382E-12	1.05266E+0	-22.4776E-3
-1.70335E-3	-46.7977E-12	1.03948E+0	-14.9223E-3	-47.3808E-12	1.04632E+0	-22.5676E-3
-1.70835E-3	-47.0601E-12	1.02416E+0	-28.3047E-3	-47.6748E-12	1.03199E+0	-17.1026E-3
-1.71336E-3	-47.3421E-12	1.03705E+0	-22.1522E-3	-47.9819E-12	1.04049E+0	-24.1887E-3
-1.71836E-3	-47.7723E-12	1.04767E+0	-11.2115E-3	-48.4060E-12	1.03792E+0	-43.5550E-3
-1.72336E-3	-48.5604E-12	1.04772E+0	-19.8928E-3	-48.8759E-12	1.01231E+0	-37.3541E-3
-1.72836E-3	-48.7553E-12	1.05226E+0	-27.2723E-3	-49.1427E-12	1.00728E+0	-24.9792E-3
-1.73337E-3	-49.0727E-12	1.04403E+0	-19.7287E-3	-49.3211E-12	1.01416E+0	-27.2664E-3
-1.73837E-3	-49.5786E-12	1.02248E+0	-6.05068E-3	-49.5924E-12	1.00476E+0	-13.0708E-3
-1.74337E-3	-50.0715E-12	1.01305E+0	4.02731E-3	-49.5801E-12	983.798E-3	-5.11192E-3
-1.74837E-3	-50.2008E-12	1.01867E+0	2.98488E-3	-49.8676E-12	972.283E-3	-23.3630E-3
-1.75338E-3	-50.4702E-12	1.01894E+0	-8.32255E-3	-49.8704E-12	972.047E-3	-28.5855E-3
-1.75838E-3	-50.8220E-12	1.01252E+0	-23.3985E-3	-50.1587E-12	968.595E-3	-21.5755E-3
-1.76338E-3	-51.0954E-12	997.285E-3	-17.1126E-3	-50.2478E-12	955.186E-3	-17.4539E-3
-1.76838E-3	-51.3749E-12	979.651E-3	-3.76979E-3	-50.5984E-12	940.414E-3	-15.7717E-3
-1.77339E-3	-51.4889E-12	982.746E-3	-7.35863E-3	-50.7682E-12	931.253E-3	-16.8975E-3
-1.77839E-3	-51.9447E-12	997.085E-3	-20.8756E-3	-51.3617E-12	937.553E-3	-23.0282E-3
-1.78339E-3	-52.3298E-12	994.689E-3	-28.8762E-3	-51.7186E-12	952.513E-3	-19.9053E-3
-1.78839E-3	-52.6258E-12	974.484E-3	-12.1660E-3	-52.1270E-12	958.372E-3	2.78276E-3
-1.79340E-3	-53.0555E-12	948.695E-3	4.11479E-3	-52.5917E-12	951.439E-3	13.2536E-3
-1.79840E-3	-53.6689E-12	928.881E-3	-11.5711E-3	-53.1122E-12	934.874E-3	-754.761E-6
-1.80340E-3	-54.0609E-12	938.985E-3	-33.4740E-3	-53.6383E-12	931.612E-3	-10.1271E-3
-1.80840E-3	-54.4657E-12	964.844E-3	-25.0301E-3	-54.2615E-12	941.021E-3	-6.54395E-3
-1.81341E-3	-54.8370E-12	969.755E-3	-4.86716E-3	-54.7360E-12	934.076E-3	-6.49312E-3
-1.81841E-3	-55.5089E-12	964.341E-3	1.43225E-3	-55.1115E-12	917.895E-3	-842.041E-6
-1.82341E-3	-55.7992E-12	961.551E-3	4.29953E-3	-55.0955E-12	921.669E-3	4.90772E-3
-1.82841E-3	-55.9623E-12	959.163E-3	1.36114E-3	-55.4021E-12	920.848E-3	-9.39538E-3
-1.83342E-3	-56.5041E-12	955.602E-3	-16.1505E-3	-55.8789E-12	901.397E-3	-12.1509E-3
-1.83842E-3	-56.7615E-12	953.782E-3	-19.1814E-3	-55.8926E-12	892.432E-3	-8.36106E-3
-1.84342E-3	-57.0860E-12	949.446E-3	-5.40806E-3	-55.8113E-12	886.734E-3	-17.0884E-3
-1.84842E-3	-57.1479E-12	933.549E-3	-9.83115E-3	-56.0778E-12	880.388E-3	-15.9915E-3
-1.85343E-3	-57.1076E-12	925.418E-3	-13.2462E-3	-56.4637E-12	883.639E-3	-16.7904E-3
-1.85843E-3	-57.4417E-12	917.616E-3	-11.6840E-3	-56.8481E-12	886.643E-3	-23.3467E-3
-1.86343E-3	-57.5568E-12	908.226E-3	-21.9503E-3	-56.9923E-12	891.462E-3	-22.2280E-3
-1.86843E-3	-57.6148E-12	917.496E-3	-18.6350E-3	-57.3823E-12	901.287E-3	-20.0937E-3
-1.87344E-3	-57.8350E-12	914.468E-3	-3.76158E-3	-57.9553E-12	897.334E-3	-18.5303E-3
-1.87844E-3	-58.4389E-12	893.081E-3	-10.9437E-3	-58.6094E-12	885.880E-3	-21.9794E-3
-1.88344E-3	-58.5616E-12	892.722E-3	-29.0720E-3	-59.0513E-12	890.062E-3	-20.6646E-3
-1.88844E-3	-58.9087E-12	891.142E-3	-25.7850E-3	-59.6147E-12	894.536E-3	-13.1262E-3
-1.89345E-3	-59.1089E-12	872.966E-3	-17.4179E-3	-59.9536E-12	875.448E-3	-8.60049E-3
-1.89845E-3	-59.5983E-12	879.366E-3	-31.3094E-3	-60.3579E-12	865.841E-3	-5.55176E-3
-1.90345E-3	-59.7925E-12	900.632E-3	-46.3415E-3	-60.6633E-12	881.674E-3	-9.66381E-3
-1.90845E-3	-60.0627E-12	899.669E-3	-40.2071E-3	-61.0425E-12	884.835E-3	-17.0673E-3
-1.91346E-3	-60.2962E-12	883.544E-3	-21.4190E-3	-61.2040E-12	877.924E-3	-23.7707E-3
-1.91846E-3	-60.6080E-12	876.037E-3	-1.06573E-3	-61.2364E-12	871.240E-3	-33.4645E-3
-1.92346E-3	-60.8649E-12	874.128E-3	3.16497E-3	-61.4592E-12	856.502E-3	-35.6654E-3
-1.92846E-3	-61.1629E-12	865.043E-3	-12.2808E-3	-61.6528E-12	854.663E-3	-23.2193E-3
-1.93347E-3	-61.5317E-12	858.815E-3	-18.7965E-3	-61.4403E-12	850.381E-3	-16.8089E-3
-1.93847E-3	-61.4548E-12	857.598E-3	-22.3124E-3	-61.4324E-12	831.331E-3	-10.3068E-3
-1.94347E-3	-61.6131E-12	858.887E-3	-32.2769E-3	-61.7451E-12	831.100E-3	3.07629E-3
-1.94847E-3	-62.0163E-12	862.434E-3	-15.4761E-3	-62.0302E-12	842.314E-3	-6.08766E-3
-1.95348E-3	-62.3436E-12	853.774E-3	6.90528E-3	-62.0313E-12	846.662E-3	-23.4627E-3
-1.95848E-3	-62.4325E-12	852.645E-3	256.984E-6	-62.2734E-12	844.705E-3	-16.5203E-3
-1.96348E-3	-62.8836E-12	863.593E-3	-11.9968E-3	-62.6838E-12	848.093E-3	-8.18256E-3
-1.96848E-3	-63.4292E-12	858.581E-3	-19.5917E-3	-63.2861E-12	855.356E-3	-16.6581E-3
-1.97349E-3	-63.9833E-12	851.082E-3	-22.8518E-3	-63.7344E-12	845.986E-3	-17.5551E-3
-1.97849E-3	-64.0218E-12	857.589E-3	-10.0067E-3	-64.0467E-12	837.449E-3	-18.4937E-3
-1.98349E-3	-64.5975E-12	859.456E-3	9.70015E-3	-64.5243E-12	839.700E-3	-40.2569E-3
-1.98849E-3	-64.9581E-12	852.696E-3	-670.463E-6	-64.6905E-12	838.800E-3	-49.0584E-3
-1.99350E-3	-65.3876E-12	853.583E-3	-21.9587E-3	-65.2006E-12	836.367E-3	-32.7222E-3
-1.99850E-3	-65.6375E-12	857.320E-3	-14.7680E-3	-65.1288E-12	829.119E-3	-26.7040E-3
-2.00350E-3	-65.9616E-12	855.791E-3	-13.3506E-3	-64.9337E-12	820.993E-3	-25.1214E-3
-2.00850E-3	-65.9276E-12	849.715E-3	-25.5959E-3	-65.3934E-12	830.095E-3	-22.4416E-3
-2.01351E-3	-66.4478E-12	833.759E-3	-26.4222E-3	-65.7738E-12	840.454E-3	-35.0728E-3
-2.01851E-3	-66.7462E-12	826.249E-3	-23.3107E-3	-65.6610E-12	820.878E-3	-45.3315E-3
-2.02351E-3	-66.8080E-12	837.898E-3	-17.9783E-3	-65.6446E-12	795.659E-3	-33.7353E-3
-2.02851E-3	-66.7963E-12	842.876E-3	-8.25907E-3	-66.1909E-12	786.282E-3	-16.4985E-3
-2.03352E-3	-67.2523E-12	832.966E-3	-5.82196E-3	-66.4489E-12	780.766E-3	-1.85039E-3
-2.03852E-3	-67.5217E-12	822.874E-3	-14.3516E-3	-66.7826E-12	785.520E-3	8.08208E-3
-2.04352E-3	-67.8328E-12	811.314E-3	-16.5641E-3	-66.7275E-12	793.469E-3	1.06138E-3
-2.04852E-3	-67.9158E-12	807.687E-3	-15.3339E-3	-67.4614E-12	793.820E-3	-6.65437E-3
-2.05353E-3	-68.4459E-12	827.816E-3	-17.1422E-3	-68.0146E-12	808.452E-3	1.78019E-3
-2.05853E-3	-68.8051E-12	831.638E-3	-12.1880E-3	-68.5734E-12	827.332E-3	5.53247E-3
-2.06353E-3	-69.1790E-12	812.707E-3	-10.4684E-3	-68.9928E-12	824.403E-3	-6.05769E-3
-2.06853E-3	-69.3258E-12	808.037E-3	-10.7882E-3	-69.6267E-12	814.022E-3	-13.0480E-3
-2.07354E-3	-69.7561E-12	806.563E-3	-9.43679E-3	-69.9430E-12	812.020E-3	-9.51810E-3
-2.07854E-3	-69.7473E-12	791.393E-3	-18.7708E-3	-70.1876E-12	814.332E-3	-21.0867E-3
-2.08354E-3	-70.4534E-12	784.698E-3	-25.7228E-3	-70.7299E-12	816.959E-3	-31.9139E-3
-2.08854E-3	-70.4986E-12	798.679E-3	-6.79645E-3	-70.8833E-12	806.211E-3	-19.3684E-3
-2.09355E-3	-70.5841E-12	798.658E-3	15.8318E-3	-70.7916E-12	778.745E-3	-9.25959E-3
-2.09855E-3	-70.5415E-12	786.603E-3	1.08281E-3	-70.7396E-12	761.735E-3	-15.2710E-3
-2.10355E-3	-70.8490E-12	793.600E-3	-21.3338E-3	-70.6569E-12	769.088E-3	-20.4160E-3
-2.10855E-3	-71.0859E-12	807.419E-3	-24.6457E-3	-71.0710E-12	786.777E-3	-11.6541E-3
-2.11356E-3	-71.3651E-12	807.043E-3	-27.4157E-3	-70.8806E-12	787.064E-3	-5.12701E-3
-2.11856E-3	-71.2063E-12	803.866E-3	-24.8851E-3	-71.2826E-12	780.872E-3	-15.7945E-3
-2.12356E-3	-71.3763E-12	809.056E-3	-21.1377E-3	-71.3603E-12	784.581E-3	-27.8027E-3
-2.12856E-3	-71.8678E-12	807.577E-3	-22.0637E-3	-71.8039E-12	775.349E-3	-22.9647E-3
-2.13357E-3	-72.2508E-12	796.003E-3	-26.2575E-3	-72.1147E-12	761.140E-3	-13.8465E-3
-2.13857E-3	-72.1304E-12	777.181E-3	-22.7253E-3	-72.2524E-12	759.937E-3	-9.89956E-3
-2.14357E-3	-72.1439E-12	756.825E-3	-11.7921E-3	-72.5289E-12	768.375E-3	-8.54918E-3
-2.14857E-3	-72.4168E-12	757.447E-3	-7.64181E-3	-72.7224E-12	782.017E-3	-3.19598E-3
-2.15358E-3	-72.8623E-12	775.322E-3	-6.00032E-3	-73.3456E-12	780.607E-3	254.944E-6
-2.15858E-3	-73.4198E-12	772.841E-3	-22.2468E-3	-73.9218E-12	770.891E-3	-12.6809E-3
-2.16358E-3	-73.2835E-12	755.401E-3	-33.3946E-3	-74.2688E-12	771.874E-3	-16.8655E-3
-2.16858E-3	-73.8382E-12	752.033E-3	-6.74011E-3	-74.5878E-12	775.716E-3	-14.6617E-3
-2.17359E-3	-74.2695E-12	757.588E-3	11.1232E-3	-74.4115E-12	780.851E-3	-17.4108E-3
-2.17859E-3	-74.4988E-12	769.872E-3	6.60617E-3	-74.9924E-12	790.500E-3	-9.18387E-3
-2.18359E-3	-74.7785E-12	776.990E-3	687.457E-6	-75.0594E-12	786.187E-3	-14.6750E-3
-2.18859E-3	-75.2341E-12	764.563E-3	-20.1866E-3	-75.1085E-12	764.815E-3	-25.8661E-3
-2.19360E-3	-75.6944E-12	760.802E-3	-35.8935E-3	-74.9970E-12	761.005E-3	-12.8039E-3
-2.19860E-3	-76.0664E-12	764.995E-3	-30.9361E-3	-75.2878E-12	768.522E-3	-3.33487E-3
-2.20360E-3	-76.1931E-12	755.702E-3	-30.3651E-3	-75.2258E-12	757.519E-3	-13.5471E-3
-2.20860E-3	-76.3820E-12	761.614E-3	-41.2172E-3	-75.5776E-12	747.596E-3	-16.2827E-3
-2.21361E-3	-76.5232E-12	781.615E-3	-34.1923E-3	-75.8288E-12	755.437E-3	-10.4726E-3
-2.21861E-3	-76.9646E-12	781.599E-3	-10.9323E-3	-76.0567E-12	749.978E-3	-9.34465E-3
-2.22361E-3	-77.3960E-12	767.683E-3	-9.02048E-3	-76.7856E-12	738.115E-3	-9.75600E-3
-2.22861E-3	-77.7758E-12	762.638E-3	-21.7644E-3	-77.0633E-12	752.779E-3	-11.4358E-3
-2.23362E-3	-77.6741E-12	755.774E-3	-26.2832E-3	-77.7040E-12	764.946E-3	-8.85678E-3
-2.23862E-3	-78.0995E-12	752.128E-3	-24.1462E-3	-78.0124E-12	761.324E-3	-1.15847E-3
-2.24362E-3	-78.4750E-12	764.677E-3	-18.8595E-3	-78.7029E-12	761.031E-3	-5.80854E-3
-2.24862E-3	-78.7214E-12	763.132E-3	-8.77406E-3	-79.0269E-12	761.268E-3	-16.6363E-3
-2.25363E-3	-78.8707E-12	757.639E-3	-4.49160E-3	-79.5058E-12	763.838E-3	-14.9729E-3
-2.25863E-3	-79.1784E-12	772.045E-3	-7.20040E-3	-79.7147E-12	769.538E-3	-13.1423E-3
-2.26363E-3	-79.3997E-12	775.076E-3	-6.59927E-3	-79.7550E-12	768.108E-3	-16.5658E-3
-2.26863E-3	-79.8068E-12	761.746E-3	-3.76638E-3	-79.7515E-12	764.532E-3	-12.1626E-3
-2.27364E-3	-79.8756E-12	756.559E-3	378.497E-6	-79.9024E-12	760.471E-3	-1.35824E-3
-2.27864E-3	-80.3059E-12	763.300E-3	-12.5082E-3	-79.9573E-12	743.688E-3	-13.3717E-3
-2.28364E-3	-80.5660E-12	766.371E-3	-42.7221E-3	-79.6357E-12	733.303E-3	-36.4461E-3
-2.28864E-3	-80.8112E-12	752.400E-3	-48.9126E-3	-79.9776E-12	757.564E-3	-28.3129E-3
-2.29365E-3	-80.8898E-12	741.407E-3	-35.5636E-3	-80.2174E-12	778.459E-3	-7.86253E-3
-2.29865E-3	-80.9042E-12	742.864E-3	-23.6440E-3	-80.4203E-12	762.988E-3	-2.56858E-3
-2.30365E-3	-81.0715E-12	751.948E-3	-15.8579E-3	-81.2151E-12	747.431E-3	-5.24194E-3
-2.30865E-3	-81.2162E-12	764.953E-3	-27.3120E-3	-81.5104E-12	751.418E-3	-4.39548E-3
-2.31366E-3	-81.7107E-12	765.708E-3	-31.6003E-3	-81.9803E-12	758.472E-3	-5.82926E-3
-2.31866E-3	-81.7243E-12	763.704E-3	-13.3200E-3	-82.5655E-12	755.530E-3	-22.0932E-3
-2.32366E-3	-81.9606E-12	767.730E-3	-5.01578E-3	-83.3454E-12	742.854E-3	-45.6513E-3
-2.32866E-3	-82.1652E-12	753.194E-3	-12.3316E-3	-83.4147E-12	738.246E-3	-52.7559E-3
-2.33367E-3	-82.6859E-12	734.114E-3	-20.2239E-3	-83.8404E-12	752.000E-3	-36.1322E-3
-2.33867E-3	-83.0371E-12	738.435E-3	-22.2872E-3	-84.0403E-12	756.912E-3	-14.5971E-3
-2.34367E-3	-83.3736E-12	753.494E-3	-16.7109E-3	-84.1226E-12	743.346E-3	911.106E-6
-2.34867E-3	-83.4416E-12	762.071E-3	-11.5280E-3	-84.1025E-12	737.591E-3	-1.70138E-3
-2.35368E-3	-84.0190E-12	763.901E-3	-18.2612E-3	-83.9181E-12	742.777E-3	-24.2942E-3
-2.35868E-3	-84.2992E-12	759.896E-3	-25.0232E-3	-83.7523E-12	731.611E-3	-31.9825E-3
-2.36368E-3	-84.2554E-12	757.940E-3	-25.3293E-3	-83.6345E-12	723.418E-3	-15.6132E-3
-2.36868E-3	-84.3254E-12	759.418E-3	-18.2393E-3	-83.8538E-12	734.659E-3	-5.77579E-3
-2.37369E-3	-84.8212E-12	745.363E-3	-1.23882E-3	-83.2303E-12	727.773E-3	-9.35483E-3
-2.37869E-3	-84.8650E-12	732.194E-3	-4.36376E-3	-83.4112E-12	718.509E-3	-7.64961E-3
-2.38369E-3	-84.9263E-12	734.723E-3	-30.9794E-3	-83.4992E-12	726.830E-3	-3.00251E-3
-2.38869E-3	-85.1747E-12	729.790E-3	-46.9477E-3	-84.2209E-12	726.715E-3	-5.83808E-3
-2.39370E-3	-85.4336E-12	722.173E-3	-48.6481E-3	-84.5319E-12	725.161E-3	-9.77420E-3
-2.39870E-3	-85.5439E-12	723.451E-3	-42.1596E-3	-84.9170E-12	739.365E-3	-23.7066E-3
-2.40370E-3	-86.0229E-12	723.189E-3	-38.0789E-3	-85.3661E-12	745.305E-3	-36.8222E-3
-2.40870E-3	-86.3707E-12	726.450E-3	-40.1621E-3	-86.2787E-12	729.287E-3	-29.3441E-3
-2.41371E-3	-86.5065E-12	740.211E-3	-35.4025E-3	-86.7653E-12	721.690E-3	-26.3669E-3
-2.41871E-3	-87.0657E-12	744.738E-3	-22.2954E-3	-87.3867E-12	721.759E-3	-34.6636E-3
-2.42371E-3	-87.4484E-12	743.791E-3	-964.774E-6	-87.5669E-12	716.912E-3	-25.5119E-3
-2.42871E-3	-87.7759E-12	759.188E-3	14.1122E-3	-87.5076E-12	734.093E-3	-6.25346E-3
-2.43372E-3	-87.9731E-12	773.514E-3	-4.66544E-3	-87.8141E-12	753.053E-3	666.007E-6
-2.43872E-3	-88.1679E-12	774.199E-3	-38.6721E-3	-88.0157E-12	743.768E-3	-4.18944E-3
-2.44372E-3	-88.6360E-12	763.997E-3	-42.7888E-3	-87.8282E-12	728.446E-3	-15.2640E-3
-2.44872E-3	-88.7138E-12	745.627E-3	-18.9602E-3	-87.9213E-12	717.014E-3	-23.8644E-3
-2.45373E-3	-89.0217E-12	729.828E-3	-2.72947E-3	-88.2912E-12	708.662E-3	-25.7530E-3
-2.45873E-3	-89.3490E-12	722.577E-3	-5.54100E-3	-88.2192E-12	713.878E-3	-18.5256E-3
-2.46373E-3	-89.5437E-12	731.075E-3	-13.3705E-3	-88.1735E-12	721.206E-3	-14.7250E-3
-2.46873E-3	-89.5401E-12	744.309E-3	-18.9152E-3	-88.7528E-12	713.292E-3	-15.4096E-3
-2.47374E-3	-89.4726E-12	745.412E-3	-27.7856E-3	-88.9892E-12	712.371E-3	-6.66296E-3
-2.47874E-3	-89.2956E-12	734.054E-3	-34.5526E-3	-89.1748E-12	726.218E-3	-13.0067E-3
-2.48374E-3	-89.5095E-12	722.054E-3	-30.0577E-3	-89.5492E-12	720.627E-3	-36.0158E-3
-2.48874E-3	-89.6477E-12	729.096E-3	-19.0254E-3	-90.4365E-12	710.821E-3	-30.3648E-3
-2.49375E-3	-89.8401E-12	744.523E-3	-1.80734E-3	-91.1040E-12	722.415E-3	-16.0493E-3
-2.49875E-3	-89.4995E-12	737.567E-3	23.1977E-3	-91.9269E-12	726.562E-3	-30.8409E-3
-2.50375E-3	-89.9490E-12	720.906E-3	33.0358E-3	-92.3745E-12	730.607E-3	-29.2024E-3
-2.50875E-3	-90.7023E-12	724.190E-3	23.4343E-3	-92.8269E-12	749.462E-3	-10.9370E-3
-2.51376E-3	-91.1272E-12	719.441E-3	9.68127E-3	-93.3678E-12	748.082E-3	-14.6246E-3
-2.51876E-3	-91.3033E-12	703.845E-3	-12.4413E-3	-93.8335E-12	720.371E-3	-17.8083E-3
-2.52376E-3	-91.7274E-12	702.028E-3	-24.0042E-3	-93.6634E-12	699.111E-3	-20.2163E-3
-2.52876E-3	-92.1969E-12	695.615E-3	-18.9619E-3	-93.3378E-12	702.946E-3	-30.5130E-3
-2.53377E-3	-92.6991E-12	691.202E-3	-15.0077E-3	-93.1319E-12	716.200E-3	-22.2380E-3
-2.53877E-3	-93.0719E-12	695.368E-3	-11.5752E-3	-93.1259E-12	709.799E-3	-890.215E-6
-2.54377E-3	-93.1863E-12	696.790E-3	-8.73435E-3	-93.0794E-12	706.618E-3	2.26578E-3
-2.54877E-3	-92.8581E-12	711.688E-3	-11.7049E-3	-93.0414E-12	727.373E-3	-852.591E-6
-2.55378E-3	-93.4063E-12	736.217E-3	-18.4747E-3	-92.9131E-12	741.695E-3	-8.52515E-3
-2.55878E-3	-93.4111E-12	737.531E-3	-26.0495E-3	-92.8512E-12	734.106E-3	-24.1496E-3
-2.56378E-3	-93.5836E-12	719.810E-3	-37.0269E-3	-93.4964E-12	720.523E-3	-23.2579E-3
-2.56878E-3	-93.2157E-12	710.379E-3	-46.5144E-3	-94.0817E-12	720.738E-3	-23.9609E-3
-2.57379E-3	-93.6994E-12	711.359E-3	-36.7626E-3	-94.3409E-12	710.378E-3	-41.8080E-3
-2.57879E-3	-93.7328E-12	709.451E-3	-6.58196E-3	-94.3135E-12	688.606E-3	-38.2915E-3
-2.58379E-3	-93.8914E-12	707.167E-3	322.850E-6	-94.7827E-12	705.314E-3	-19.0044E-3
-2.58879E-3	-94.0723E-12	704.808E-3	-34.0279E-3	-95.6945E-12	735.743E-3	-19.7338E-3
-2.59380E-3	-94.6003E-12	704.829E-3	-55.4747E-3	-96.1416E-12	735.155E-3	-28.0424E-3
-2.59880E-3	-94.7742E-12	712.947E-3	-43.0950E-3	-95.9716E-12	720.193E-3	-38.4907E-3
-2.60380E-3	-95.4203E-12	711.294E-3	-20.7336E-3	-96.1725E-12	706.997E-3	-54.0414E-3
-2.60880E-3	-95.5481E-12	693.787E-3	-17.5561E-3	-96.1153E-12	698.133E-3	-51.8245E-3
-2.61381E-3	-96.4091E-12	686.173E-3	-33.4900E-3	-96.2002E-12	702.090E-3	-22.2098E-3
-2.61881E-3	-96.6342E-12	695.948E-3	-24.3179E-3	-95.7187E-12	707.346E-3	2.26236E-3
-2.62381E-3	-97.3986E-12	702.164E-3	-676.522E-6	-95.8787E-12	695.513E-3	13.8664E-3
-2.62881E-3	-97.2377E-12	705.496E-3	2.86744E-3	-95.5403E-12	690.567E-3	20.8965E-3
-2.63382E-3	-97.3634E-12	716.225E-3	2.08664E-3	-95.9781E-12	709.403E-3	10.4423E-3
-2.63882E-3	-97.7272E-12	710.299E-3	-4.08258E-3	-96.0380E-12	707.107E-3	-1.48775E-3
-2.64382E-3	-98.7351E-12	697.928E-3	-10.9858E-3	-96.3464E-12	687.213E-3	-5.98313E-3
-2.64882E-3	-98.3297E-12	710.742E-3	960.580E-6	-96.4334E-12	692.601E-3	-18.8368E-3
-2.65383E-3	-98.3177E-12	719.678E-3	12.5010E-3	-97.3179E-12	698.404E-3	-33.1511E-3
-2.65883E-3	-98.2940E-12	711.262E-3	2.47903E-3	-97.8166E-12	684.369E-3	-29.2529E-3
-2.66383E-3	-98.7773E-12	698.756E-3	-15.9953E-3	-98.3902E-12	686.340E-3	-30.4660E-3
-2.66883E-3	-98.8768E-12	688.116E-3	-15.2574E-3	-98.9305E-12	707.857E-3	-43.5800E-3
-2.67384E-3	-99.0809E-12	697.200E-3	-2.16780E-3	-99.2519E-12	708.033E-3	-33.8150E-3
-2.67884E-3	-99.3917E-12	709.752E-3	8.14880E-3	-99.7810E-12	694.629E-3	-25.0084E-3
-2.68384E-3	-100.068E-12	706.036E-3	8.80749E-3	-100.498E-12	699.488E-3	-30.4708E-3
-2.68884E-3	-100.429E-12	708.691E-3	-8.50962E-3	-100.442E-12	711.224E-3	-29.1190E-3
-2.69385E-3	-101.119E-12	721.429E-3	-21.3872E-3	-100.314E-12	699.160E-3	-31.5175E-3
-2.69885E-3	-101.707E-12	721.507E-3	-14.3423E-3	-100.071E-12	682.585E-3	-42.6923E-3
-2.70385E-3	-101.531E-12	717.652E-3	-4.48260E-3	-100.640E-12	703.488E-3	-35.9957E-3
-2.70885E-3	-102.016E-12	730.782E-3	-2.01924E-3	-100.174E-12	733.881E-3	-23.4409E-3
-2.71386E-3	-102.554E-12	733.899E-3	-18.3370E-3	-100.305E-12	733.001E-3	-23.9491E-3
-2.71886E-3	-102.310E-12	701.864E-3	-38.2226E-3	-100.197E-12	719.721E-3	-16.0717E-3
-2.72386E-3	-102.538E-12	680.678E-3	-30.8256E-3	-100.569E-12	712.096E-3	-8.58449E-3
-2.72886E-3	-102.202E-12	694.920E-3	-17.3308E-3	-100.895E-12	710.331E-3	-12.7412E-3
-2.73387E-3	-102.273E-12	712.703E-3	-20.2467E-3	-101.148E-12	708.072E-3	-19.6945E-3
-2.73887E-3	-102.241E-12	719.820E-3	-31.6369E-3	-101.458E-12	695.779E-3	-35.0864E-3
-2.74387E-3	-101.905E-12	716.926E-3	-30.0996E-3	-102.392E-12	693.089E-3	-54.1981E-3
-2.74887E-3	-101.988E-12	707.478E-3	-21.3542E-3	-103.115E-12	704.277E-3	-56.0041E-3
-2.75388E-3	-102.143E-12	701.743E-3	-17.4785E-3	-103.751E-12	704.351E-3	-41.3456E-3
-2.75888E-3	-102.851E-12	702.765E-3	-16.3008E-3	-104.063E-12	705.332E-3	-32.2935E-3
-2.76388E-3	-102.545E-12	685.226E-3	-25.3450E-3	-104.544E-12	714.557E-3	-28.6038E-3
-2.76888E-3	-103.448E-12	664.240E-3	-30.1402E-3	-104.720E-12	718.629E-3	-12.9056E-3
-2.77389E-3	-103.903E-12	668.312E-3	-23.2130E-3	-105.149E-12	713.512E-3	-9.65742E-3
-2.77889E-3	-104.320E-12	685.489E-3	-13.9246E-3	-105.398E-12	705.181E-3	-31.1516E-3
-2.78389E-3	-104.474E-12	719.306E-3	-12.0786E-3	-104.883E-12	704.720E-3	-27.8715E-3
-2.78889E-3	-105.181E-12	749.100E-3	-18.8869E-3	-104.517E-12	707.783E-3	-3.98209E-3
-2.79390E-3	-105.693E-12	741.320E-3	-33.2018E-3	-104.826E-12	706.164E-3	-10.9094E-3
-2.79890E-3	-105.706E-12	724.427E-3	-42.3226E-3	-104.475E-12	703.708E-3	-19.2649E-3
-2.80390E-3	-105.842E-12	718.318E-3	-26.9682E-3	-104.384E-12	714.383E-3	-7.32000E-3
-2.80890E-3	-105.821E-12	704.221E-3	-13.5404E-3	-104.356E-12	719.089E-3	797.556E-6
-2.81391E-3	-105.691E-12	699.336E-3	-29.6644E-3	-104.915E-12	711.726E-3	10.7709E-3
-2.81891E-3	-105.075E-12	705.121E-3	-49.5091E-3	-105.282E-12	720.911E-3	16.2833E-3
-2.82391E-3	-105.281E-12	696.720E-3	-47.5663E-3	-105.540E-12	724.571E-3	2.04200E-3
-2.82891E-3	-105.150E-12	698.445E-3	-32.9309E-3	-105.888E-12	707.687E-3	-12.9265E-3
-2.83392E-3	-105.155E-12	709.392E-3	-11.4784E-3	-106.723E-12	697.335E-3	-24.7847E-3
-2.83892E-3	-105.261E-12	686.776E-3	1.55422E-3	-107.141E-12	694.552E-3	-38.7995E-3
-2.84392E-3	-105.476E-12	653.654E-3	-16.4415E-3	-108.092E-12	695.919E-3	-34.9130E-3
-2.84892E-3	-106.064E-12	655.932E-3	-30.1940E-3	-108.498E-12	701.808E-3	-32.7894E-3
-2.85393E-3	-106.711E-12	674.221E-3	-12.3317E-3	-109.019E-12	705.938E-3	-39.6536E-3
-2.85893E-3	-107.526E-12	683.774E-3	-7.56669E-3	-109.085E-12	708.259E-3	-31.0935E-3
-2.86393E-3	-107.735E-12	686.325E-3	-34.0148E-3	-109.268E-12	709.505E-3	-25.7787E-3
-2.86893E-3	-108.264E-12	690.098E-3	-47.5845E-3	-109.052E-12	710.839E-3	-42.8369E-3
-2.87394E-3	-109.130E-12	696.562E-3	-41.2393E-3	-108.825E-12	714.100E-3	-53.2969E-3
-2.87894E-3	-109.454E-12	705.580E-3	-49.0745E-3	-108.635E-12	707.984E-3	-32.8380E-3
-2.88394E-3	-109.559E-12	726.939E-3	-54.5043E-3	-108.590E-12	687.531E-3	-7.19168E-3
-2.88894E-3	-109.741E-12	733.392E-3	-38.8616E-3	-108.535E-12	681.011E-3	-3.22420E-3
-2.89395E-3	-110.475E-12	710.491E-3	-17.5725E-3	-108.389E-12	679.217E-3	-9.63159E-3
-2.89895E-3	-110.233E-12	703.325E-3	2.68503E-3	-108.768E-12	667.734E-3	-8.29002E-3
-2.90395E-3	-110.405E-12	707.623E-3	11.0597E-3	-108.669E-12	681.742E-3	-13.0075E-3
-2.90895E-3	-110.248E-12	711.106E-3	-6.48939E-3	-109.529E-12	704.631E-3	-24.2509E-3
-2.91396E-3	-110.208E-12	721.297E-3	-26.1943E-3	-109.853E-12	711.093E-3	-35.1351E-3
-2.91896E-3	-109.999E-12	707.231E-3	-27.7675E-3	-111.061E-12	717.907E-3	-41.5226E-3
-2.92396E-3	-110.100E-12	686.795E-3	-14.3898E-3	-111.643E-12	723.256E-3	-18.8355E-3
-2.92896E-3	-110.288E-12	689.562E-3	920.898E-6	-112.029E-12	723.202E-3	-4.68539E-3
-2.93397E-3	-110.443E-12	708.953E-3	-6.43723E-3	-112.471E-12	716.968E-3	-27.0620E-3
-2.93897E-3	-110.143E-12	729.029E-3	-20.3666E-3	-113.212E-12	705.055E-3	-34.6695E-3
-2.94397E-3	-111.260E-12	725.243E-3	-12.3232E-3	-113.412E-12	699.114E-3	-21.7697E-3
-2.94897E-3	-111.712E-12	712.469E-3	-1.66718E-3	-113.043E-12	703.837E-3	-18.0001E-3
-2.95398E-3	-112.171E-12	721.404E-3	-14.9726E-3	-113.259E-12	710.239E-3	-19.6157E-3
-2.95898E-3	-112.355E-12	734.032E-3	-34.5693E-3	-113.422E-12	711.129E-3	-16.4282E-3
-2.96398E-3	-112.882E-12	715.904E-3	-30.9329E-3	-112.978E-12	702.249E-3	-8.07941E-3
-2.96898E-3	-113.842E-12	691.197E-3	-14.5128E-3	-112.440E-12	692.401E-3	-2.32860E-3
-2.97399E-3	-114.319E-12	696.631E-3	-7.28734E-3	-112.219E-12	685.036E-3	-1.74077E-3
-2.97899E-3	-113.928E-12	708.135E-3	-16.2542E-3	-112.373E-12	672.169E-3	-4.75847E-3
-2.98399E-3	-113.818E-12	693.014E-3	-21.9187E-3	-112.586E-12	670.516E-3	-10.2338E-3
-2.98899E-3	-114.325E-12	678.687E-3	-12.4929E-3	-112.639E-12	685.774E-3	-17.3765E-3
-2.99400E-3	-114.562E-12	683.564E-3	-2.19140E-3	-112.479E-12	696.805E-3	-33.1307E-3
-2.99900E-3	-113.996E-12	680.381E-3	1.72108E-3	-113.304E-12	697.423E-3	-42.8077E-3
-3.00400E-3	-113.973E-12	677.404E-3	-3.50092E-3	-113.790E-12	696.902E-3	-26.8984E-3
-3.00900E-3	-113.881E-12	683.451E-3	-6.13506E-3	-114.340E-12	694.243E-3	-7.62279E-3
-3.01401E-3	-114.044E-12	685.666E-3	-10.4759E-3	-115.022E-12	684.042E-3	123.962E-6
-3.01901E-3	-114.483E-12	696.348E-3	-19.0603E-3	-115.656E-12	682.236E-3	-9.15616E-3
-3.02401E-3	-114.749E-12	711.065E-3	-14.9344E-3	-116.574E-12	690.585E-3	-37.3548E-3
-3.02901E-3	-114.675E-12	714.326E-3	-5.19315E-3	-116.844E-12	690.115E-3	-51.5410E-3
-3.03402E-3	-115.459E-12	717.263E-3	-1.79626E-3	-116.858E-12	676.698E-3	-37.7750E-3
-3.03902E-3	-116.667E-12	715.346E-3	-2.73957E-3	-116.638E-12	671.419E-3	-25.2433E-3
-3.04402E-3	-116.988E-12	697.754E-3	-16.2813E-3	-116.578E-12	678.048E-3	-25.2724E-3
-3.04902E-3	-117.423E-12	693.323E-3	-32.1863E-3	-116.285E-12	681.139E-3	-32.0948E-3
-3.05403E-3	-117.385E-12	709.700E-3	-23.8449E-3	-115.819E-12	690.163E-3	-42.4863E-3
-3.05903E-3	-118.157E-12	713.257E-3	-4.27384E-3	-115.765E-12	704.733E-3	-45.9888E-3
-3.06403E-3	-117.897E-12	700.651E-3	-11.7224E-3	-116.006E-12	712.510E-3	-25.2277E-3
-3.06903E-3	-118.305E-12	688.305E-3	-30.0234E-3	-115.876E-12	707.100E-3	-8.22573E-3
-3.07404E-3	-117.791E-12	675.855E-3	-29.1188E-3	-115.998E-12	692.593E-3	-24.8501E-3
-3.07904E-3	-117.882E-12	672.034E-3	-25.8487E-3	-116.584E-12	696.799E-3	-52.6621E-3
-3.08404E-3	-118.150E-12	681.354E-3	-17.1089E-3	-117.520E-12	721.150E-3	-64.7888E-3
-3.08904E-3	-118.369E-12	684.197E-3	10.3678E-3	-118.001E-12	721.980E-3	-52.4384E-3
-3.09405E-3	-118.136E-12	681.966E-3	11.4973E-3	-118.859E-12	709.337E-3	-26.4660E-3
-3.09905E-3	-118.210E-12	688.776E-3	-14.7431E-3	-119.468E-12	711.646E-3	-5.15298E-3
-3.10405E-3	-118.580E-12	684.581E-3	-15.2073E-3	-120.484E-12	703.763E-3	-9.53842E-3
-3.10905E-3	-119.943E-12	668.533E-3	-7.78004E-3	-120.622E-12	686.110E-3	-28.9651E-3
-3.11406E-3	-119.844E-12	676.983E-3	-8.20758E-3	-121.585E-12	682.267E-3	-28.9391E-3
-3.11906E-3	-120.584E-12	697.746E-3	-13.5474E-3	-121.692E-12	685.611E-3	-14.9466E-3
-3.12406E-3	-121.206E-12	696.295E-3	-32.5834E-3	-122.191E-12	694.111E-3	-10.9503E-3
-3.12906E-3	-121.880E-12	678.440E-3	-40.6534E-3	-121.649E-12	712.349E-3	-9.14520E-3
-3.13407E-3	-122.036E-12	666.003E-3	-41.7496E-3	-121.302E-12	713.760E-3	-1.71925E-3
-3.13907E-3	-122.251E-12	678.212E-3	-42.8251E-3	-120.997E-12	697.254E-3	-19.4094E-3
-3.14407E-3	-122.289E-12	711.198E-3	-33.7432E-3	-120.933E-12	687.242E-3	-56.8357E-3
-3.14907E-3	-122.532E-12	709.519E-3	-14.8080E-3	-120.545E-12	682.252E-3	-71.6446E-3
-3.15408E-3	-122.657E-12	666.771E-3	1.79888E-3	-120.277E-12	674.627E-3	-58.2873E-3
-3.15908E-3	-122.243E-12	660.123E-3	6.95063E-3	-120.282E-12	673.024E-3	-31.2493E-3
-3.16408E-3	-122.166E-12	684.171E-3	15.2800E-3	-120.462E-12	681.809E-3	-18.5572E-3
-3.16908E-3	-121.508E-12	682.564E-3	4.33547E-3	-120.725E-12	682.979E-3	-24.8603E-3
-3.17409E-3	-121.413E-12	681.665E-3	-15.5283E-3	-121.206E-12	675.737E-3	-31.1648E-3
-3.17909E-3	-121.567E-12	702.188E-3	-2.07279E-3	-121.714E-12	684.577E-3	-21.1676E-3
-3.18409E-3	-121.679E-12	703.740E-3	19.0948E-3	-121.915E-12	692.437E-3	-979.187E-6
-3.18909E-3	-120.815E-12	689.078E-3	1.32376E-3	-122.695E-12	682.842E-3	6.45751E-3
-3.19410E-3	-121.204E-12	691.435E-3	-31.3540E-3	-123.190E-12	690.481E-3	600.028E-6
-3.19910E-3	-121.935E-12	692.950E-3	-38.9794E-3	-123.469E-12	706.191E-3	-14.1053E-3
-3.20410E-3	-122.982E-12	685.444E-3	-41.2622E-3	-123.966E-12	691.449E-3	-12.7228E-3
-3.20910E-3	-122.639E-12	689.278E-3	-46.6203E-3	-124.344E-12	672.189E-3	6.94467E-3
-3.21411E-3	-122.648E-12	687.070E-3	-40.6950E-3	-124.065E-12	672.658E-3	12.0072E-3
-3.21911E-3	-124.355E-12	682.834E-3	-31.8162E-3	-123.796E-12	675.207E-3	13.5527E-3
-3.22411E-3	-125.048E-12	688.309E-3	-38.9699E-3	-123.698E-12	682.533E-3	8.40853E-3
-3.22911E-3	-124.702E-12	684.758E-3	-40.1932E-3	-123.706E-12	677.043E-3	-25.7966E-3
-3.23412E-3	-124.777E-12	676.703E-3	-24.1059E-3	-123.901E-12	647.854E-3	-54.3991E-3
-3.23912E-3	-125.124E-12	676.449E-3	-5.38147E-3	-123.551E-12	645.054E-3	-42.2616E-3
-3.24412E-3	-125.951E-12	676.881E-3	6.13563E-3	-123.891E-12	672.049E-3	-14.8703E-3
-3.24912E-3	-125.786E-12	676.844E-3	2.70901E-3	-123.972E-12	681.379E-3	-3.37476E-3
-3.25413E-3	-125.531E-12	680.124E-3	-4.17373E-3	-124.890E-12	669.871E-3	-11.5365E-3
-3.25913E-3	-125.067E-12	668.607E-3	-7.07494E-3	-125.455E-12	664.224E-3	-19.1460E-3
-3.26413E-3	-126.064E-12	657.024E-3	-9.87117E-3	-125.679E-12	682.249E-3	-1.77839E-3
-3.26913E-3	-126.102E-12	673.856E-3	-19.7532E-3	-126.327E-12	707.565E-3	24.9984E-3
-3.27414E-3	-126.338E-12	691.611E-3	-29.7521E-3	-127.134E-12	702.077E-3	19.4140E-3
-3.27914E-3	-125.734E-12	684.815E-3	-30.7534E-3	-127.912E-12	675.321E-3	-4.79839E-3
-3.28414E-3	-126.548E-12	669.140E-3	-30.6113E-3	-127.658E-12	654.678E-3	-5.42707E-3
-3.28914E-3	-127.263E-12	659.717E-3	-17.9159E-3	-127.903E-12	642.958E-3	-3.62629E-3
-3.29415E-3	-127.904E-12	660.622E-3	-4.67977E-3	-127.949E-12	649.553E-3	-13.8744E-3
-3.29915E-3	-127.958E-12	674.941E-3	-6.09862E-3	-128.362E-12	666.439E-3	-20.3507E-3
-3.30415E-3	-128.285E-12	679.166E-3	-2.20191E-3	-128.943E-12	676.251E-3	-25.8876E-3
-3.30915E-3	-129.574E-12	662.408E-3	-15.5150E-3	-127.873E-12	682.751E-3	-26.2024E-3
-3.31416E-3	-129.928E-12	665.060E-3	-35.2840E-3	-127.921E-12	690.989E-3	-24.5623E-3
-3.31916E-3	-130.304E-12	683.116E-3	-27.0662E-3	-128.026E-12	689.447E-3	-26.6187E-3
-3.32416E-3	-129.983E-12	688.794E-3	-23.2042E-3	-127.910E-12	674.761E-3	-22.5224E-3
-3.32916E-3	-130.568E-12	686.451E-3	-26.1798E-3	-128.181E-12	675.155E-3	-10.0195E-3
-3.33417E-3	-131.078E-12	681.339E-3	-25.2456E-3	-128.385E-12	687.010E-3	-12.2763E-3
-3.33917E-3	-130.972E-12	668.453E-3	-37.4752E-3	-129.323E-12	680.531E-3	-27.0871E-3
-3.34417E-3	-130.855E-12	659.286E-3	-55.6174E-3	-129.792E-12	660.441E-3	-30.9273E-3
-3.34917E-3	-130.592E-12	676.013E-3	-52.3357E-3	-130.257E-12	652.619E-3	-35.6636E-3
-3.35418E-3	-131.242E-12	687.810E-3	-29.4157E-3	-131.223E-12	669.845E-3	-37.1019E-3
-3.35918E-3	-131.597E-12	674.913E-3	-21.7623E-3	-131.483E-12	699.868E-3	-19.0785E-3
-3.36418E-3	-130.997E-12	669.801E-3	-29.5829E-3	-131.957E-12	716.035E-3	-9.85361E-3
-3.36918E-3	-131.182E-12	679.000E-3	-29.7947E-3	-132.593E-12	704.394E-3	-19.9960E-3
-3.37419E-3	-131.845E-12	683.423E-3	-21.6822E-3	-133.209E-12	690.355E-3	-19.1476E-3
-3.37919E-3	-132.435E-12	680.961E-3	-9.74579E-3	-133.304E-12	690.282E-3	-6.66763E-3
-3.38419E-3	-132.083E-12	675.783E-3	2.89720E-3	-133.050E-12	691.986E-3	-5.72174E-3
-3.38919E-3	-132.422E-12	668.322E-3	-1.84788E-3	-132.914E-12	694.450E-3	-13.9546E-3
-3.39420E-3	-133.042E-12	672.482E-3	-18.9703E-3	-132.471E-12	700.731E-3	-8.53748E-3
-3.39920E-3	-133.304E-12	676.223E-3	-21.3953E-3	-131.617E-12	691.900E-3	-2.73580E-3
-3.40420E-3	-133.537E-12	671.976E-3	-28.3665E-3	-130.838E-12	667.297E-3	-8.15722E-3
-3.40920E-3	-133.300E-12	673.615E-3	-38.1253E-3	-131.206E-12	663.895E-3	-8.73244E-3
-3.41421E-3	-132.863E-12	668.333E-3	-27.8016E-3	-131.615E-12	682.952E-3	-11.5284E-3
-3.41921E-3	-133.066E-12	660.206E-3	-19.1399E-3	-131.583E-12	688.233E-3	-14.8563E-3
-3.42421E-3	-133.001E-12	684.934E-3	-9.42020E-3	-131.016E-12	687.784E-3	-15.5325E-3
-3.42921E-3	-132.998E-12	710.668E-3	19.4452E-3	-132.185E-12	688.134E-3	-27.2349E-3
-3.43422E-3	-132.575E-12	684.631E-3	40.6729E-3	-133.032E-12	653.680E-3	-28.5318E-3
-3.43922E-3	-132.497E-12	663.483E-3	21.5808E-3	-133.031E-12	626.552E-3	-9.87435E-3
-3.44422E-3	-133.006E-12	683.244E-3	5.61997E-3	-133.220E-12	655.297E-3	-2.55961E-3
-3.44922E-3	-133.458E-12	690.135E-3	15.3203E-3	-134.852E-12	687.520E-3	-25.5853E-3
-3.45423E-3	-133.353E-12	670.617E-3	7.46999E-3	-135.890E-12	698.244E-3	-36.0934E-3
-3.45923E-3	-134.308E-12	664.134E-3	11.1454E-3	-136.226E-12	697.166E-3	-12.3580E-3
-3.46423E-3	-134.315E-12	665.747E-3	26.0721E-3	-136.352E-12	683.124E-3	2.56791E-3
-3.46923E-3	-135.870E-12	666.495E-3	9.92732E-3	-136.735E-12	667.241E-3	-2.25751E-3
-3.47424E-3	-136.394E-12	677.536E-3	-7.45462E-3	-136.638E-12	668.237E-3	-23.1999E-3
-3.47924E-3	-137.332E-12	681.354E-3	-10.9519E-3	-136.065E-12	670.574E-3	-46.3112E-3
-3.48424E-3	-137.630E-12	682.205E-3	-9.06046E-3	-136.051E-12	667.845E-3	-33.6706E-3
-3.48924E-3	-138.406E-12	693.651E-3	2.49445E-3	-136.673E-12	673.949E-3	-3.31390E-3
-3.49425E-3	-138.052E-12	695.543E-3	9.23016E-3	-135.963E-12	671.426E-3	6.34836E-3
-3.49925E-3	-138.216E-12	671.064E-3	-5.32540E-3	-136.260E-12	668.574E-3	2.33725E-3
-3.50425E-3	-138.471E-12	651.806E-3	-25.0636E-3	-136.260E-12	670.377E-3	-854.553E-6
-3.50925E-3	-138.767E-12	659.891E-3	-19.9304E-3	-137.319E-12	675.699E-3	-9.69735E-3
-3.51426E-3	-138.396E-12	674.272E-3	-10.8849E-3	-137.540E-12	674.741E-3	-35.5243E-3
-3.51926E-3	-137.788E-12	686.405E-3	-24.1130E-3	-137.954E-12	670.961E-3	-55.9871E-3
-3.52426E-3	-138.487E-12	682.279E-3	-26.1470E-3	-138.487E-12	676.008E-3	-48.7182E-3
-3.52926E-3	-138.185E-12	657.723E-3	-7.44756E-3	-139.221E-12	682.494E-3	-25.1608E-3
-3.53427E-3	-138.505E-12	652.264E-3	7.02230E-3	-139.921E-12	700.240E-3	-23.0526E-3
-3.53927E-3	-138.006E-12	679.886E-3	6.23394E-3	-140.018E-12	693.261E-3	-43.9723E-3
-3.54427E-3	-138.118E-12	704.723E-3	-2.86925E-3	-139.908E-12	672.639E-3	-39.5733E-3
-3.54927E-3	-139.480E-12	708.498E-3	-12.4013E-3	-140.554E-12	680.728E-3	-15.2784E-3
-3.55428E-3	-140.132E-12	688.439E-3	-14.7211E-3	-140.598E-12	687.316E-3	-2.08914E-3
-3.55928E-3	-140.575E-12	666.381E-3	-16.6991E-3	-140.712E-12	678.791E-3	2.22848E-3
-3.56428E-3	-140.212E-12	674.444E-3	-26.4297E-3	-140.475E-12	682.395E-3	-8.20250E-3
-3.56928E-3	-141.902E-12	679.067E-3	-28.5192E-3	-141.033E-12	692.868E-3	-28.9619E-3
-3.57429E-3	-142.063E-12	660.676E-3	-10.8254E-3	-140.113E-12	692.333E-3	-21.3860E-3
-3.57929E-3	-143.039E-12	650.646E-3	8.95170E-3	-139.829E-12	695.810E-3	-4.12020E-3
-3.58429E-3	-141.937E-12	662.732E-3	17.0543E-3	-139.620E-12	691.255E-3	-18.5695E-3
-3.58929E-3	-141.834E-12	674.477E-3	16.1054E-3	-140.195E-12	674.974E-3	-35.3153E-3
-3.59430E-3	-142.191E-12	666.247E-3	6.25455E-3	-140.420E-12	671.377E-3	-22.9726E-3
-3.59930E-3	-142.147E-12	667.333E-3	-1.76306E-3	-140.435E-12	664.061E-3	5.51679E-3
-3.60430E-3	-141.567E-12	669.730E-3	-9.51865E-3	-141.171E-12	647.981E-3	19.4092E-3
-3.60930E-3	-140.793E-12	669.620E-3	-17.6472E-3	-141.870E-12	648.477E-3	19.2606E-3
-3.61431E-3	-140.647E-12	685.135E-3	-21.8296E-3	-142.774E-12	672.860E-3	15.6910E-3
-3.61931E-3	-140.953E-12	674.616E-3	-13.8140E-3	-142.569E-12	696.416E-3	2.11029E-3
-3.62431E-3	-141.377E-12	650.691E-3	-7.62716E-3	-142.503E-12	695.189E-3	-8.53939E-3
-3.62931E-3	-140.590E-12	647.745E-3	-9.71411E-3	-143.068E-12	680.192E-3	-16.8453E-3
-3.63432E-3	-140.716E-12	651.101E-3	-14.9673E-3	-143.077E-12	655.326E-3	-26.1222E-3
-3.63932E-3	-141.705E-12	652.833E-3	-34.7365E-3	-142.971E-12	646.155E-3	-24.1376E-3
-3.64432E-3	-142.564E-12	658.915E-3	-39.4022E-3	-143.203E-12	670.231E-3	-18.7697E-3
-3.64932E-3	-142.317E-12	670.752E-3	-25.4526E-3	-143.266E-12	674.471E-3	-12.2718E-3
-3.65433E-3	-142.932E-12	669.916E-3	-17.5682E-3	-142.831E-12	653.865E-3	-12.4067E-3
-3.65933E-3	-144.459E-12	671.453E-3	-31.0920E-3	-143.449E-12	671.068E-3	-21.4352E-3
-3.66433E-3	-145.526E-12	688.201E-3	-59.8997E-3	-143.690E-12	700.251E-3	-25.5790E-3
-3.66933E-3	-145.417E-12	691.577E-3	-51.2255E-3	-142.883E-12	683.980E-3	-33.1879E-3
-3.67434E-3	-145.329E-12	678.925E-3	-9.00490E-3	-142.964E-12	671.745E-3	-34.5953E-3
-3.67934E-3	-145.543E-12	664.795E-3	16.7390E-3	-143.951E-12	687.814E-3	-28.8128E-3
-3.68434E-3	-145.505E-12	664.794E-3	13.3237E-3	-144.838E-12	696.366E-3	-27.4134E-3
-3.68934E-3	-145.771E-12	682.404E-3	-6.29228E-3	-144.850E-12	711.502E-3	-11.2645E-3
-3.69435E-3	-145.388E-12	689.582E-3	-19.0840E-3	-145.729E-12	717.954E-3	6.09913E-3
-3.69935E-3	-144.836E-12	683.021E-3	-29.9370E-3	-146.768E-12	694.936E-3	8.28672E-3
-3.70435E-3	-145.064E-12	680.235E-3	-30.2092E-3	-147.671E-12	669.828E-3	572.588E-6
-3.70935E-3	-146.704E-12	675.175E-3	-16.2362E-3	-147.523E-12	662.602E-3	-9.02679E-3
-3.71436E-3	-146.560E-12	667.027E-3	-13.1978E-3	-148.170E-12	661.874E-3	-4.01088E-3
-3.71936E-3	-146.772E-12	672.541E-3	-11.2737E-3	-148.930E-12	655.448E-3	4.18117E-3
-3.72436E-3	-147.390E-12	674.491E-3	-4.33619E-3	-149.129E-12	648.438E-3	-8.48399E-3
-3.72936E-3	-148.908E-12	671.998E-3	-15.4663E-3	-148.833E-12	640.615E-3	-32.8250E-3
-3.73437E-3	-149.111E-12	696.958E-3	-47.2468E-3	-148.734E-12	643.142E-3	-37.8833E-3
-3.73937E-3	-148.937E-12	717.003E-3	-58.6612E-3	-148.540E-12	663.701E-3	-37.6055E-3
-3.74437E-3	-150.316E-12	704.479E-3	-45.9388E-3	-148.683E-12	693.283E-3	-48.2656E-3
-3.74937E-3	-150.875E-12	687.420E-3	-32.6504E-3	-148.227E-12	721.525E-3	-43.6812E-3
-3.75438E-3	-150.929E-12	671.148E-3	-24.1907E-3	-148.188E-12	724.851E-3	-31.0473E-3
-3.75938E-3	-150.137E-12	662.359E-3	-36.3693E-3	-147.804E-12	684.781E-3	-30.3333E-3
-3.76438E-3	-150.274E-12	676.302E-3	-45.0904E-3	-148.133E-12	650.683E-3	-30.3452E-3
-3.76938E-3	-150.400E-12	679.397E-3	-27.5129E-3	-148.200E-12	660.162E-3	-14.4267E-3
-3.77439E-3	-149.781E-12	664.989E-3	-13.6092E-3	-148.225E-12	664.172E-3	448.041E-6
-3.77939E-3	-148.482E-12	656.401E-3	-22.3214E-3	-148.583E-12	647.460E-3	-2.60433E-3
-3.78439E-3	-148.380E-12	652.033E-3	-22.0710E-3	-149.614E-12	641.170E-3	-6.90017E-3
-3.78939E-3	-149.140E-12	652.638E-3	2.40421E-3	-150.289E-12	648.976E-3	-10.9396E-3
-3.79440E-3	-149.096E-12	657.596E-3	4.01491E-3	-150.732E-12	658.665E-3	-18.2601E-3
-3.79940E-3	-149.331E-12	656.514E-3	-12.2415E-3	-151.104E-12	676.179E-3	-22.2193E-3
-3.80440E-3	-149.437E-12	646.195E-3	-6.67298E-3	-151.481E-12	693.122E-3	-38.4201E-3
-3.80940E-3	-150.236E-12	645.025E-3	-4.04069E-3	-151.581E-12	691.196E-3	-65.0557E-3
-3.81441E-3	-150.245E-12	653.458E-3	-16.4478E-3	-151.655E-12	682.668E-3	-65.5819E-3
-3.81941E-3	-150.866E-12	644.725E-3	-23.2619E-3	-151.092E-12	662.413E-3	-42.4038E-3
-3.82441E-3	-151.320E-12	634.066E-3	-33.1526E-3	-151.624E-12	634.523E-3	-18.8244E-3
-3.82941E-3	-151.488E-12	649.896E-3	-51.2048E-3	-150.883E-12	627.912E-3	-13.5588E-3
-3.83442E-3	-152.521E-12	678.326E-3	-55.0463E-3	-150.761E-12	636.558E-3	-33.1855E-3
-3.83942E-3	-152.050E-12	693.268E-3	-35.8601E-3	-151.129E-12	650.044E-3	-40.3606E-3
-3.84442E-3	-152.560E-12	689.843E-3	-23.9088E-3	-151.667E-12	675.070E-3	-11.8535E-3
-3.84942E-3	-152.066E-12	692.474E-3	-14.9431E-3	-151.562E-12	693.934E-3	10.6983E-3
-3.85443E-3	-152.460E-12	695.620E-3	6.66148E-3	-151.404E-12	679.385E-3	-4.85633E-3
-3.85943E-3	-152.073E-12	666.038E-3	15.0332E-3	-152.071E-12	656.753E-3	-25.5255E-3
-3.86443E-3	-151.828E-12	645.264E-3	-661.377E-6	-152.784E-12	667.525E-3	-31.7147E-3
-3.86943E-3	-151.592E-12	654.837E-3	-18.3897E-3	-153.718E-12	689.335E-3	-32.5914E-3
-3.87444E-3	-151.441E-12	658.722E-3	-42.7581E-3	-153.960E-12	681.863E-3	-27.5196E-3
-3.87944E-3	-151.759E-12	657.958E-3	-62.1936E-3	-154.782E-12	673.997E-3	-9.48812E-3
-3.88444E-3	-152.318E-12	656.421E-3	-46.5914E-3	-155.689E-12	677.178E-3	-1.14973E-3
-3.88944E-3	-152.499E-12	663.153E-3	-32.8204E-3	-155.657E-12	672.420E-3	-11.9075E-3
-3.89445E-3	-152.277E-12	674.018E-3	-38.6687E-3	-156.278E-12	671.373E-3	-8.56038E-3
-3.89945E-3	-153.787E-12	660.567E-3	-30.6033E-3	-156.600E-12	680.537E-3	-11.6992E-3
-3.90445E-3	-155.162E-12	652.821E-3	-15.0101E-3	-156.663E-12	686.917E-3	-30.8317E-3
-3.90945E-3	-155.896E-12	661.767E-3	-13.9223E-3	-156.979E-12	671.437E-3	-43.6257E-3
-3.91446E-3	-156.838E-12	649.272E-3	-17.0399E-3	-157.219E-12	645.847E-3	-48.8094E-3
-3.91946E-3	-157.671E-12	638.189E-3	-23.4627E-3	-156.678E-12	649.391E-3	-44.5482E-3
-3.92446E-3	-158.943E-12	661.225E-3	-25.5220E-3	-157.290E-12	679.251E-3	-38.1059E-3
-3.92946E-3	-159.002E-12	680.314E-3	-5.10285E-3	-157.769E-12	693.550E-3	-21.0959E-3
-3.93447E-3	-159.149E-12	676.144E-3	8.46283E-3	-157.953E-12	675.001E-3	4.92853E-3
-3.93947E-3	-158.823E-12	687.907E-3	4.32806E-3	-157.725E-12	670.453E-3	13.3926E-3
-3.94447E-3	-159.157E-12	692.141E-3	11.5272E-3	-157.880E-12	686.834E-3	458.811E-6
-3.94947E-3	-159.231E-12	674.418E-3	170.986E-6	-158.069E-12	682.489E-3	-10.3145E-3
-3.95448E-3	-159.313E-12	662.972E-3	-18.3812E-3	-158.822E-12	684.998E-3	-9.63090E-3
-3.95948E-3	-158.491E-12	649.898E-3	5.09691E-3	-158.797E-12	707.735E-3	-16.6130E-3
-3.96448E-3	-159.474E-12	658.758E-3	20.5507E-3	-159.483E-12	717.490E-3	-23.1421E-3
-3.96948E-3	-159.810E-12	683.200E-3	14.2798E-3	-159.440E-12	694.789E-3	-10.4313E-3
-3.97449E-3	-160.008E-12	684.151E-3	18.4027E-3	-159.619E-12	649.515E-3	13.4079E-3
-3.97949E-3	-159.990E-12	670.835E-3	7.24957E-3	-159.404E-12	621.655E-3	24.9162E-3
-3.98449E-3	-160.902E-12	656.876E-3	-21.8237E-3	-159.846E-12	632.015E-3	9.08535E-3
-3.98949E-3	-161.054E-12	650.879E-3	-35.5432E-3	-159.412E-12	648.479E-3	-10.2103E-3
-3.99450E-3	-161.403E-12	645.318E-3	-33.0859E-3	-159.482E-12	651.935E-3	-4.80602E-3
-3.99950E-3	-161.518E-12	654.614E-3	-28.9751E-3	-158.908E-12	653.571E-3	8.34823E-3
-4.00450E-3	-161.640E-12	675.424E-3	-17.9588E-3	-159.175E-12	662.234E-3	-4.25140E-3
-4.00950E-3	-161.873E-12	689.349E-3	-9.99550E-3	-159.085E-12	673.108E-3	-24.4805E-3
-4.01451E-3	-162.266E-12	709.902E-3	-10.8456E-3	-159.200E-12	676.506E-3	-21.4003E-3
-4.01951E-3	-162.265E-12	719.183E-3	-5.49329E-3	-158.874E-12	689.024E-3	-13.3104E-3
-4.02451E-3	-161.768E-12	709.099E-3	3.41150E-3	-158.845E-12	707.378E-3	-4.13838E-3
-4.02951E-3	-161.227E-12	701.108E-3	-10.5765E-3	-159.631E-12	700.234E-3	12.2680E-3
-4.03452E-3	-161.027E-12	701.990E-3	-20.0400E-3	-159.001E-12	680.933E-3	10.6770E-3
-4.03952E-3	-161.138E-12	702.820E-3	-3.65670E-3	-159.383E-12	666.048E-3	-14.6784E-3
-4.04452E-3	-160.135E-12	700.807E-3	-9.86804E-3	-160.153E-12	658.378E-3	-31.3165E-3
-4.04952E-3	-160.005E-12	700.564E-3	-26.6510E-3	-160.920E-12	661.664E-3	-24.4454E-3
-4.05453E-3	-161.251E-12	682.390E-3	-22.3620E-3	-160.553E-12	665.623E-3	-20.6338E-3
-4.05953E-3	-161.478E-12	650.617E-3	-18.5054E-3	-161.345E-12	662.412E-3	-23.4828E-3
-4.06453E-3	-161.331E-12	639.589E-3	-14.6916E-3	-162.256E-12	677.417E-3	-23.6776E-3
-4.06953E-3	-162.437E-12	646.559E-3	-1.25174E-3	-163.004E-12	704.701E-3	-21.5415E-3
-4.07454E-3	-163.267E-12	649.643E-3	-17.1408E-3	-162.694E-12	696.236E-3	-8.17825E-3
-4.07954E-3	-163.931E-12	639.888E-3	-38.4600E-3	-163.525E-12	680.677E-3	2.88871E-3
-4.08454E-3	-164.567E-12	620.309E-3	-18.0811E-3	-163.686E-12	666.090E-3	-62.1425E-6
-4.08954E-3	-164.915E-12	626.135E-3	-3.58792E-3	-163.751E-12	656.238E-3	-17.9406E-3
-4.09455E-3	-165.251E-12	664.197E-3	-9.38177E-3	-164.072E-12	669.327E-3	-29.6859E-3
-4.09955E-3	-165.648E-12	693.207E-3	-10.0825E-3	-163.810E-12	663.087E-3	-32.2669E-3
-4.10455E-3	-164.853E-12	695.141E-3	-20.0167E-3	-164.165E-12	635.100E-3	-32.0945E-3
-4.10955E-3	-165.485E-12	693.397E-3	-40.2144E-3	-164.522E-12	628.417E-3	-20.7349E-3
-4.11456E-3	-164.602E-12	711.870E-3	-45.5918E-3	-164.651E-12	655.719E-3	-28.0389E-3
-4.11956E-3	-165.161E-12	716.464E-3	-53.6241E-3	-165.170E-12	666.443E-3	-38.2533E-3
-4.12456E-3	-164.764E-12	693.099E-3	-51.8827E-3	-165.477E-12	637.850E-3	-10.9621E-3
-4.12956E-3	-164.861E-12	672.019E-3	-20.9456E-3	-165.838E-12	647.048E-3	12.4541E-3
-4.13457E-3	-164.264E-12	651.957E-3	-911.133E-6	-166.520E-12	689.925E-3	-11.1341E-3
-4.13957E-3	-164.699E-12	628.812E-3	-997.890E-6	-166.925E-12	693.626E-3	-30.3224E-3
-4.14457E-3	-165.367E-12	622.053E-3	-9.85957E-3	-167.772E-12	685.734E-3	-14.1484E-3
-4.14957E-3	-166.396E-12	646.678E-3	-24.6246E-3	-168.043E-12	680.380E-3	3.60946E-3
-4.15458E-3	-166.780E-12	679.700E-3	-29.3732E-3	-168.106E-12	667.419E-3	-2.97408E-3
-4.15958E-3	-167.521E-12	679.296E-3	-10.8245E-3	-169.252E-12	678.191E-3	-24.9552E-3
-4.16458E-3	-169.047E-12	666.619E-3	10.3426E-3	-168.795E-12	692.189E-3	-31.1638E-3
-4.16958E-3	-170.081E-12	676.140E-3	16.7450E-3	-168.960E-12	674.086E-3	-17.0360E-3
-4.17459E-3	-170.875E-12	685.693E-3	17.0091E-3	-168.497E-12	663.220E-3	-9.62197E-3
-4.17959E-3	-172.098E-12	685.458E-3	-5.92977E-3	-169.172E-12	673.012E-3	-19.5976E-3
-4.18459E-3	-171.535E-12	704.935E-3	-53.7695E-3	-168.998E-12	676.108E-3	-22.8462E-3
-4.18959E-3	-172.074E-12	739.802E-3	-72.0693E-3	-169.506E-12	670.076E-3	-23.8928E-3
-4.19460E-3	-171.599E-12	738.039E-3	-54.0432E-3	-168.186E-12	674.257E-3	-40.3733E-3
-4.19960E-3	-171.449E-12	705.453E-3	-49.5118E-3	-168.212E-12	678.921E-3	-49.5489E-3
-4.20460E-3	-169.684E-12	700.441E-3	-55.9722E-3	-168.003E-12	676.516E-3	-29.1289E-3
-4.20960E-3	-169.520E-12	698.258E-3	-36.1037E-3	-168.680E-12	672.913E-3	-9.58461E-3
-4.21461E-3	-168.395E-12	686.765E-3	-26.6536E-3	-168.236E-12	654.776E-3	-12.2089E-3
-4.21961E-3	-167.817E-12	682.462E-3	-35.0666E-3	-167.899E-12	652.218E-3	-16.7124E-3
-4.22461E-3	-166.752E-12	658.994E-3	-31.0356E-3	-169.473E-12	671.052E-3	-19.0537E-3
-4.22961E-3	-166.741E-12	637.711E-3	-29.7023E-3	-170.876E-12	672.368E-3	-27.4279E-3
-4.23462E-3	-167.164E-12	644.353E-3	-19.3383E-3	-171.212E-12	676.281E-3	-32.0496E-3
-4.23962E-3	-167.092E-12	658.762E-3	-8.24458E-3	-170.515E-12	689.233E-3	-32.7127E-3
-4.24462E-3	-168.204E-12	662.752E-3	-22.9100E-3	-170.665E-12	680.229E-3	-39.0927E-3
-4.24962E-3	-168.542E-12	658.367E-3	-44.0755E-3	-171.776E-12	665.526E-3	-48.8816E-3
-4.25463E-3	-170.173E-12	667.107E-3	-42.0685E-3	-172.112E-12	662.897E-3	-52.3307E-3
-4.25963E-3	-170.549E-12	689.955E-3	-25.0311E-3	-171.467E-12	661.823E-3	-47.4928E-3
-4.26463E-3	-171.088E-12	699.648E-3	-9.74493E-3	-169.694E-12	656.749E-3	-35.1967E-3
-4.26963E-3	-171.330E-12	684.948E-3	-3.54594E-3	-170.195E-12	640.364E-3	-29.4044E-3
-4.27464E-3	-172.515E-12	661.178E-3	-10.4541E-3	-170.498E-12	631.672E-3	-29.9140E-3
-4.27964E-3	-172.299E-12	658.138E-3	-15.0249E-3	-171.795E-12	645.056E-3	-11.6874E-3
-4.28464E-3	-172.506E-12	652.728E-3	2.44607E-3	-169.721E-12	659.505E-3	-1.44933E-3
-4.28964E-3	-172.481E-12	638.632E-3	33.2269E-3	-169.911E-12	668.262E-3	-17.1466E-3
-4.29465E-3	-172.303E-12	643.946E-3	35.6768E-3	-171.257E-12	671.581E-3	-7.16130E-3
-4.29965E-3	-172.177E-12	655.670E-3	22.9995E-3	-173.150E-12	670.168E-3	9.30236E-3
-4.30465E-3	-172.630E-12	653.610E-3	20.9869E-3	-172.289E-12	657.583E-3	-12.9603E-3
-4.30965E-3	-172.521E-12	643.063E-3	12.7756E-3	-172.228E-12	644.816E-3	-28.9008E-3
-4.31466E-3	-172.650E-12	652.642E-3	-3.58123E-3	-173.493E-12	664.036E-3	-16.4072E-3
-4.31966E-3	-172.877E-12	668.584E-3	-17.6148E-3	-175.323E-12	682.563E-3	-12.0264E-3
-4.32466E-3	-173.838E-12	675.177E-3	-29.2765E-3	-176.435E-12	668.673E-3	-26.8764E-3
-4.32966E-3	-173.872E-12	676.163E-3	-29.5933E-3	-176.053E-12	662.555E-3	-35.1990E-3
-4.33467E-3	-174.815E-12	669.516E-3	-12.7475E-3	-176.649E-12	675.380E-3	-30.9437E-3
-4.33967E-3	-175.417E-12	668.862E-3	-17.3704E-3	-177.184E-12	667.848E-3	-29.8192E-3
-4.34467E-3	-176.851E-12	677.626E-3	-48.6371E-3	-178.306E-12	657.378E-3	-18.5715E-3
-4.34967E-3	-177.158E-12	697.085E-3	-53.0756E-3	-176.834E-12	670.535E-3	873.405E-6
-4.35468E-3	-177.672E-12	701.755E-3	-23.3986E-3	-176.471E-12	661.622E-3	7.25632E-3
-4.35968E-3	-178.442E-12	682.913E-3	461.025E-6	-176.077E-12	649.297E-3	-16.5644E-3
-4.36468E-3	-178.344E-12	676.910E-3	-4.93630E-3	-176.008E-12	666.694E-3	-55.4821E-3
-4.36968E-3	-178.231E-12	687.257E-3	-29.3597E-3	-175.999E-12	680.773E-3	-62.8610E-3
-4.37469E-3	-178.862E-12	703.483E-3	-45.2913E-3	-175.149E-12	681.331E-3	-39.5675E-3
-4.37969E-3	-178.538E-12	688.692E-3	-49.1420E-3	-174.997E-12	667.571E-3	-30.7152E-3
-4.38469E-3	-178.124E-12	663.554E-3	-36.2348E-3	-175.530E-12	650.260E-3	-36.6486E-3
-4.38969E-3	-177.580E-12	673.595E-3	-3.69570E-3	-175.895E-12	651.191E-3	-25.8585E-3
-4.39470E-3	-178.087E-12	686.546E-3	13.1671E-3	-175.887E-12	657.263E-3	-13.3241E-3
-4.39970E-3	-178.050E-12	666.015E-3	-7.34161E-3	-176.265E-12	648.530E-3	-11.1147E-3
-4.40470E-3	-178.840E-12	648.663E-3	-29.9516E-3	-177.876E-12	650.927E-3	2.05450E-3
-4.40970E-3	-178.816E-12	655.844E-3	-27.9559E-3	-178.125E-12	674.375E-3	29.3554E-3
-4.41471E-3	-179.395E-12	650.320E-3	-30.7098E-3	-178.782E-12	679.326E-3	28.6514E-3
-4.41971E-3	-180.301E-12	653.661E-3	-29.9530E-3	-179.524E-12	670.365E-3	11.3102E-3
-4.42471E-3	-180.045E-12	660.956E-3	-20.5034E-3	-179.894E-12	666.665E-3	-2.34670E-3
-4.42971E-3	-181.263E-12	646.864E-3	-33.2221E-3	-180.032E-12	665.003E-3	-28.4780E-3
-4.43472E-3	-181.793E-12	642.233E-3	-36.5718E-3	-179.870E-12	655.662E-3	-23.5998E-3
-4.43972E-3	-181.993E-12	670.518E-3	1.26464E-3	-179.951E-12	637.843E-3	-14.5479E-3
-4.44472E-3	-181.419E-12	689.431E-3	18.8578E-3	-179.001E-12	629.024E-3	-44.8557E-3
-4.44972E-3	-181.037E-12	681.279E-3	-15.8494E-3	-179.373E-12	627.314E-3	-58.3857E-3
-4.45473E-3	-181.047E-12	680.621E-3	-25.7481E-3	-178.984E-12	633.107E-3	-33.0505E-3
-4.45973E-3	-180.430E-12	667.732E-3	10.8681E-3	-178.196E-12	635.102E-3	839.773E-6
-4.46473E-3	-179.707E-12	645.016E-3	14.7646E-3	-178.432E-12	635.752E-3	12.0859E-3
-4.46973E-3	-178.555E-12	645.280E-3	-13.8329E-3	-178.665E-12	643.423E-3	-1.48347E-3
-4.47474E-3	-178.810E-12	645.820E-3	-15.5328E-3	-178.939E-12	638.066E-3	-20.5770E-3
-4.47974E-3	-178.622E-12	635.558E-3	-26.3558E-3	-178.799E-12	622.191E-3	-25.2764E-3
-4.48474E-3	-178.949E-12	633.828E-3	-51.5852E-3	-178.892E-12	622.802E-3	-20.8698E-3
-4.48974E-3	-178.428E-12	634.111E-3	-34.1464E-3	-180.170E-12	634.935E-3	-27.1997E-3
-4.49475E-3	-179.056E-12	638.436E-3	-9.90923E-3	-181.432E-12	632.243E-3	-43.2869E-3
-4.49975E-3	-180.212E-12	662.393E-3	-26.9895E-3	-181.872E-12	637.740E-3	-56.3799E-3
-4.50475E-3	-181.419E-12	683.279E-3	-33.3961E-3	-182.617E-12	674.928E-3	-66.4498E-3
-4.50975E-3	-181.754E-12	690.367E-3	-24.9639E-3	-184.087E-12	710.096E-3	-60.1538E-3
-4.51476E-3	-182.253E-12	684.538E-3	-30.8000E-3	-184.737E-12	718.108E-3	-31.8507E-3
-4.51976E-3	-184.004E-12	661.878E-3	-37.6949E-3	-185.280E-12	697.730E-3	-21.9541E-3
-4.52476E-3	-184.272E-12	654.811E-3	-57.4250E-3	-184.953E-12	672.475E-3	-27.4346E-3
-4.52976E-3	-184.821E-12	672.757E-3	-80.7579E-3	-185.417E-12	669.741E-3	-13.1169E-3
-4.53477E-3	-185.493E-12	672.950E-3	-70.8506E-3	-185.187E-12	674.770E-3	2.91853E-3
-4.53977E-3	-185.571E-12	642.498E-3	-42.0352E-3	-185.475E-12	676.274E-3	4.51920E-3
-4.54477E-3	-186.005E-12	605.584E-3	-28.4927E-3	-186.122E-12	681.024E-3	8.65851E-3
-4.54977E-3	-185.990E-12	602.726E-3	-26.3323E-3	-185.904E-12	687.295E-3	14.1422E-3
-4.55478E-3	-185.971E-12	626.311E-3	-32.1622E-3	-185.520E-12	692.428E-3	5.41335E-3
-4.55978E-3	-185.479E-12	648.301E-3	-37.3032E-3	-185.973E-12	691.679E-3	-4.22792E-3
-4.56478E-3	-185.415E-12	663.594E-3	-30.8800E-3	-185.947E-12	680.474E-3	-19.0193E-3
-4.56978E-3	-185.806E-12	649.431E-3	-32.3675E-3	-186.142E-12	658.969E-3	-34.6287E-3
-4.57479E-3	-185.632E-12	659.000E-3	-37.9529E-3	-186.244E-12	650.910E-3	-28.9705E-3
-4.57979E-3	-186.270E-12	693.747E-3	-20.1927E-3	-186.625E-12	665.761E-3	-29.1901E-3
-4.58479E-3	-186.778E-12	693.117E-3	-5.91045E-3	-187.466E-12	667.100E-3	-39.7972E-3
-4.58979E-3	-187.354E-12	699.698E-3	-24.4444E-3	-188.136E-12	648.761E-3	-32.6915E-3
-4.59480E-3	-188.281E-12	724.656E-3	-37.1033E-3	-187.571E-12	656.351E-3	-11.8956E-3
-4.59980E-3	-189.580E-12	714.759E-3	-33.2577E-3	-188.267E-12	679.157E-3	2.00594E-3
-4.60480E-3	-189.863E-12	684.724E-3	-31.3415E-3	-188.148E-12	655.250E-3	6.29096E-3
-4.60980E-3	-190.333E-12	663.536E-3	-10.0665E-3	-187.801E-12	616.576E-3	7.78417E-3
-4.61481E-3	-190.188E-12	650.880E-3	2.62462E-3	-186.874E-12	612.419E-3	7.62480E-3
-4.61981E-3	-190.839E-12	684.221E-3	-18.9704E-3	-186.545E-12	624.727E-3	5.80657E-3
-4.62481E-3	-191.152E-12	735.463E-3	-27.9367E-3	-186.605E-12	638.408E-3	-776.236E-6
-4.62981E-3	-190.777E-12	726.303E-3	-21.4413E-3	-187.332E-12	644.528E-3	-14.3291E-3
-4.63482E-3	-189.786E-12	687.096E-3	-27.4197E-3	-187.030E-12	646.691E-3	-16.6887E-3
-4.63982E-3	-188.871E-12	677.720E-3	-39.1296E-3	-185.654E-12	652.515E-3	-4.74369E-3
-4.64482E-3	-188.933E-12	644.450E-3	-16.9610E-3	-186.735E-12	649.448E-3	-11.0978E-3
-4.64982E-3	-188.991E-12	586.045E-3	13.4944E-3	-187.331E-12	632.989E-3	-20.8671E-3
-4.65483E-3	-188.204E-12	599.166E-3	-4.23243E-3	-188.214E-12	638.295E-3	5.43120E-3
-4.65983E-3	-187.750E-12	640.526E-3	-25.2513E-3	-187.128E-12	664.990E-3	19.2690E-3
-4.66483E-3	-187.718E-12	644.495E-3	-32.6709E-3	-187.703E-12	675.370E-3	-13.9137E-3
-4.66983E-3	-188.527E-12	655.115E-3	-54.9868E-3	-188.761E-12	680.935E-3	-19.6713E-3
-4.67484E-3	-188.554E-12	671.803E-3	-71.5894E-3	-189.403E-12	687.972E-3	-1.21418E-3
-4.67984E-3	-188.997E-12	668.299E-3	-59.7558E-3	-189.835E-12	687.566E-3	-18.5491E-3
-4.68484E-3	-188.868E-12	674.063E-3	-36.4208E-3	-188.205E-12	673.693E-3	-35.0108E-3
-4.68984E-3	-189.779E-12	660.328E-3	-11.9204E-3	-189.826E-12	661.301E-3	-32.9179E-3
-4.69485E-3	-191.073E-12	633.146E-3	273.246E-6	-190.276E-12	661.744E-3	-19.2437E-3
-4.69985E-3	-190.644E-12	644.898E-3	-23.6606E-3	-190.082E-12	663.634E-3	14.7682E-3
-4.70485E-3	-191.063E-12	662.577E-3	-47.9264E-3	-189.392E-12	662.540E-3	29.8711E-3
-4.70985E-3	-191.168E-12	647.890E-3	-55.8972E-3	-189.544E-12	650.757E-3	6.97037E-3
-4.71486E-3	-191.620E-12	636.765E-3	-68.1641E-3	-189.392E-12	648.865E-3	-20.2573E-3
-4.71986E-3	-190.700E-12	660.481E-3	-70.2797E-3	-189.777E-12	662.232E-3	-40.2523E-3
-4.72486E-3	-190.509E-12	681.633E-3	-66.0604E-3	-190.375E-12	667.032E-3	-70.9801E-3
-4.72986E-3	-190.578E-12	685.876E-3	-66.1731E-3	-190.460E-12	676.899E-3	-71.9450E-3
-4.73487E-3	-190.431E-12	671.327E-3	-42.9703E-3	-192.217E-12	701.134E-3	-12.4299E-3
-4.73987E-3	-190.927E-12	635.276E-3	-15.0878E-3	-192.462E-12	709.230E-3	14.3323E-3
-4.74487E-3	-190.527E-12	635.401E-3	-17.5606E-3	-193.830E-12	702.616E-3	-13.7658E-3
-4.74988E-3	-190.779E-12	663.806E-3	-14.0346E-3	-195.264E-12	694.323E-3	-47.8795E-3
-4.75488E-3	-191.624E-12	649.555E-3	-1.64346E-3	-196.000E-12	680.749E-3	-62.3457E-3
-4.75988E-3	-192.565E-12	628.839E-3	-17.6170E-3	-197.215E-12	662.124E-3	-38.8471E-3
-4.76488E-3	-192.598E-12	647.998E-3	-27.8077E-3	-198.676E-12	659.308E-3	-9.50800E-3
-4.76988E-3	-194.335E-12	657.317E-3	-32.2878E-3	-199.636E-12	682.614E-3	5.32063E-3
-4.77489E-3	-194.566E-12	649.063E-3	-52.7393E-3	-198.402E-12	691.309E-3	8.44035E-3
-4.77989E-3	-196.180E-12	657.009E-3	-34.2919E-3	-198.484E-12	669.289E-3	-18.8953E-3
-4.78489E-3	-197.127E-12	664.553E-3	879.901E-6	-197.724E-12	654.984E-3	-51.6101E-3
-4.78989E-3	-197.330E-12	669.743E-3	5.04073E-3	-197.987E-12	672.494E-3	-45.8919E-3
-4.79490E-3	-197.919E-12	674.285E-3	13.6064E-3	-196.164E-12	701.425E-3	-29.7533E-3
-4.79990E-3	-199.327E-12	665.642E-3	38.9945E-3	-195.266E-12	709.076E-3	-46.7447E-3
-4.80490E-3	-198.663E-12	658.951E-3	49.5150E-3	-194.940E-12	686.581E-3	-79.2821E-3
-4.80990E-3	-197.533E-12	658.576E-3	35.7543E-3	-195.038E-12	654.926E-3	-58.8829E-3
-4.81491E-3	-196.743E-12	649.903E-3	17.5371E-3	-194.655E-12	650.079E-3	-9.48400E-3
-4.81991E-3	-196.873E-12	631.019E-3	-846.322E-6	-193.527E-12	661.855E-3	3.58827E-3
-4.82491E-3	-196.122E-12	626.289E-3	-5.70591E-3	-193.931E-12	661.275E-3	5.59611E-3
-4.82991E-3	-195.221E-12	641.242E-3	-2.74144E-3	-194.522E-12	673.308E-3	-13.0808E-3
-4.83492E-3	-194.752E-12	653.466E-3	-17.8788E-3	-195.393E-12	687.314E-3	-44.2442E-3
-4.83992E-3	-196.008E-12	658.180E-3	-14.6472E-3	-195.757E-12	683.214E-3	-37.3529E-3
-4.84492E-3	-196.468E-12	669.269E-3	17.0976E-3	-196.732E-12	692.998E-3	-40.6245E-3
-4.84992E-3	-195.543E-12	677.695E-3	32.2213E-3	-196.847E-12	684.816E-3	-65.9634E-3
-4.85493E-3	-195.073E-12	656.775E-3	16.0173E-3	-198.448E-12	640.921E-3	-39.5287E-3
-4.85993E-3	-195.715E-12	631.086E-3	-17.5333E-3	-198.518E-12	641.755E-3	-4.79766E-3
-4.86493E-3	-197.769E-12	619.045E-3	-35.7378E-3	-198.072E-12	653.380E-3	-17.3546E-3
-4.86993E-3	-198.235E-12	616.809E-3	-35.3713E-3	-197.932E-12	635.599E-3	-36.2856E-3
-4.87494E-3	-197.715E-12	649.940E-3	-37.6389E-3	-198.529E-12	634.183E-3	-48.8581E-3
-4.87994E-3	-197.979E-12	676.434E-3	-30.1208E-3	-198.407E-12	636.813E-3	-51.4253E-3
-4.88494E-3	-199.221E-12	673.944E-3	-5.96794E-3	-197.839E-12	641.797E-3	-25.3182E-3
-4.88995E-3	-199.588E-12	674.137E-3	7.19298E-3	-196.224E-12	655.947E-3	-7.60085E-3
-4.89495E-3	-199.087E-12	657.230E-3	-3.27910E-3	-195.155E-12	653.232E-3	-42.4438E-3
-4.89995E-3	-198.032E-12	663.004E-3	-14.9011E-3	-196.463E-12	639.156E-3	-73.1601E-3
-4.90495E-3	-198.343E-12	701.876E-3	-20.2632E-3	-196.554E-12	647.572E-3	-39.1456E-3
-4.90995E-3	-199.241E-12	699.848E-3	-15.2292E-3	-195.521E-12	660.307E-3	-5.46049E-3
-4.91496E-3	-198.553E-12	651.893E-3	-8.20474E-3	-195.834E-12	639.152E-3	-8.66871E-3
-4.91996E-3	-197.419E-12	620.511E-3	-19.1948E-3	-197.691E-12	627.231E-3	-5.41220E-3
-4.92496E-3	-197.282E-12	640.249E-3	-28.3615E-3	-197.733E-12	648.560E-3	-472.692E-6
-4.92996E-3	-198.083E-12	664.198E-3	-30.3885E-3	-199.073E-12	673.129E-3	-5.33694E-3
-4.93497E-3	-199.151E-12	684.023E-3	-36.3789E-3	-199.863E-12	689.541E-3	-2.76472E-3
-4.93997E-3	-199.184E-12	696.462E-3	-25.2200E-3	-201.729E-12	688.946E-3	-10.5786E-3
-4.94497E-3	-200.154E-12	690.705E-3	-4.57101E-3	-202.903E-12	664.175E-3	-47.6146E-3
-4.94997E-3	-201.151E-12	693.385E-3	-2.95871E-3	-204.333E-12	640.664E-3	-56.1127E-3
-4.95498E-3	-202.858E-12	672.874E-3	-16.6768E-3	-204.665E-12	664.692E-3	-5.30650E-3
-4.95998E-3	-202.945E-12	640.208E-3	-48.4078E-3	-204.658E-12	701.625E-3	20.9989E-3
-4.96498E-3	-203.840E-12	649.343E-3	-57.0985E-3	-205.755E-12	698.750E-3	9.85505E-3
-4.96998E-3	-203.407E-12	672.439E-3	-22.7328E-3	-205.929E-12	679.468E-3	5.20227E-3
-4.97499E-3	-204.845E-12	664.147E-3	-14.3279E-3	-205.813E-12	664.154E-3	15.1543E-3
-4.97999E-3	-205.023E-12	648.542E-3	-28.6156E-3	-205.715E-12	659.965E-3	41.5953E-3
-4.98499E-3	-205.385E-12	645.444E-3	-42.7543E-3	-205.388E-12	667.392E-3	24.1804E-3
-4.98999E-3	-205.206E-12	645.448E-3	-54.7506E-3	-205.524E-12	667.531E-3	-28.4967E-3
-4.99500E-3	-205.707E-12	668.678E-3	-28.3729E-3	-205.650E-12	662.798E-3	-44.2997E-3
-5.00000E-3	-205.047E-12	688.021E-3	-10.0800E-3	-205.425E-12	674.641E-3	-26.4689E-3
