Experiment	bias spectroscopy	
Date	19.01.2016 19:50:59	
User		
X (m)	50.9577E-9	
Y (m)	257.205E-9	
Z (m)	-132.704E-9	
Z offset (m)	0E+0	
Settling time (s)	200E-6	
Integration time (s)	5E-3	
Z-Ctrl hold	TRUE	
Final Z (m)	N/A	
Filter type	None	
Order		
Cutoff frq		
Comment01	MnPc/Pb(111)	
Comment02	dz =00pm	
Comment03	7 Sweeps	
Comment04	MagField =0.T	
Comment05	Divider 1:10	
Comment06	Setpoint:5mV,200 pA	
Comment07	Lockin: 50uVrms,5ms,5mV	
Comment08	Gain:9; 912Hz modulation	
Comment09	T=1.06K	
Bias>Bias (V)	5E-3	
Bias>Calibration (V/V)	81.475E-3	
Bias>Offset (V)	1.046E-3	
Bias Spectroscopy>Sweep Start (V)	5E-3	
Bias Spectroscopy>Sweep End (V)	-5E-3	
Bias Spectroscopy>Num Pixel	2000	
Bias Spectroscopy>Z Avg time (s)	500E-3	
Bias Spectroscopy>Z offset (m)	0E+0	
Bias Spectroscopy>1st Settling time (s)	500E-3	
Bias Spectroscopy>Settling time (s)	200E-6	
Bias Spectroscopy>Integration time (s)	5E-3	
Bias Spectroscopy>End Settling time (s)	500E-3	
Bias Spectroscopy>Z control time (s)	500E-3	
Bias Spectroscopy>Max Slew rate (V/s)	Inf	
Bias Spectroscopy>backward sweep	TRUE	
Bias Spectroscopy>Z-controller hold	TRUE	
Bias Spectroscopy>Number of sweeps	7	
Bias Spectroscopy>Channels	Current (A);X% LockIn (V);Y% LockIn (V)	
Bias Spectroscopy>Reset Bias	TRUE	
Bias Spectroscopy>Record final Z	FALSE	
Bias Spectroscopy>Lock-In run	FALSE	
Bias Spectroscopy>Sweep mode	Linear	
Bias Spectroscopy>MultiLine Settings : Segment Start (V), Segment End (V), Settling (s), Integration (s), Steps (xn)	100E-3,3.3E-3,100E-6,10E-3,2500;3.3E-3,-3.3E-3,100E-6,10E-3,10;-3.3E-3,-100E-3,100E-6,10E-3,2500	
Current>Current (A)	200.271E-12	
Current>Calibration (A/V)	999.99900E-12	
Current>Offset (A)	-455.429E-15	
Current>Gain	LN 10^9	
Z-Controller>Z (m)	-132.707E-9	
Z-Controller>Controller name	log Current	
Z-Controller>Controller status	ON	
Z-Controller>Setpoint	200E-12	
Z-Controller>Setpoint unit	A	
Z-Controller>P gain	2.96994E-12	
Z-Controller>I gain	67.0321E-9	
Z-Controller>Time const (s)	44.3062E-6	
Z-Controller>TipLift (m)	0E+0	
Z-Controller>Switch off delay (s)	50E-3	
Current (A)	199.751E-12	
Z (m)	-132.707E-9	

[DATA]
Bias calc (V)	Current (A)	X% LockIn (V)	Y% LockIn (V)	Current [bwd] (A)	X% LockIn [bwd] (V)	Y% LockIn [bwd] (V)
5.00000E-3	197.040E-12	656.078E-3	-89.3886E-3	199.621E-12	681.249E-3	-20.2885E-3
4.99500E-3	195.066E-12	654.274E-3	-64.4354E-3	197.610E-12	671.390E-3	-10.0879E-3
4.98999E-3	192.833E-12	623.332E-3	-27.6023E-3	196.638E-12	640.222E-3	-12.5143E-3
4.98499E-3	193.233E-12	611.965E-3	12.4032E-3	196.097E-12	638.457E-3	-40.0836E-3
4.97999E-3	193.061E-12	631.925E-3	16.1668E-3	197.393E-12	647.747E-3	-75.2629E-3
4.97499E-3	193.347E-12	654.688E-3	-20.0275E-3	196.703E-12	635.559E-3	-61.5700E-3
4.96998E-3	192.836E-12	639.998E-3	-34.7862E-3	195.808E-12	637.809E-3	-3.68710E-3
4.96498E-3	193.740E-12	615.217E-3	-15.3521E-3	195.796E-12	655.065E-3	13.4608E-3
4.95998E-3	195.348E-12	611.116E-3	3.34666E-3	197.187E-12	666.049E-3	-13.8606E-3
4.95498E-3	196.513E-12	611.986E-3	6.21067E-3	197.518E-12	686.112E-3	-29.4586E-3
4.94997E-3	197.343E-12	630.786E-3	4.60277E-3	196.553E-12	688.992E-3	-25.6838E-3
4.94497E-3	198.210E-12	648.673E-3	1.24815E-3	196.853E-12	657.860E-3	-29.3324E-6
4.93997E-3	199.274E-12	666.752E-3	-5.17363E-3	197.766E-12	636.159E-3	9.56509E-3
4.93497E-3	199.728E-12	693.718E-3	2.71586E-3	199.201E-12	643.874E-3	-33.0988E-3
4.92996E-3	200.262E-12	683.149E-3	-22.6107E-3	198.945E-12	668.870E-3	-53.2191E-3
4.92496E-3	199.462E-12	646.958E-3	-53.7196E-3	197.509E-12	689.645E-3	-23.3856E-3
4.91996E-3	197.785E-12	643.312E-3	-25.0780E-3	197.885E-12	681.808E-3	6.78978E-3
4.91496E-3	197.269E-12	664.155E-3	-15.1908E-3	198.129E-12	659.116E-3	18.8971E-3
4.90995E-3	196.627E-12	677.863E-3	-36.6461E-3	197.373E-12	642.650E-3	9.73073E-3
4.90495E-3	195.887E-12	657.649E-3	-39.9116E-3	194.637E-12	627.768E-3	-9.16314E-3
4.89995E-3	194.543E-12	636.891E-3	-23.9546E-3	195.095E-12	623.222E-3	-23.9855E-3
4.89495E-3	193.525E-12	641.064E-3	-7.00131E-3	194.274E-12	639.218E-3	-22.7075E-3
4.88995E-3	191.951E-12	655.903E-3	-1.49207E-3	194.517E-12	660.374E-3	-11.5643E-3
4.88494E-3	190.476E-12	662.302E-3	-1.91132E-3	193.214E-12	659.053E-3	-33.1307E-3
4.87994E-3	189.660E-12	649.995E-3	-12.1584E-3	191.283E-12	653.348E-3	-46.7546E-3
4.87494E-3	188.720E-12	647.408E-3	-37.2212E-3	191.692E-12	669.811E-3	-24.8015E-3
4.86993E-3	188.807E-12	638.807E-3	-63.7113E-3	191.900E-12	672.189E-3	-15.3715E-3
4.86493E-3	188.440E-12	643.215E-3	-74.2635E-3	192.743E-12	640.544E-3	-8.47178E-3
4.85993E-3	188.919E-12	664.172E-3	-48.1585E-3	191.792E-12	608.986E-3	-4.05815E-3
4.85493E-3	189.223E-12	658.693E-3	-28.7231E-3	192.039E-12	619.258E-3	-9.18952E-3
4.84992E-3	189.249E-12	654.022E-3	-47.3588E-3	192.774E-12	652.929E-3	-20.7205E-3
4.84492E-3	189.683E-12	654.506E-3	-36.6117E-3	194.401E-12	665.105E-3	-28.5762E-3
4.83992E-3	190.014E-12	645.437E-3	-12.8952E-3	193.545E-12	645.868E-3	-8.02968E-3
4.83492E-3	190.516E-12	652.395E-3	-23.0683E-3	193.299E-12	629.750E-3	-4.16954E-3
4.82991E-3	191.449E-12	668.486E-3	-30.5796E-3	193.308E-12	646.996E-3	-32.8302E-3
4.82491E-3	191.918E-12	673.654E-3	-31.0171E-3	194.014E-12	664.313E-3	-52.4541E-3
4.81991E-3	191.472E-12	679.019E-3	-33.0746E-3	193.242E-12	673.940E-3	-37.9875E-3
4.81491E-3	191.299E-12	669.442E-3	-17.5697E-3	191.853E-12	688.676E-3	-21.0329E-3
4.80990E-3	191.246E-12	639.901E-3	-12.1985E-3	190.887E-12	684.254E-3	-41.9761E-3
4.80490E-3	190.824E-12	642.894E-3	-47.5840E-3	190.389E-12	667.142E-3	-56.5938E-3
4.79990E-3	190.279E-12	685.644E-3	-62.3768E-3	190.516E-12	643.397E-3	-32.1696E-3
4.79490E-3	189.033E-12	697.853E-3	-30.9049E-3	188.572E-12	618.498E-3	5.05214E-3
4.78989E-3	188.932E-12	636.783E-3	-15.7743E-3	186.608E-12	612.699E-3	27.1669E-3
4.78489E-3	189.193E-12	587.557E-3	-36.0326E-3	186.136E-12	620.719E-3	33.3982E-3
4.77989E-3	188.263E-12	607.701E-3	-53.3426E-3	187.052E-12	632.984E-3	23.3384E-3
4.77489E-3	187.292E-12	630.380E-3	-53.4180E-3	186.236E-12	641.865E-3	18.3844E-3
4.76988E-3	186.021E-12	640.323E-3	-43.0859E-3	186.179E-12	641.434E-3	34.5662E-3
4.76488E-3	186.508E-12	635.538E-3	-30.1851E-3	186.128E-12	651.937E-3	24.8152E-3
4.75988E-3	185.598E-12	611.858E-3	-14.5375E-3	187.182E-12	678.332E-3	-12.5221E-3
4.75488E-3	186.270E-12	614.664E-3	-4.88691E-3	189.391E-12	697.510E-3	-27.4243E-3
4.74988E-3	185.526E-12	637.534E-3	-15.0786E-3	189.011E-12	707.562E-3	-26.0832E-3
4.74487E-3	185.207E-12	645.517E-3	-23.0571E-3	188.815E-12	694.893E-3	-16.6410E-3
4.73987E-3	185.822E-12	633.094E-3	-10.0156E-3	189.315E-12	673.322E-3	9.87415E-3
4.73487E-3	186.509E-12	632.871E-3	14.6655E-3	189.228E-12	682.119E-3	7.73849E-3
4.72986E-3	186.477E-12	649.130E-3	5.23138E-3	189.744E-12	677.638E-3	-25.0344E-3
4.72486E-3	186.559E-12	651.231E-3	-19.4435E-3	188.137E-12	652.489E-3	-42.4651E-3
4.71986E-3	186.727E-12	644.516E-3	-35.6130E-3	186.876E-12	657.680E-3	-37.0611E-3
4.71486E-3	188.206E-12	644.400E-3	-57.6048E-3	186.608E-12	655.988E-3	-29.0724E-3
4.70985E-3	189.098E-12	655.937E-3	-56.1779E-3	186.282E-12	644.193E-3	-14.2090E-3
4.70485E-3	189.029E-12	676.624E-3	-28.2881E-3	184.479E-12	651.896E-3	4.22035E-3
4.69985E-3	187.292E-12	683.122E-3	-4.37214E-3	182.960E-12	645.789E-3	-1.54017E-3
4.69485E-3	186.726E-12	661.913E-3	690.220E-6	182.684E-12	642.470E-3	9.94709E-3
4.68984E-3	187.648E-12	641.172E-3	-2.88168E-3	183.689E-12	662.658E-3	25.9845E-3
4.68484E-3	186.999E-12	625.522E-3	-17.1909E-3	183.540E-12	669.682E-3	3.64763E-3
4.67984E-3	185.263E-12	629.743E-3	-26.4291E-3	182.172E-12	642.387E-3	-15.2606E-3
4.67484E-3	183.763E-12	648.174E-3	-18.8976E-3	181.823E-12	615.404E-3	-23.2239E-3
4.66983E-3	183.794E-12	664.425E-3	-10.7223E-3	182.925E-12	617.219E-3	-23.2148E-3
4.66483E-3	182.947E-12	666.610E-3	-3.05994E-3	183.595E-12	635.059E-3	-9.22149E-3
4.65983E-3	181.326E-12	646.834E-3	8.30827E-3	184.653E-12	649.645E-3	10.3093E-3
4.65483E-3	180.860E-12	641.753E-3	595.756E-6	183.303E-12	666.216E-3	8.69541E-3
4.64982E-3	180.299E-12	645.579E-3	-18.1972E-3	183.575E-12	685.830E-3	-25.2503E-3
4.64482E-3	180.590E-12	663.652E-3	-16.6392E-3	183.323E-12	689.213E-3	-51.2279E-3
4.63982E-3	180.523E-12	663.790E-3	-7.72463E-3	184.646E-12	671.947E-3	-43.4473E-3
4.63482E-3	180.857E-12	620.786E-3	-6.86379E-3	182.997E-12	648.057E-3	-30.7009E-3
4.62981E-3	181.441E-12	596.312E-3	4.41956E-3	182.669E-12	650.364E-3	-34.2503E-3
4.62481E-3	181.764E-12	612.073E-3	6.36725E-3	182.543E-12	665.200E-3	-35.2458E-3
4.61981E-3	181.963E-12	639.900E-3	-12.3658E-3	183.503E-12	666.011E-3	-33.2285E-3
4.61481E-3	182.899E-12	664.692E-3	-8.67848E-3	181.920E-12	675.126E-3	-38.6640E-3
4.60980E-3	183.833E-12	668.988E-3	3.53705E-3	181.362E-12	662.249E-3	-31.8229E-3
4.60480E-3	183.044E-12	665.455E-3	-8.47258E-3	181.011E-12	629.262E-3	-5.03694E-3
4.59980E-3	183.288E-12	664.075E-3	-28.3891E-3	181.197E-12	650.698E-3	9.78119E-3
4.59480E-3	183.274E-12	636.416E-3	-28.8338E-3	181.081E-12	677.951E-3	-14.9759E-3
4.58979E-3	183.370E-12	642.105E-3	-20.3649E-3	180.361E-12	664.146E-3	-45.5062E-3
4.58479E-3	181.939E-12	685.623E-3	-8.71115E-3	180.212E-12	658.605E-3	-37.9835E-3
4.57979E-3	180.211E-12	691.738E-3	-3.61295E-3	180.130E-12	644.323E-3	-36.3185E-3
4.57479E-3	180.068E-12	666.973E-3	-16.2800E-3	180.448E-12	629.420E-3	-44.9546E-3
4.56978E-3	178.907E-12	646.168E-3	-29.2013E-3	180.240E-12	644.847E-3	-19.9541E-3
4.56478E-3	178.207E-12	628.860E-3	-18.3654E-3	179.875E-12	667.322E-3	-9.58008E-3
4.55978E-3	177.013E-12	624.530E-3	-3.61116E-3	180.324E-12	694.054E-3	-22.2278E-3
4.55478E-3	176.181E-12	627.056E-3	-3.66149E-3	179.917E-12	716.409E-3	-28.1021E-3
4.54977E-3	175.071E-12	618.463E-3	3.03013E-3	180.367E-12	703.568E-3	-33.3031E-3
4.54477E-3	175.169E-12	621.547E-3	10.1678E-3	180.071E-12	663.249E-3	-19.9729E-3
4.53977E-3	175.436E-12	647.656E-3	-2.33326E-3	180.588E-12	646.196E-3	365.086E-6
4.53477E-3	175.479E-12	657.751E-3	-19.0874E-3	180.228E-12	666.093E-3	5.18854E-3
4.52976E-3	175.276E-12	636.949E-3	-335.920E-6	180.090E-12	686.193E-3	-3.69300E-3
4.52476E-3	176.318E-12	627.018E-3	10.9264E-3	180.049E-12	682.856E-3	-15.7001E-3
4.51976E-3	177.856E-12	630.552E-3	-9.32365E-3	179.473E-12	668.348E-3	-26.2193E-3
4.51476E-3	177.055E-12	641.261E-3	-13.8246E-3	179.905E-12	642.521E-3	-46.5909E-3
4.50975E-3	176.898E-12	667.488E-3	-13.5528E-3	179.812E-12	619.575E-3	-52.0168E-3
4.50475E-3	177.592E-12	685.831E-3	-15.8659E-3	178.500E-12	634.367E-3	-29.6675E-3
4.49975E-3	177.788E-12	678.806E-3	-21.1780E-3	178.266E-12	671.354E-3	-18.4379E-3
4.49475E-3	176.229E-12	674.602E-3	-32.3865E-3	178.739E-12	690.151E-3	-12.9270E-3
4.48974E-3	175.445E-12	676.081E-3	-19.4158E-3	177.826E-12	679.348E-3	-3.54093E-3
4.48474E-3	174.913E-12	654.852E-3	1.54123E-3	175.695E-12	656.695E-3	6.19692E-3
4.47974E-3	174.889E-12	652.221E-3	-12.3847E-3	174.162E-12	640.328E-3	20.4475E-3
4.47474E-3	173.466E-12	672.097E-3	-32.5773E-3	174.492E-12	641.709E-3	27.5627E-3
4.46973E-3	172.388E-12	644.210E-3	-35.1724E-3	173.959E-12	650.694E-3	1.78710E-3
4.46473E-3	171.812E-12	611.106E-3	-33.0476E-3	172.277E-12	651.179E-3	-33.8388E-3
4.45973E-3	171.461E-12	618.579E-3	-16.1756E-3	171.717E-12	645.244E-3	-32.8855E-3
4.45473E-3	171.401E-12	616.251E-3	-1.47783E-3	171.741E-12	649.340E-3	-7.28237E-3
4.44972E-3	170.629E-12	622.257E-3	-22.6864E-3	172.578E-12	654.513E-3	-5.00479E-3
4.44472E-3	170.224E-12	643.964E-3	-44.2190E-3	172.135E-12	644.888E-3	-19.1475E-3
4.43972E-3	170.741E-12	643.677E-3	-35.2819E-3	172.348E-12	637.974E-3	-5.82259E-3
4.43472E-3	172.077E-12	649.775E-3	-39.8311E-3	172.533E-12	641.458E-3	-3.13961E-3
4.42971E-3	171.216E-12	666.016E-3	-44.9835E-3	173.211E-12	661.329E-3	-13.5144E-3
4.42471E-3	172.465E-12	659.827E-3	-24.8997E-3	173.122E-12	677.777E-3	457.153E-6
4.41971E-3	172.961E-12	646.260E-3	-22.7482E-3	172.344E-12	657.633E-3	5.12034E-3
4.41471E-3	173.470E-12	640.500E-3	-32.8179E-3	173.755E-12	642.777E-3	-5.82306E-3
4.40970E-3	173.041E-12	638.792E-3	-42.8642E-3	173.915E-12	657.449E-3	-7.31947E-3
4.40470E-3	172.965E-12	636.854E-3	-61.6985E-3	174.105E-12	663.575E-3	-9.76063E-3
4.39970E-3	173.248E-12	636.462E-3	-61.1496E-3	173.306E-12	658.230E-3	-26.0512E-3
4.39470E-3	173.479E-12	656.340E-3	-36.0582E-3	172.931E-12	648.749E-3	-33.3642E-3
4.38969E-3	172.877E-12	671.451E-3	-15.8203E-3	171.467E-12	627.300E-3	-25.4133E-3
4.38469E-3	171.703E-12	669.540E-3	1.42647E-3	170.619E-12	616.211E-3	-16.0759E-3
4.37969E-3	172.812E-12	676.200E-3	26.8229E-3	169.466E-12	625.960E-3	-23.1668E-3
4.37469E-3	171.841E-12	673.156E-3	30.1055E-3	168.020E-12	639.723E-3	-39.9023E-3
4.36968E-3	171.389E-12	659.021E-3	5.98913E-3	167.167E-12	643.827E-3	-33.4988E-3
4.36468E-3	171.286E-12	662.398E-3	2.18904E-3	166.831E-12	648.994E-3	-29.4821E-3
4.35968E-3	170.990E-12	656.562E-3	17.7513E-3	166.342E-12	651.872E-3	-18.5274E-3
4.35468E-3	170.799E-12	639.343E-3	12.6903E-3	165.777E-12	631.846E-3	15.5227E-3
4.34967E-3	170.391E-12	652.815E-3	-11.6450E-3	167.101E-12	617.239E-3	17.4195E-3
4.34467E-3	171.217E-12	668.955E-3	-17.8815E-3	168.065E-12	635.712E-3	-22.7943E-3
4.33967E-3	170.953E-12	668.793E-3	-17.3960E-3	167.628E-12	656.939E-3	-57.6120E-3
4.33467E-3	171.131E-12	665.648E-3	-3.90425E-3	168.218E-12	662.284E-3	-42.2105E-3
4.32966E-3	170.680E-12	665.294E-3	22.9904E-3	169.731E-12	654.707E-3	-3.87260E-3
4.32466E-3	170.534E-12	670.965E-3	15.1822E-3	169.757E-12	632.894E-3	12.5605E-3
4.31966E-3	170.580E-12	664.672E-3	-22.2038E-3	169.285E-12	637.259E-3	4.81583E-3
4.31466E-3	171.190E-12	640.797E-3	-53.7812E-3	170.691E-12	671.204E-3	-9.99608E-3
4.30965E-3	171.065E-12	636.295E-3	-56.9053E-3	171.675E-12	686.710E-3	5.53151E-3
4.30465E-3	170.038E-12	655.307E-3	-45.2570E-3	171.053E-12	677.913E-3	13.8356E-3
4.29965E-3	171.038E-12	658.325E-3	-30.8814E-3	169.651E-12	661.256E-3	-12.8992E-3
4.29465E-3	169.829E-12	648.770E-3	-39.1727E-3	169.754E-12	656.319E-3	-25.5554E-3
4.28964E-3	169.060E-12	656.330E-3	-49.0845E-3	169.476E-12	663.691E-3	-15.2560E-3
4.28464E-3	168.094E-12	670.739E-3	-20.2235E-3	168.165E-12	667.125E-3	-10.4706E-3
4.27964E-3	167.837E-12	653.439E-3	-2.47691E-3	166.702E-12	668.828E-3	-14.0758E-3
4.27464E-3	168.064E-12	632.846E-3	-9.30540E-3	165.767E-12	674.399E-3	-10.9460E-3
4.26963E-3	166.837E-12	646.358E-3	-15.2409E-3	165.959E-12	689.556E-3	-14.3685E-3
4.26463E-3	166.081E-12	665.276E-3	-25.0127E-3	164.708E-12	681.257E-3	-14.0385E-3
4.25963E-3	165.708E-12	663.203E-3	-15.0799E-3	164.625E-12	656.307E-3	5.12114E-3
4.25463E-3	165.102E-12	642.424E-3	8.94261E-3	164.427E-12	666.218E-3	-6.78667E-3
4.24962E-3	164.370E-12	623.429E-3	839.808E-6	164.405E-12	666.998E-3	-43.2673E-3
4.24462E-3	164.091E-12	632.322E-3	-18.0085E-3	163.828E-12	645.950E-3	-49.0489E-3
4.23962E-3	163.285E-12	647.215E-3	-27.1283E-3	164.991E-12	652.690E-3	-38.1313E-3
4.23462E-3	162.323E-12	645.058E-3	-35.8096E-3	165.793E-12	657.359E-3	-29.0417E-3
4.22961E-3	162.477E-12	661.662E-3	-36.4382E-3	165.009E-12	643.831E-3	-5.71357E-3
4.22461E-3	162.073E-12	679.893E-3	-30.0711E-3	165.669E-12	624.576E-3	16.3805E-3
4.21961E-3	162.197E-12	676.345E-3	-18.6514E-3	165.777E-12	619.953E-3	14.9755E-3
4.21461E-3	161.488E-12	672.245E-3	-16.3396E-3	165.712E-12	641.175E-3	11.6392E-3
4.20960E-3	161.875E-12	665.121E-3	-26.7924E-3	164.649E-12	659.453E-3	3.49526E-3
4.20460E-3	161.729E-12	668.079E-3	-34.9376E-3	164.510E-12	659.971E-3	-11.2419E-3
4.19960E-3	160.718E-12	681.075E-3	-31.1137E-3	164.461E-12	649.719E-3	-17.2556E-3
4.19460E-3	160.371E-12	676.599E-3	-19.8911E-3	163.417E-12	643.638E-3	-35.7978E-3
4.18959E-3	161.978E-12	662.152E-3	-19.7780E-3	163.015E-12	630.626E-3	-44.5397E-3
4.18459E-3	162.859E-12	656.071E-3	-14.2353E-3	163.153E-12	617.818E-3	-17.2998E-3
4.17959E-3	161.270E-12	653.243E-3	11.1338E-3	162.933E-12	615.718E-3	-7.56170E-3
4.17459E-3	160.789E-12	649.526E-3	18.8169E-3	161.364E-12	621.424E-3	-14.6478E-3
4.16958E-3	160.535E-12	649.670E-3	10.9983E-3	160.828E-12	640.991E-3	-3.17815E-3
4.16458E-3	161.328E-12	641.594E-3	7.65359E-3	160.846E-12	669.006E-3	9.77270E-3
4.15958E-3	159.620E-12	613.651E-3	-3.76613E-3	160.821E-12	683.609E-3	12.1402E-3
4.15458E-3	159.478E-12	600.935E-3	-27.3031E-3	159.838E-12	671.128E-3	-1.13651E-3
4.14957E-3	158.278E-12	618.933E-3	-36.4820E-3	159.494E-12	657.310E-3	-22.9104E-3
4.14457E-3	159.149E-12	651.491E-3	-29.9087E-3	160.463E-12	653.262E-3	-28.6523E-3
4.13957E-3	158.502E-12	660.503E-3	-36.9767E-3	161.371E-12	659.428E-3	-17.1146E-3
4.13457E-3	157.095E-12	646.326E-3	-32.2231E-3	161.173E-12	687.726E-3	-15.6649E-3
4.12956E-3	157.108E-12	647.545E-3	-12.1543E-3	161.336E-12	690.114E-3	-36.5683E-3
4.12456E-3	156.993E-12	654.823E-3	-6.19894E-3	161.102E-12	652.644E-3	-52.2936E-3
4.11956E-3	156.832E-12	655.968E-3	2.79246E-3	161.740E-12	645.149E-3	-36.3755E-3
4.11456E-3	157.265E-12	649.308E-3	5.53169E-3	162.257E-12	673.265E-3	-6.70870E-3
4.10955E-3	158.852E-12	643.811E-3	-14.1368E-3	161.350E-12	683.854E-3	-7.25601E-3
4.10455E-3	159.301E-12	646.659E-3	-28.8504E-3	160.167E-12	674.603E-3	-14.0804E-3
4.09955E-3	159.014E-12	649.479E-3	-30.5574E-3	160.763E-12	667.458E-3	3.29245E-3
4.09455E-3	159.504E-12	657.544E-3	-27.2954E-3	162.355E-12	659.347E-3	5.57270E-3
4.08954E-3	160.079E-12	674.816E-3	-23.8170E-3	161.769E-12	648.954E-3	-4.85675E-3
4.08454E-3	160.771E-12	652.535E-3	-18.0315E-3	160.565E-12	648.078E-3	-1.88418E-3
4.07954E-3	159.569E-12	614.097E-3	-25.4291E-3	158.966E-12	656.066E-3	11.1842E-3
4.07454E-3	160.664E-12	622.014E-3	-33.6396E-3	159.946E-12	672.248E-3	22.7208E-3
4.06953E-3	160.456E-12	648.317E-3	-32.8069E-3	159.214E-12	677.676E-3	7.11004E-3
4.06453E-3	159.337E-12	667.182E-3	-46.8638E-3	157.521E-12	658.561E-3	-20.6977E-3
4.05953E-3	158.019E-12	677.607E-3	-46.2251E-3	156.434E-12	654.565E-3	-29.2428E-3
4.05453E-3	158.204E-12	681.515E-3	-28.1021E-3	156.400E-12	663.494E-3	-17.2545E-3
4.04952E-3	157.355E-12	682.803E-3	-19.6732E-3	156.302E-12	650.043E-3	-1.95428E-3
4.04452E-3	155.733E-12	688.118E-3	-19.3268E-3	155.302E-12	629.420E-3	-11.0987E-3
4.03952E-3	155.305E-12	675.614E-3	-11.0048E-3	155.396E-12	624.074E-3	-35.1009E-3
4.03452E-3	155.784E-12	643.715E-3	-814.436E-6	154.670E-12	640.821E-3	-32.6971E-3
4.02951E-3	154.211E-12	645.526E-3	1.00314E-3	154.396E-12	668.582E-3	6.22437E-3
4.02451E-3	153.570E-12	665.094E-3	-8.06394E-3	154.832E-12	674.550E-3	41.8060E-3
4.01951E-3	153.920E-12	656.059E-3	-31.0442E-3	154.769E-12	670.328E-3	29.5816E-3
4.01451E-3	154.503E-12	659.549E-3	-29.5019E-3	155.437E-12	679.212E-3	-1.98054E-3
4.00950E-3	154.159E-12	673.748E-3	3.03602E-3	154.938E-12	680.498E-3	-997.550E-6
4.00450E-3	155.168E-12	663.995E-3	18.5598E-3	155.420E-12	670.509E-3	4.11577E-3
3.99950E-3	155.407E-12	660.814E-3	24.8546E-3	155.822E-12	657.967E-3	-2.35884E-3
3.99450E-3	155.844E-12	667.109E-3	21.0346E-3	155.676E-12	661.318E-3	-518.075E-6
3.98949E-3	155.964E-12	672.037E-3	-6.31164E-3	154.921E-12	679.312E-3	2.41288E-3
3.98449E-3	155.850E-12	687.242E-3	-29.2127E-3	155.152E-12	676.990E-3	14.4467E-3
3.97949E-3	155.516E-12	686.193E-3	-30.6679E-3	155.264E-12	667.261E-3	32.9076E-3
3.97449E-3	154.462E-12	658.264E-3	-8.14705E-3	154.330E-12	667.898E-3	15.2668E-3
3.96948E-3	154.548E-12	649.887E-3	5.94443E-3	153.910E-12	658.833E-3	-18.4220E-3
3.96448E-3	154.204E-12	653.917E-3	-847.455E-6	152.504E-12	663.467E-3	-22.3731E-3
3.95948E-3	153.904E-12	655.819E-3	-6.72513E-3	152.621E-12	690.302E-3	-19.5997E-3
3.95448E-3	152.720E-12	673.544E-3	-10.1446E-3	151.619E-12	685.192E-3	-8.90822E-3
3.94947E-3	151.562E-12	681.665E-3	-9.50709E-3	150.994E-12	654.062E-3	17.1764E-3
3.94447E-3	151.419E-12	668.056E-3	-11.9098E-3	150.555E-12	635.280E-3	10.6187E-3
3.93947E-3	150.831E-12	653.191E-3	-22.1091E-3	150.536E-12	626.252E-3	-25.4399E-3
3.93447E-3	149.807E-12	648.366E-3	-31.4971E-3	150.012E-12	620.759E-3	-39.0653E-3
3.92946E-3	149.620E-12	643.228E-3	-43.4249E-3	151.033E-12	623.134E-3	-23.8282E-3
3.92446E-3	149.161E-12	639.665E-3	-49.5453E-3	150.723E-12	629.891E-3	-18.4851E-3
3.91946E-3	149.315E-12	650.243E-3	-45.2478E-3	150.991E-12	646.351E-3	-19.3458E-3
3.91446E-3	149.489E-12	680.981E-3	-43.7127E-3	150.994E-12	668.864E-3	-4.01676E-3
3.90945E-3	149.579E-12	682.767E-3	-37.5402E-3	150.944E-12	680.897E-3	1.92810E-3
3.90445E-3	149.842E-12	638.859E-3	-10.0411E-3	151.975E-12	680.189E-3	-4.37040E-3
3.89945E-3	150.209E-12	608.254E-3	12.7561E-3	150.995E-12	670.049E-3	-8.52566E-3
3.89445E-3	150.091E-12	601.262E-3	6.69736E-3	151.267E-12	659.843E-3	-12.4070E-3
3.88944E-3	149.516E-12	626.407E-3	-8.73247E-3	150.814E-12	662.830E-3	-6.15047E-3
3.88444E-3	149.549E-12	657.744E-3	-11.9391E-3	151.031E-12	676.349E-3	5.82016E-3
3.87944E-3	148.845E-12	652.719E-3	-9.94763E-3	150.409E-12	681.393E-3	-2.22661E-3
3.87444E-3	149.034E-12	646.861E-3	-13.5096E-3	149.936E-12	672.881E-3	-9.07513E-3
3.86943E-3	148.616E-12	636.958E-3	-6.22525E-3	150.136E-12	663.367E-3	-2.06451E-3
3.86443E-3	148.479E-12	618.419E-3	8.61674E-3	150.036E-12	663.250E-3	-9.28843E-3
3.85943E-3	148.200E-12	652.079E-3	6.08574E-3	148.933E-12	662.076E-3	-15.9450E-3
3.85443E-3	147.866E-12	690.960E-3	-9.97498E-3	147.751E-12	642.514E-3	-17.2133E-3
3.84942E-3	146.639E-12	671.410E-3	-20.1707E-3	146.968E-12	624.743E-3	-35.0420E-3
3.84442E-3	146.724E-12	650.105E-3	-15.3405E-3	146.707E-12	637.903E-3	-40.5534E-3
3.83942E-3	146.477E-12	650.933E-3	-3.24120E-3	145.968E-12	665.117E-3	-30.5488E-3
3.83442E-3	145.800E-12	641.536E-3	-17.7077E-3	145.183E-12	681.759E-3	-32.8048E-3
3.82941E-3	145.078E-12	635.079E-3	-37.5541E-3	144.642E-12	668.886E-3	-21.4073E-3
3.82441E-3	145.097E-12	642.191E-3	-30.4649E-3	145.891E-12	653.655E-3	-4.03715E-3
3.81941E-3	146.086E-12	648.459E-3	-6.44463E-3	146.224E-12	658.524E-3	-8.02635E-3
3.81441E-3	145.438E-12	675.156E-3	1.91348E-3	145.920E-12	634.215E-3	-12.5341E-3
3.80940E-3	145.433E-12	687.432E-3	-15.9340E-3	145.772E-12	612.970E-3	-15.6272E-3
3.80440E-3	144.557E-12	663.676E-3	-26.1404E-3	147.036E-12	632.004E-3	-10.4599E-3
3.79940E-3	145.442E-12	651.651E-3	-10.2947E-3	146.611E-12	634.198E-3	13.7885E-3
3.79440E-3	145.484E-12	659.205E-3	7.60357E-3	146.586E-12	643.324E-3	30.8646E-3
3.78939E-3	146.025E-12	665.871E-3	6.25912E-3	146.899E-12	677.710E-3	20.1650E-3
3.78439E-3	145.699E-12	665.555E-3	1.54648E-3	147.412E-12	692.343E-3	9.13478E-3
3.77939E-3	145.722E-12	664.129E-3	-170.062E-6	146.927E-12	686.266E-3	1.38867E-3
3.77439E-3	146.296E-12	663.725E-3	-516.052E-6	145.947E-12	670.754E-3	-16.4315E-3
3.76938E-3	145.798E-12	670.361E-3	-5.14652E-3	146.467E-12	647.275E-3	-21.9790E-3
3.76438E-3	145.719E-12	690.921E-3	-14.3773E-3	145.334E-12	640.738E-3	-9.69660E-3
3.75938E-3	145.594E-12	699.584E-3	-18.3041E-3	144.703E-12	658.272E-3	2.49568E-3
3.75438E-3	145.003E-12	679.769E-3	-14.3468E-3	144.227E-12	670.257E-3	8.01636E-3
3.74937E-3	145.111E-12	669.977E-3	-12.8418E-3	144.075E-12	668.861E-3	7.13984E-3
3.74437E-3	145.478E-12	691.198E-3	744.219E-6	143.392E-12	664.749E-3	4.44868E-3
3.73937E-3	145.363E-12	706.205E-3	26.4691E-3	142.598E-12	662.057E-3	14.0815E-3
3.73437E-3	144.439E-12	698.838E-3	24.7311E-3	142.928E-12	660.428E-3	17.2045E-3
3.72936E-3	144.917E-12	676.667E-3	9.75323E-3	142.576E-12	656.413E-3	-1.81274E-3
3.72436E-3	144.024E-12	640.354E-3	-13.8120E-3	142.946E-12	647.819E-3	-24.8552E-3
3.71936E-3	143.389E-12	635.616E-3	-58.6259E-3	141.582E-12	641.537E-3	-43.9987E-3
3.71436E-3	142.491E-12	654.760E-3	-69.5930E-3	141.761E-12	655.999E-3	-64.0127E-3
3.70935E-3	141.858E-12	653.673E-3	-38.0872E-3	142.239E-12	665.962E-3	-54.2194E-3
3.70435E-3	141.309E-12	655.243E-3	-19.5448E-3	142.044E-12	649.623E-3	-18.7575E-3
3.69935E-3	141.080E-12	660.847E-3	-3.76620E-3	141.838E-12	637.837E-3	-5.82708E-3
3.69435E-3	141.039E-12	660.603E-3	1.93992E-3	141.267E-12	635.640E-3	-22.7201E-3
3.68934E-3	139.748E-12	663.496E-3	-5.77327E-3	142.581E-12	652.648E-3	-33.0519E-3
3.68434E-3	139.802E-12	662.822E-3	-6.70282E-3	142.244E-12	684.142E-3	-26.9936E-3
3.67934E-3	138.920E-12	648.550E-3	-15.3278E-3	142.456E-12	684.595E-3	-23.5466E-3
3.67434E-3	139.612E-12	639.137E-3	-21.5109E-3	141.920E-12	656.832E-3	-9.80274E-3
3.66933E-3	139.479E-12	638.924E-3	-9.08268E-3	141.908E-12	637.395E-3	5.03589E-3
3.66433E-3	139.938E-12	635.096E-3	13.5364E-3	141.020E-12	645.706E-3	9.94601E-3
3.65933E-3	139.706E-12	654.116E-3	6.69258E-3	141.065E-12	668.867E-3	5.73073E-3
3.65433E-3	140.201E-12	678.338E-3	-13.5313E-3	140.074E-12	681.412E-3	-2.32042E-3
3.64932E-3	140.459E-12	677.102E-3	-21.9350E-3	139.257E-12	672.181E-3	-12.7399E-3
3.64432E-3	140.278E-12	677.005E-3	-37.8239E-3	138.629E-12	649.851E-3	-29.1753E-3
3.63932E-3	139.978E-12	677.031E-3	-45.1084E-3	137.978E-12	643.431E-3	-31.7069E-3
3.63432E-3	138.700E-12	666.189E-3	-32.1453E-3	138.540E-12	650.845E-3	-20.6668E-3
3.62931E-3	137.822E-12	671.187E-3	-12.5765E-3	136.963E-12	648.694E-3	-19.7155E-3
3.62431E-3	137.808E-12	677.225E-3	-5.60995E-3	136.685E-12	653.032E-3	-23.6234E-3
3.61931E-3	136.977E-12	660.673E-3	-28.9883E-3	136.394E-12	652.384E-3	-20.0614E-3
3.61431E-3	135.876E-12	655.789E-3	-54.3627E-3	137.017E-12	639.870E-3	-20.9384E-3
3.60930E-3	135.049E-12	674.122E-3	-57.1950E-3	137.215E-12	639.072E-3	-22.1843E-3
3.60430E-3	135.076E-12	666.983E-3	-52.4987E-3	137.043E-12	642.496E-3	-10.6572E-3
3.59930E-3	134.371E-12	641.496E-3	-27.7616E-3	137.080E-12	642.199E-3	-3.12487E-3
3.59430E-3	134.485E-12	642.304E-3	-3.90973E-3	137.196E-12	653.388E-3	-11.5110E-3
3.58929E-3	133.486E-12	643.656E-3	-9.29387E-3	137.683E-12	680.605E-3	-28.8495E-3
3.58429E-3	134.083E-12	631.324E-3	-16.7508E-3	138.002E-12	698.219E-3	-41.7040E-3
3.57929E-3	133.930E-12	628.441E-3	-27.0497E-3	138.240E-12	684.344E-3	-33.7406E-3
3.57429E-3	134.242E-12	625.275E-3	-40.8260E-3	136.857E-12	664.665E-3	-13.7568E-3
3.56928E-3	134.773E-12	617.772E-3	-32.4867E-3	136.915E-12	660.428E-3	-8.56812E-3
3.56428E-3	135.320E-12	640.556E-3	-17.8204E-3	137.137E-12	646.733E-3	-14.3767E-3
3.55928E-3	135.329E-12	665.272E-3	-16.0430E-3	136.743E-12	639.782E-3	-17.7323E-3
3.55428E-3	134.997E-12	660.310E-3	-10.2821E-3	135.280E-12	655.222E-3	-21.5744E-3
3.54927E-3	135.376E-12	659.635E-3	-10.6021E-3	134.660E-12	658.889E-3	-15.5925E-3
3.54427E-3	136.065E-12	666.355E-3	-18.2527E-3	135.458E-12	647.199E-3	-2.96907E-3
3.53927E-3	136.080E-12	663.114E-3	-14.4980E-3	134.093E-12	643.122E-3	-407.716E-6
3.53427E-3	134.862E-12	664.259E-3	-6.21454E-3	133.550E-12	661.921E-3	-11.2647E-3
3.52926E-3	134.032E-12	657.748E-3	-19.3837E-3	133.000E-12	684.783E-3	-25.5512E-3
3.52426E-3	133.675E-12	632.615E-3	-38.5112E-3	133.527E-12	679.588E-3	-34.2920E-3
3.51926E-3	133.266E-12	623.437E-3	-27.7975E-3	133.304E-12	670.918E-3	-45.5917E-3
3.51426E-3	132.969E-12	630.326E-3	-19.0020E-3	133.561E-12	674.589E-3	-49.5344E-3
3.50925E-3	131.800E-12	636.402E-3	-48.6782E-3	133.336E-12	673.483E-3	-42.7522E-3
3.50425E-3	131.669E-12	643.025E-3	-66.9078E-3	133.425E-12	667.851E-3	-41.1126E-3
3.49925E-3	131.734E-12	647.234E-3	-38.6932E-3	133.500E-12	659.960E-3	-33.2429E-3
3.49425E-3	131.619E-12	647.121E-3	-5.96013E-3	133.114E-12	664.046E-3	-29.5027E-3
3.48924E-3	131.133E-12	653.898E-3	-9.88715E-3	134.297E-12	676.557E-3	-36.0310E-3
3.48424E-3	131.611E-12	678.914E-3	-36.7090E-3	134.018E-12	684.140E-3	-21.3298E-3
3.47924E-3	131.830E-12	682.003E-3	-53.3455E-3	133.870E-12	693.383E-3	1.95174E-3
3.47424E-3	131.712E-12	657.086E-3	-48.7591E-3	133.220E-12	700.164E-3	12.6129E-3
3.46923E-3	132.591E-12	652.200E-3	-23.8834E-3	134.228E-12	693.810E-3	20.8430E-3
3.46423E-3	132.576E-12	652.146E-3	-4.46926E-3	135.112E-12	684.641E-3	18.3407E-3
3.45923E-3	131.870E-12	649.543E-3	-2.97602E-3	134.134E-12	692.993E-3	-6.25561E-3
3.45423E-3	131.779E-12	666.324E-3	-7.87110E-3	133.227E-12	704.233E-3	-12.6972E-3
3.44922E-3	132.577E-12	687.858E-3	-18.1019E-3	132.201E-12	695.645E-3	-2.21502E-3
3.44422E-3	131.817E-12	704.726E-3	-28.0014E-3	133.268E-12	677.391E-3	-8.42448E-3
3.43922E-3	130.483E-12	698.403E-3	-29.9953E-3	131.759E-12	656.763E-3	1.22428E-3
3.43422E-3	130.624E-12	662.201E-3	-28.0657E-3	130.060E-12	660.563E-3	17.5287E-3
3.42921E-3	130.265E-12	636.813E-3	-32.2013E-3	129.496E-12	674.324E-3	9.80887E-3
3.42421E-3	130.630E-12	643.000E-3	-33.2706E-3	130.849E-12	668.727E-3	-7.52075E-3
3.41921E-3	129.302E-12	667.973E-3	-25.8519E-3	130.649E-12	670.369E-3	-15.8736E-3
3.41421E-3	128.472E-12	683.316E-3	-23.9780E-3	128.763E-12	666.189E-3	-28.6664E-3
3.40920E-3	127.996E-12	687.339E-3	-26.4818E-3	128.648E-12	650.939E-3	-37.6802E-3
3.40420E-3	128.634E-12	687.650E-3	-25.5321E-3	129.101E-12	654.838E-3	-32.5700E-3
3.39920E-3	128.057E-12	678.736E-3	-20.1357E-3	129.254E-12	656.795E-3	-32.9986E-3
3.39420E-3	126.819E-12	667.064E-3	-22.5951E-3	128.038E-12	654.607E-3	-11.2497E-3
3.38919E-3	126.626E-12	650.151E-3	-29.3370E-3	128.309E-12	660.907E-3	10.5733E-3
3.38419E-3	127.989E-12	638.870E-3	-23.8979E-3	128.533E-12	670.192E-3	-12.3124E-3
3.37919E-3	128.642E-12	652.587E-3	-20.1274E-3	128.921E-12	688.073E-3	-29.7321E-3
3.37419E-3	127.219E-12	665.336E-3	-20.4027E-3	128.915E-12	682.519E-3	-13.6388E-3
3.36918E-3	126.830E-12	659.418E-3	-7.05811E-3	128.574E-12	666.536E-3	3.88083E-3
3.36418E-3	126.972E-12	658.068E-3	-10.5745E-3	129.279E-12	670.644E-3	6.52008E-3
3.35918E-3	127.757E-12	663.576E-3	-31.4506E-3	128.966E-12	672.639E-3	1.01621E-3
3.35418E-3	127.355E-12	665.979E-3	-31.1762E-3	128.645E-12	673.406E-3	-28.0040E-3
3.34917E-3	125.602E-12	661.668E-3	-23.6120E-3	127.517E-12	688.595E-3	-53.6712E-3
3.34417E-3	125.557E-12	648.981E-3	-25.7506E-3	126.575E-12	701.800E-3	-39.8044E-3
3.33917E-3	126.305E-12	652.325E-3	-26.7173E-3	126.084E-12	694.044E-3	-24.5324E-3
3.33417E-3	127.308E-12	677.326E-3	-13.4597E-3	125.769E-12	676.377E-3	-20.7562E-3
3.32916E-3	126.291E-12	686.355E-3	-9.78823E-3	124.706E-12	665.675E-3	-14.9564E-3
3.32416E-3	124.991E-12	678.289E-3	-29.0028E-3	124.178E-12	663.421E-3	-16.9680E-3
3.31916E-3	124.969E-12	670.178E-3	-37.4308E-3	123.745E-12	651.558E-3	-28.9302E-3
3.31416E-3	126.303E-12	665.599E-3	-32.6563E-3	123.802E-12	640.626E-3	-17.0309E-3
3.30915E-3	126.021E-12	670.909E-3	-15.2604E-3	123.472E-12	647.971E-3	-3.22647E-3
3.30415E-3	124.121E-12	678.505E-3	100.873E-6	123.487E-12	650.794E-3	-18.8032E-3
3.29915E-3	123.800E-12	679.896E-3	-16.8566E-3	123.504E-12	654.958E-3	-22.8424E-3
3.29415E-3	124.425E-12	682.142E-3	-39.1543E-3	124.097E-12	669.896E-3	-13.4706E-3
3.28914E-3	124.548E-12	690.436E-3	-34.9308E-3	124.946E-12	669.612E-3	-19.4954E-3
3.28414E-3	123.642E-12	697.553E-3	-15.4786E-3	125.021E-12	673.934E-3	-22.4973E-3
3.27914E-3	121.942E-12	696.544E-3	-10.6761E-3	124.124E-12	703.909E-3	-11.4355E-3
3.27414E-3	122.047E-12	684.560E-3	-25.0450E-3	124.321E-12	715.072E-3	-7.77285E-3
3.26913E-3	123.292E-12	673.893E-3	-29.3059E-3	125.392E-12	698.160E-3	2.35164E-3
3.26413E-3	122.261E-12	668.092E-3	-15.1896E-3	125.641E-12	701.834E-3	9.66436E-3
3.25913E-3	120.452E-12	663.447E-3	-2.08165E-3	124.495E-12	721.731E-3	-14.3820E-3
3.25413E-3	120.933E-12	662.961E-3	-7.79212E-3	124.175E-12	727.193E-3	-25.1448E-3
3.24912E-3	122.602E-12	664.520E-3	-16.8322E-3	124.072E-12	714.604E-3	-14.4685E-3
3.24412E-3	122.504E-12	670.342E-3	-19.2356E-3	125.112E-12	694.986E-3	-15.2639E-3
3.23912E-3	121.000E-12	669.534E-3	-21.3524E-3	123.967E-12	673.355E-3	-12.4873E-3
3.23412E-3	121.110E-12	650.291E-3	-12.5625E-3	121.841E-12	650.860E-3	-18.2362E-3
3.22911E-3	121.918E-12	643.402E-3	-14.2663E-3	121.011E-12	654.592E-3	-34.9912E-3
3.22411E-3	122.577E-12	656.752E-3	-25.9945E-3	121.179E-12	688.380E-3	-29.3620E-3
3.21911E-3	121.395E-12	666.167E-3	-17.0849E-3	120.559E-12	707.519E-3	-16.7149E-3
3.21411E-3	119.884E-12	670.480E-3	-16.0312E-3	119.324E-12	696.181E-3	-13.3276E-3
3.20910E-3	119.920E-12	678.127E-3	-22.6606E-3	118.275E-12	673.942E-3	-10.6252E-3
3.20410E-3	120.467E-12	693.979E-3	-6.45323E-3	118.867E-12	665.047E-3	-3.85916E-3
3.19910E-3	119.882E-12	693.111E-3	-11.7620E-3	118.917E-12	667.275E-3	-3.27282E-3
3.19410E-3	118.269E-12	673.107E-3	-37.1428E-3	118.647E-12	659.804E-3	-16.2012E-3
3.18909E-3	117.808E-12	655.786E-3	-31.4449E-3	117.715E-12	663.851E-3	-17.1006E-3
3.18409E-3	117.486E-12	652.960E-3	-14.1179E-3	118.722E-12	685.620E-3	-8.42681E-3
3.17909E-3	117.332E-12	664.899E-3	-5.46328E-3	118.501E-12	689.139E-3	-14.3674E-3
3.17409E-3	116.533E-12	670.819E-3	2.79783E-3	118.447E-12	674.072E-3	-26.2410E-3
3.16908E-3	116.056E-12	671.807E-3	-4.10454E-3	118.145E-12	662.176E-3	-37.5754E-3
3.16408E-3	116.155E-12	678.820E-3	-10.7656E-3	119.033E-12	652.925E-3	-34.9937E-3
3.15908E-3	116.807E-12	684.598E-3	3.92802E-3	118.771E-12	658.530E-3	-21.4613E-3
3.15408E-3	117.064E-12	685.886E-3	17.9440E-3	118.301E-12	675.636E-3	-29.8254E-3
3.14907E-3	116.304E-12	684.080E-3	15.4037E-3	118.707E-12	678.723E-3	-36.1322E-3
3.14407E-3	116.455E-12	682.555E-3	-6.19547E-3	118.352E-12	675.750E-3	-22.2823E-3
3.13907E-3	116.648E-12	677.927E-3	-30.2123E-3	118.310E-12	670.839E-3	-18.1336E-3
3.13407E-3	117.483E-12	676.438E-3	-34.9098E-3	116.601E-12	660.956E-3	-22.2802E-3
3.12906E-3	117.488E-12	691.846E-3	-27.8500E-3	116.098E-12	651.112E-3	-13.9415E-3
3.12406E-3	116.599E-12	717.855E-3	-19.3688E-3	115.982E-12	656.804E-3	-4.69917E-3
3.11906E-3	116.087E-12	721.808E-3	-16.1091E-3	115.639E-12	670.542E-3	-9.25108E-3
3.11406E-3	116.332E-12	686.879E-3	-25.4451E-3	114.644E-12	663.878E-3	-15.0298E-3
3.10905E-3	115.929E-12	660.181E-3	-26.6053E-3	113.824E-12	659.483E-3	-23.4801E-3
3.10405E-3	114.264E-12	667.883E-3	-16.8656E-3	114.024E-12	661.296E-3	-29.6790E-3
3.09905E-3	113.043E-12	675.280E-3	-11.1503E-3	113.806E-12	660.516E-3	-21.8010E-3
3.09405E-3	112.683E-12	677.496E-3	-3.14885E-3	114.553E-12	676.985E-3	-9.32501E-3
3.08904E-3	112.486E-12	678.058E-3	9.33421E-3	114.104E-12	688.775E-3	-9.96048E-3
3.08404E-3	111.218E-12	671.646E-3	18.3146E-3	113.243E-12	689.191E-3	-26.1442E-3
3.07904E-3	110.260E-12	669.125E-3	19.6763E-3	112.667E-12	700.319E-3	-36.9386E-3
3.07404E-3	110.598E-12	672.441E-3	19.4589E-3	113.988E-12	698.174E-3	-39.5552E-3
3.06903E-3	111.202E-12	670.358E-3	7.76252E-3	114.713E-12	678.372E-3	-31.6486E-3
3.06403E-3	110.717E-12	659.105E-3	1.93439E-3	113.817E-12	675.875E-3	-24.8639E-3
3.05903E-3	110.506E-12	647.207E-3	-1.56214E-3	113.681E-12	672.499E-3	-40.0021E-3
3.05403E-3	111.572E-12	646.344E-3	-28.1662E-3	113.489E-12	666.944E-3	-43.9397E-3
3.04902E-3	111.696E-12	655.554E-3	-46.2043E-3	114.433E-12	686.123E-3	-21.1112E-3
3.04402E-3	111.812E-12	670.836E-3	-41.3588E-3	113.840E-12	709.843E-3	-13.2855E-3
3.03902E-3	112.040E-12	680.610E-3	-40.5394E-3	113.065E-12	715.164E-3	-17.1006E-3
3.03402E-3	111.942E-12	672.943E-3	-43.4033E-3	112.265E-12	710.512E-3	-496.782E-6
3.02901E-3	112.605E-12	668.562E-3	-25.9783E-3	112.690E-12	710.384E-3	18.6473E-3
3.02401E-3	112.344E-12	672.579E-3	-13.9516E-3	112.784E-12	697.476E-3	14.7405E-3
3.01901E-3	112.514E-12	681.358E-3	-23.6298E-3	111.940E-12	686.503E-3	-4.34324E-3
3.01401E-3	111.683E-12	696.584E-3	-25.0453E-3	111.091E-12	690.019E-3	-26.7842E-3
3.00900E-3	111.657E-12	689.979E-3	-25.3789E-3	110.522E-12	680.120E-3	-35.4956E-3
3.00400E-3	111.066E-12	664.003E-3	-35.2692E-3	110.462E-12	662.565E-3	-27.7585E-3
2.99900E-3	110.630E-12	659.867E-3	-35.1190E-3	110.279E-12	661.360E-3	-32.0493E-3
2.99400E-3	109.383E-12	671.025E-3	-35.0176E-3	110.167E-12	669.839E-3	-39.1807E-3
2.98899E-3	108.436E-12	678.133E-3	-36.1484E-3	109.382E-12	676.857E-3	-21.3342E-3
2.98399E-3	108.572E-12	695.171E-3	-23.2160E-3	109.360E-12	694.034E-3	3.96039E-3
2.97899E-3	108.777E-12	703.675E-3	-25.7170E-3	109.531E-12	698.477E-3	3.38371E-3
2.97399E-3	108.123E-12	690.666E-3	-43.8220E-3	109.587E-12	676.173E-3	-9.85194E-3
2.96898E-3	107.466E-12	672.084E-3	-37.9567E-3	109.409E-12	666.211E-3	-6.42530E-3
2.96398E-3	107.825E-12	652.524E-3	-21.2788E-3	109.303E-12	668.003E-3	10.4204E-3
2.95898E-3	108.388E-12	644.853E-3	-17.0292E-3	109.688E-12	668.015E-3	19.5730E-3
2.95398E-3	108.810E-12	658.132E-3	-13.0102E-3	109.909E-12	675.375E-3	15.7814E-3
2.94897E-3	108.392E-12	672.436E-3	-10.3314E-3	110.065E-12	668.425E-3	10.1037E-3
2.94397E-3	108.397E-12	676.801E-3	-17.1458E-3	109.713E-12	668.550E-3	17.0019E-3
2.93897E-3	108.902E-12	697.986E-3	-22.6585E-3	109.229E-12	690.481E-3	29.0048E-3
2.93397E-3	109.875E-12	703.509E-3	-14.4484E-3	109.112E-12	686.114E-3	11.4314E-3
2.92896E-3	110.133E-12	694.356E-3	-7.42031E-3	109.459E-12	678.456E-3	-33.3107E-3
2.92396E-3	108.816E-12	719.437E-3	-1.39326E-3	108.671E-12	694.799E-3	-55.4152E-3
2.91896E-3	108.621E-12	741.575E-3	16.0513E-3	108.128E-12	699.776E-3	-37.8135E-3
2.91396E-3	108.730E-12	729.833E-3	12.9057E-3	107.356E-12	682.197E-3	-15.3235E-3
2.90895E-3	109.399E-12	703.485E-3	-13.7901E-3	106.970E-12	681.538E-3	-6.97367E-3
2.90395E-3	107.872E-12	696.216E-3	-27.3503E-3	106.245E-12	686.664E-3	-10.3891E-3
2.89895E-3	106.732E-12	704.016E-3	-31.2293E-3	105.348E-12	665.236E-3	-21.1751E-3
2.89395E-3	106.486E-12	711.817E-3	-41.9099E-3	104.935E-12	656.216E-3	-21.8559E-3
2.88894E-3	106.321E-12	721.076E-3	-31.9928E-3	104.239E-12	662.254E-3	-22.4910E-3
2.88394E-3	105.308E-12	711.433E-3	-12.1195E-3	103.569E-12	651.298E-3	-48.5761E-3
2.87894E-3	104.773E-12	680.683E-3	-7.19959E-3	103.519E-12	649.516E-3	-61.8010E-3
2.87394E-3	104.453E-12	662.760E-3	-7.03549E-3	104.092E-12	666.320E-3	-51.7735E-3
2.86893E-3	103.772E-12	672.571E-3	-12.3998E-3	103.641E-12	677.669E-3	-44.7097E-3
2.86393E-3	103.225E-12	677.587E-3	-22.5648E-3	103.685E-12	690.559E-3	-27.5071E-3
2.85893E-3	102.819E-12	672.439E-3	-36.4529E-3	104.252E-12	704.517E-3	-11.3435E-3
2.85393E-3	102.967E-12	673.072E-3	-42.2995E-3	104.770E-12	713.097E-3	-9.82524E-3
2.84892E-3	102.756E-12	678.687E-3	-27.7824E-3	105.166E-12	727.459E-3	-15.1236E-3
2.84392E-3	102.767E-12	690.776E-3	-7.56149E-3	104.273E-12	735.227E-3	-28.0393E-3
2.83892E-3	102.395E-12	709.163E-3	-7.04038E-3	103.975E-12	723.273E-3	-33.9797E-3
2.83392E-3	102.300E-12	716.381E-3	-17.1635E-3	104.065E-12	713.854E-3	-18.5193E-3
2.82891E-3	102.690E-12	703.548E-3	-19.9178E-3	104.412E-12	716.863E-3	-22.4574E-3
2.82391E-3	103.105E-12	691.447E-3	-19.0030E-3	103.712E-12	713.691E-3	-44.8891E-3
2.81891E-3	102.758E-12	697.474E-3	-18.6329E-3	103.014E-12	697.272E-3	-38.4779E-3
2.81391E-3	102.389E-12	710.093E-3	-26.1857E-3	102.567E-12	683.479E-3	-30.5222E-3
2.80890E-3	101.767E-12	695.599E-3	-41.2682E-3	101.936E-12	674.546E-3	-36.1607E-3
2.80390E-3	101.627E-12	669.330E-3	-53.0989E-3	102.481E-12	667.005E-3	-33.0841E-3
2.79890E-3	101.873E-12	683.347E-3	-46.3028E-3	100.711E-12	666.861E-3	-34.0580E-3
2.79390E-3	101.641E-12	700.805E-3	-28.2960E-3	99.5243E-12	669.026E-3	-35.9306E-3
2.78889E-3	100.786E-12	681.996E-3	-28.5864E-3	99.2157E-12	673.887E-3	-20.4667E-3
2.78389E-3	100.132E-12	680.542E-3	-37.4775E-3	99.7523E-12	683.056E-3	-13.1346E-3
2.77889E-3	100.397E-12	696.054E-3	-30.7631E-3	99.4854E-12	680.893E-3	-29.3459E-3
2.77389E-3	99.8173E-12	695.965E-3	-28.6848E-3	98.7859E-12	676.320E-3	-43.2091E-3
2.76888E-3	99.2661E-12	678.679E-3	-34.1337E-3	98.3590E-12	685.878E-3	-31.1790E-3
2.76388E-3	98.1082E-12	651.865E-3	-39.4266E-3	98.8322E-12	697.929E-3	-12.8378E-3
2.75888E-3	97.7286E-12	662.692E-3	-36.3466E-3	99.4139E-12	699.767E-3	-15.0051E-3
2.75388E-3	97.8765E-12	687.717E-3	-18.2385E-3	98.7278E-12	704.650E-3	-20.4464E-3
2.74887E-3	97.9268E-12	676.688E-3	-8.65440E-3	98.7619E-12	715.519E-3	-20.6408E-3
2.74387E-3	97.5773E-12	665.227E-3	-13.8496E-3	99.0159E-12	709.614E-3	-19.2355E-3
2.73887E-3	96.9455E-12	665.609E-3	-23.4863E-3	99.3328E-12	702.734E-3	-16.0835E-3
2.73387E-3	97.5359E-12	664.689E-3	-26.4892E-3	98.9393E-12	705.483E-3	-22.3523E-3
2.72886E-3	97.5643E-12	675.194E-3	-35.9520E-3	98.2096E-12	691.939E-3	-25.6279E-3
2.72386E-3	98.0602E-12	706.225E-3	-47.2854E-3	97.7213E-12	686.016E-3	-19.2857E-3
2.71886E-3	97.8285E-12	717.294E-3	-26.3110E-3	98.1047E-12	698.036E-3	-27.0183E-3
2.71386E-3	98.1862E-12	701.861E-3	-3.89309E-3	97.6349E-12	700.359E-3	-24.0177E-3
2.70885E-3	98.6780E-12	701.967E-3	-14.5616E-3	97.0300E-12	699.972E-3	-5.82961E-3
2.70385E-3	98.9132E-12	704.205E-3	-17.8025E-3	96.4107E-12	703.330E-3	-3.69852E-3
2.69885E-3	98.1677E-12	691.374E-3	-9.91345E-3	96.3929E-12	691.135E-3	1.68025E-3
2.69385E-3	97.8536E-12	696.725E-3	-6.84637E-3	96.7409E-12	673.193E-3	14.1905E-3
2.68884E-3	97.8402E-12	718.938E-3	-3.61846E-3	96.7591E-12	675.596E-3	9.23539E-3
2.68384E-3	97.3312E-12	709.143E-3	-10.1721E-3	96.4919E-12	684.549E-3	-5.14751E-3
2.67884E-3	96.4583E-12	689.865E-3	-16.4679E-3	95.6453E-12	686.877E-3	-11.7553E-3
2.67384E-3	95.8954E-12	688.996E-3	-10.8774E-3	95.2864E-12	682.848E-3	-11.0424E-3
2.66883E-3	95.5259E-12	688.732E-3	-12.5853E-3	95.6858E-12	683.852E-3	-13.3116E-3
2.66383E-3	94.8588E-12	686.597E-3	-20.7052E-3	95.6341E-12	689.657E-3	-20.8707E-3
2.65883E-3	93.6770E-12	694.170E-3	-14.2164E-3	95.8912E-12	694.412E-3	-27.7557E-3
2.65383E-3	92.8285E-12	704.543E-3	-13.8464E-3	95.0087E-12	701.689E-3	-32.6694E-3
2.64882E-3	92.6688E-12	701.669E-3	-20.5991E-3	95.6060E-12	699.954E-3	-28.5397E-3
2.64382E-3	92.6018E-12	696.224E-3	-23.9196E-3	95.3694E-12	697.560E-3	-19.2309E-3
2.63882E-3	92.5540E-12	687.665E-3	-20.6584E-3	95.3558E-12	710.268E-3	-14.1698E-3
2.63382E-3	92.5065E-12	675.264E-3	-1.10579E-3	94.4547E-12	724.246E-3	-9.63871E-3
2.62881E-3	92.3943E-12	677.198E-3	9.21626E-3	94.6847E-12	743.747E-3	-7.04135E-3
2.62381E-3	93.1026E-12	699.936E-3	-4.48314E-3	94.8631E-12	740.758E-3	-4.93003E-3
2.61881E-3	93.4692E-12	706.786E-3	-13.9990E-3	95.1571E-12	693.646E-3	-4.42382E-3
2.61381E-3	93.4960E-12	690.201E-3	-15.0553E-3	94.3280E-12	667.532E-3	-4.52333E-3
2.60880E-3	93.1320E-12	679.138E-3	-23.9956E-3	93.8262E-12	678.752E-3	-10.5137E-3
2.60380E-3	92.9319E-12	681.396E-3	-25.4083E-3	93.8002E-12	685.792E-3	-13.5730E-3
2.59880E-3	93.0849E-12	688.821E-3	-21.9416E-3	93.4271E-12	697.991E-3	-5.02421E-3
2.59380E-3	93.3848E-12	706.351E-3	-25.8838E-3	92.7074E-12	719.413E-3	-8.95235E-3
2.58879E-3	93.0161E-12	728.678E-3	-31.9642E-3	92.0920E-12	721.394E-3	-22.8976E-3
2.58379E-3	92.0206E-12	731.406E-3	-30.0302E-3	92.4978E-12	719.947E-3	-22.6209E-3
2.57879E-3	91.4375E-12	728.547E-3	-30.8080E-3	91.9578E-12	719.335E-3	-8.43463E-3
2.57379E-3	90.9182E-12	723.307E-3	-35.3218E-3	91.2299E-12	699.834E-3	-4.58081E-3
2.56878E-3	90.6963E-12	713.646E-3	-26.0975E-3	90.5309E-12	685.033E-3	-9.75952E-3
2.56378E-3	89.6892E-12	706.384E-3	-7.38940E-3	90.5177E-12	691.427E-3	-17.9144E-3
2.55878E-3	89.1417E-12	703.920E-3	3.36558E-3	89.9405E-12	703.380E-3	-35.0445E-3
2.55378E-3	89.0355E-12	706.275E-3	-8.12562E-3	90.0551E-12	716.136E-3	-27.2500E-3
2.54877E-3	89.0638E-12	702.799E-3	-9.75331E-3	89.6972E-12	727.183E-3	-7.07220E-3
2.54377E-3	88.0555E-12	701.801E-3	8.47842E-3	88.8856E-12	719.997E-3	-12.1404E-3
2.53877E-3	87.4524E-12	705.710E-3	1.93992E-3	88.9627E-12	713.292E-3	-17.3980E-3
2.53377E-3	87.4291E-12	703.960E-3	-11.9947E-3	89.4428E-12	718.684E-3	-21.1575E-3
2.52876E-3	88.0371E-12	698.988E-3	-10.6073E-3	89.7562E-12	719.333E-3	-27.2124E-3
2.52376E-3	88.1966E-12	695.893E-3	-22.5537E-3	89.1268E-12	729.262E-3	-25.4828E-3
2.51876E-3	88.3034E-12	694.979E-3	-34.5060E-3	88.7571E-12	740.346E-3	-24.0488E-3
2.51376E-3	88.1033E-12	700.273E-3	-40.4872E-3	88.9539E-12	732.265E-3	-24.6409E-3
2.50875E-3	88.2620E-12	707.093E-3	-42.0730E-3	89.2904E-12	723.301E-3	-27.9129E-3
2.50375E-3	88.8841E-12	713.217E-3	-27.2767E-3	88.1812E-12	725.711E-3	-26.8196E-3
2.49875E-3	89.0109E-12	717.452E-3	-25.5527E-3	87.5659E-12	722.117E-3	-12.9724E-3
2.49375E-3	88.9371E-12	712.665E-3	-35.4773E-3	87.0466E-12	708.010E-3	-8.16945E-3
2.48874E-3	88.4738E-12	713.571E-3	-31.8276E-3	87.3989E-12	702.784E-3	-18.5365E-3
2.48374E-3	88.9533E-12	717.900E-3	-23.6647E-3	86.3607E-12	699.695E-3	-25.0709E-3
2.47874E-3	88.7517E-12	711.250E-3	-24.4729E-3	85.4085E-12	694.844E-3	-22.2069E-3
2.47374E-3	88.0273E-12	704.770E-3	-17.5224E-3	84.7309E-12	701.426E-3	-9.79960E-3
2.46873E-3	86.7861E-12	711.895E-3	-821.167E-6	84.6490E-12	709.986E-3	-2.14973E-3
2.46373E-3	86.4762E-12	731.793E-3	-4.48131E-3	83.6826E-12	705.977E-3	-7.52180E-3
2.45873E-3	86.6698E-12	737.429E-3	-22.7667E-3	83.4689E-12	700.222E-3	-5.54506E-3
2.45373E-3	85.6789E-12	720.308E-3	-38.6276E-3	83.4964E-12	709.187E-3	-1.11644E-3
2.44872E-3	84.7213E-12	706.837E-3	-49.0934E-3	83.4536E-12	715.593E-3	-9.99180E-3
2.44372E-3	83.9791E-12	712.167E-3	-37.5649E-3	83.0792E-12	702.359E-3	-13.5473E-3
2.43872E-3	84.4895E-12	722.163E-3	-24.4967E-3	83.2857E-12	697.529E-3	-10.1149E-3
2.43372E-3	84.4771E-12	723.210E-3	-35.2219E-3	83.2509E-12	704.491E-3	-4.96566E-3
2.42871E-3	83.3274E-12	729.593E-3	-36.3192E-3	83.3590E-12	710.527E-3	4.80894E-3
2.42371E-3	82.9770E-12	722.213E-3	-19.1873E-3	83.1860E-12	714.269E-3	8.76001E-3
2.41871E-3	83.7855E-12	701.819E-3	-4.51803E-3	83.7792E-12	702.383E-3	3.95642E-3
2.41371E-3	83.8302E-12	706.692E-3	-1.24748E-3	83.4127E-12	695.827E-3	-1.42400E-3
2.40870E-3	83.3107E-12	725.728E-3	1.51549E-3	82.9268E-12	710.787E-3	-1.58650E-3
2.40370E-3	83.2856E-12	731.769E-3	703.229E-6	82.9531E-12	724.456E-3	-1.24623E-3
2.39870E-3	83.5755E-12	726.649E-3	-8.80162E-3	82.7482E-12	734.240E-3	-720.843E-6
2.39370E-3	84.3525E-12	727.256E-3	-7.27751E-3	81.9717E-12	741.786E-3	-6.75998E-3
2.38869E-3	84.2347E-12	735.576E-3	-2.57985E-3	81.5734E-12	741.888E-3	-26.8125E-3
2.38369E-3	83.4645E-12	749.571E-3	-8.84115E-3	81.1437E-12	737.722E-3	-33.3483E-3
2.37869E-3	82.9736E-12	754.788E-3	-20.5321E-3	80.8588E-12	737.738E-3	-31.4656E-3
2.37369E-3	83.0214E-12	752.270E-3	-35.9617E-3	80.4312E-12	742.121E-3	-27.2107E-3
2.36868E-3	82.8536E-12	765.096E-3	-43.6121E-3	80.0022E-12	723.182E-3	-14.6650E-3
2.36368E-3	81.9856E-12	774.682E-3	-42.0985E-3	79.8769E-12	709.450E-3	-17.9266E-3
2.35868E-3	81.4941E-12	765.440E-3	-42.3152E-3	79.9222E-12	722.755E-3	-21.1310E-3
2.35368E-3	80.6965E-12	743.925E-3	-22.4383E-3	79.5480E-12	730.530E-3	-16.6669E-3
2.34867E-3	80.6867E-12	726.409E-3	-4.21982E-3	79.5785E-12	739.134E-3	-21.1561E-3
2.34367E-3	79.9948E-12	729.672E-3	-15.6973E-3	79.4390E-12	741.353E-3	-25.8842E-3
2.33867E-3	79.5557E-12	737.433E-3	-26.3030E-3	79.3296E-12	733.381E-3	-27.8723E-3
2.33367E-3	78.9779E-12	724.711E-3	-25.9844E-3	79.4163E-12	730.691E-3	-27.7029E-3
2.32866E-3	78.4100E-12	704.079E-3	-33.2448E-3	79.4936E-12	725.099E-3	-22.2254E-3
2.32366E-3	78.1100E-12	698.987E-3	-48.9598E-3	79.5274E-12	720.174E-3	-13.3929E-3
2.31866E-3	77.7570E-12	712.081E-3	-44.5234E-3	79.1878E-12	725.588E-3	-8.13572E-3
2.31366E-3	77.3972E-12	716.448E-3	-25.5311E-3	79.2415E-12	733.612E-3	-24.7035E-3
2.30865E-3	77.2450E-12	707.859E-3	-23.9745E-3	79.0859E-12	739.227E-3	-44.9559E-3
2.30365E-3	77.4087E-12	716.844E-3	-32.0950E-3	78.8412E-12	743.860E-3	-38.3140E-3
2.29865E-3	77.3089E-12	723.919E-3	-26.2326E-3	78.6953E-12	739.438E-3	-28.2817E-3
2.29365E-3	76.9557E-12	708.249E-3	-16.7934E-3	78.0372E-12	731.846E-3	-21.5327E-3
2.28864E-3	76.7378E-12	707.945E-3	-11.1601E-3	77.6083E-12	735.138E-3	-3.87352E-3
2.28364E-3	76.9591E-12	727.817E-3	-3.53228E-3	77.2720E-12	743.821E-3	2.80849E-3
2.27864E-3	77.1514E-12	736.849E-3	-4.04324E-3	76.5671E-12	747.140E-3	-12.7069E-3
2.27364E-3	76.3735E-12	735.503E-3	-5.79853E-3	76.2316E-12	742.168E-3	-25.7111E-3
2.26863E-3	75.9425E-12	731.766E-3	-8.70619E-3	75.6815E-12	738.096E-3	-28.2208E-3
2.26363E-3	76.2091E-12	731.756E-3	-18.0266E-3	75.5318E-12	737.325E-3	-26.8893E-3
2.25863E-3	76.0643E-12	734.762E-3	-23.7251E-3	74.9504E-12	735.822E-3	-20.4594E-3
2.25363E-3	75.5621E-12	733.654E-3	-16.0169E-3	74.6030E-12	738.247E-3	-26.0381E-3
2.24862E-3	74.7057E-12	729.762E-3	-3.29913E-3	74.1335E-12	743.169E-3	-34.4077E-3
2.24362E-3	74.7165E-12	724.181E-3	-2.05386E-3	74.3233E-12	746.620E-3	-23.9641E-3
2.23862E-3	74.2320E-12	725.028E-3	-9.17870E-3	74.0743E-12	748.663E-3	-17.9046E-3
2.23362E-3	73.5382E-12	742.678E-3	-23.5142E-3	73.8321E-12	739.048E-3	-28.5615E-3
2.22861E-3	72.9142E-12	757.430E-3	-39.5470E-3	74.3483E-12	731.136E-3	-29.2242E-3
2.22361E-3	72.8139E-12	757.670E-3	-34.4965E-3	74.1390E-12	742.420E-3	-14.4560E-3
2.21861E-3	72.8057E-12	751.638E-3	-13.9329E-3	73.8803E-12	754.441E-3	-11.2382E-3
2.21361E-3	72.2142E-12	745.049E-3	-6.97999E-3	73.4862E-12	763.614E-3	-12.6229E-3
2.20860E-3	71.7384E-12	756.246E-3	-15.0669E-3	73.6150E-12	779.468E-3	-7.16770E-3
2.20360E-3	71.3649E-12	764.078E-3	-19.4397E-3	73.5694E-12	782.783E-3	-4.02528E-3
2.19860E-3	71.3600E-12	746.876E-3	-17.4066E-3	72.9593E-12	760.091E-3	86.3297E-6
2.19360E-3	71.3664E-12	732.654E-3	-10.7713E-3	72.8533E-12	750.704E-3	-1.12508E-3
2.18859E-3	71.3317E-12	723.897E-3	-2.29285E-3	72.4947E-12	762.585E-3	-19.2981E-3
2.18359E-3	71.6385E-12	715.997E-3	-11.4318E-3	72.2024E-12	760.178E-3	-33.1325E-3
2.17859E-3	71.6873E-12	726.437E-3	-23.7486E-3	71.4301E-12	749.545E-3	-21.6534E-3
2.17359E-3	72.3854E-12	750.538E-3	-19.6185E-3	71.5218E-12	740.829E-3	-10.3348E-3
2.16858E-3	72.4632E-12	761.506E-3	-12.1986E-3	70.9619E-12	732.119E-3	-8.37316E-3
2.16358E-3	72.3540E-12	763.024E-3	-8.94731E-3	70.5706E-12	737.386E-3	3.17276E-3
2.15858E-3	71.7869E-12	762.360E-3	-17.7053E-3	69.5712E-12	746.128E-3	7.00719E-3
2.15358E-3	71.7094E-12	761.567E-3	-38.4998E-3	69.4947E-12	739.260E-3	7.49276E-3
2.14857E-3	71.6747E-12	761.884E-3	-44.6084E-3	69.2719E-12	738.237E-3	21.8724E-3
2.14357E-3	71.3759E-12	757.555E-3	-23.1049E-3	68.6512E-12	748.800E-3	16.5527E-3
2.13857E-3	70.2085E-12	759.419E-3	-4.72520E-3	68.1089E-12	745.145E-3	-11.7065E-3
2.13357E-3	69.9497E-12	771.791E-3	1.81654E-3	68.2465E-12	742.838E-3	-29.6796E-3
2.12856E-3	69.9132E-12	783.435E-3	-352.286E-6	68.2780E-12	773.492E-3	-31.9264E-3
2.12356E-3	69.1453E-12	783.768E-3	-14.7111E-3	68.2403E-12	803.071E-3	-31.1164E-3
2.11856E-3	68.2362E-12	786.711E-3	-27.4569E-3	67.9300E-12	794.610E-3	-20.8709E-3
2.11356E-3	67.7901E-12	799.190E-3	-26.2156E-3	68.0481E-12	783.552E-3	-14.8740E-3
2.10855E-3	68.0966E-12	791.691E-3	-24.9919E-3	67.8885E-12	784.368E-3	-26.9259E-3
2.10355E-3	68.0583E-12	766.387E-3	-35.3596E-3	67.7124E-12	783.783E-3	-28.5023E-3
2.09855E-3	67.2243E-12	758.004E-3	-34.1484E-3	67.7941E-12	785.523E-3	-24.5537E-3
2.09355E-3	67.5443E-12	765.690E-3	-22.1415E-3	67.9357E-12	779.248E-3	-31.9523E-3
2.08854E-3	68.0952E-12	771.724E-3	-13.6093E-3	67.8420E-12	768.674E-3	-35.6199E-3
2.08354E-3	67.7406E-12	777.092E-3	-9.70086E-3	67.1346E-12	770.828E-3	-36.2945E-3
2.07854E-3	67.5345E-12	787.481E-3	-16.5345E-3	66.6047E-12	779.167E-3	-34.4627E-3
2.07354E-3	67.8090E-12	790.680E-3	-15.8610E-3	66.2244E-12	784.406E-3	-12.3226E-3
2.06853E-3	68.0462E-12	790.924E-3	4.19291E-3	65.6894E-12	784.952E-3	7.99294E-3
2.06353E-3	67.5219E-12	796.695E-3	-1.71103E-3	65.1649E-12	772.903E-3	1.10030E-3
2.05853E-3	66.4401E-12	800.047E-3	-27.6429E-3	64.7828E-12	765.955E-3	-13.6071E-3
2.05353E-3	66.3963E-12	798.776E-3	-25.1308E-3	64.7873E-12	782.730E-3	-21.2328E-3
2.04852E-3	65.9228E-12	804.711E-3	-12.1747E-3	64.1060E-12	799.093E-3	-19.4902E-3
2.04352E-3	65.3219E-12	815.334E-3	-19.5628E-3	63.6116E-12	790.985E-3	-15.0884E-3
2.03852E-3	64.7798E-12	810.302E-3	-30.0409E-3	63.1788E-12	774.038E-3	-13.2120E-3
2.03352E-3	64.7952E-12	798.920E-3	-27.1753E-3	63.0614E-12	774.453E-3	-11.1233E-3
2.02851E-3	63.9849E-12	797.169E-3	-13.9046E-3	63.4203E-12	781.357E-3	-15.7336E-3
2.02351E-3	62.9864E-12	795.930E-3	7.72461E-3	63.0137E-12	784.207E-3	-20.6012E-3
2.01851E-3	62.2096E-12	786.470E-3	17.2396E-3	62.9584E-12	798.366E-3	-21.7389E-3
2.01351E-3	61.7296E-12	784.520E-3	-4.53999E-3	62.8324E-12	806.817E-3	-19.4759E-3
2.00850E-3	61.6214E-12	792.510E-3	-33.8924E-3	63.1096E-12	799.703E-3	-1.62391E-3
2.00350E-3	61.2134E-12	787.910E-3	-30.0076E-3	63.1396E-12	793.981E-3	433.690E-6
1.99850E-3	61.5047E-12	782.020E-3	-7.06389E-3	63.3743E-12	791.302E-3	-22.3537E-3
1.99350E-3	61.5288E-12	783.389E-3	-2.33016E-3	62.9055E-12	791.460E-3	-24.2510E-3
1.98849E-3	61.5057E-12	781.743E-3	-8.55085E-3	62.7040E-12	785.330E-3	-9.35891E-3
1.98349E-3	61.2187E-12	784.822E-3	-12.0117E-3	62.3918E-12	784.851E-3	-13.5969E-3
1.97849E-3	61.3737E-12	796.886E-3	-23.9069E-3	62.1750E-12	801.894E-3	-24.6345E-3
1.97349E-3	61.3102E-12	808.699E-3	-36.9203E-3	61.4447E-12	820.275E-3	-20.5589E-3
1.96848E-3	60.8889E-12	821.240E-3	-42.3452E-3	60.7676E-12	831.334E-3	-19.4862E-3
1.96348E-3	60.4493E-12	831.714E-3	-41.4501E-3	60.2940E-12	833.592E-3	-23.0529E-3
1.95848E-3	60.1924E-12	821.380E-3	-29.0053E-3	60.0992E-12	829.563E-3	-21.0567E-3
1.95348E-3	60.4790E-12	810.908E-3	-19.6364E-3	59.6835E-12	815.171E-3	-16.7962E-3
1.94847E-3	59.5660E-12	817.768E-3	-13.7745E-3	58.6839E-12	808.400E-3	-11.3940E-3
1.94347E-3	58.9527E-12	827.706E-3	-3.54516E-3	58.2403E-12	816.510E-3	-16.6036E-3
1.93847E-3	58.7944E-12	832.961E-3	4.02251E-3	58.1451E-12	814.098E-3	-25.1863E-3
1.93347E-3	58.8803E-12	837.266E-3	736.354E-6	57.8620E-12	811.885E-3	-24.7644E-3
1.92846E-3	57.8433E-12	839.653E-3	-12.1736E-3	57.3968E-12	822.233E-3	-25.0218E-3
1.92346E-3	57.4238E-12	829.915E-3	-17.4087E-3	57.0727E-12	825.259E-3	-22.4657E-3
1.91846E-3	57.3319E-12	815.513E-3	-1.60603E-3	57.6471E-12	815.671E-3	-2.62247E-3
1.91346E-3	57.0340E-12	802.517E-3	17.5890E-3	57.4685E-12	821.672E-3	3.38360E-3
1.90845E-3	56.5798E-12	793.568E-3	13.7796E-3	57.0269E-12	834.493E-3	-17.6205E-3
1.90345E-3	56.3750E-12	801.216E-3	-3.02778E-3	56.8647E-12	829.121E-3	-18.1603E-3
1.89845E-3	56.4422E-12	813.330E-3	-4.93331E-3	57.3349E-12	833.167E-3	-6.11270E-3
1.89345E-3	56.4224E-12	822.308E-3	-29.1057E-6	57.0387E-12	847.723E-3	-16.8065E-3
1.88844E-3	56.1140E-12	838.577E-3	-12.7739E-3	56.6630E-12	854.357E-3	-34.7743E-3
1.88344E-3	55.7144E-12	844.380E-3	-21.2088E-3	56.4520E-12	859.652E-3	-41.3294E-3
1.87844E-3	55.5329E-12	833.325E-3	-18.0445E-3	56.5600E-12	858.177E-3	-42.5861E-3
1.87344E-3	55.5519E-12	826.735E-3	-18.4384E-3	56.1330E-12	859.934E-3	-36.4217E-3
1.86843E-3	55.0893E-12	828.653E-3	-14.0115E-3	55.1571E-12	866.032E-3	-24.1933E-3
1.86343E-3	54.9636E-12	833.871E-3	-800.929E-6	54.6978E-12	852.752E-3	-17.6924E-3
1.85843E-3	54.6967E-12	836.823E-3	3.73016E-3	54.2926E-12	836.964E-3	-17.9385E-3
1.85343E-3	54.6179E-12	843.899E-3	-8.33208E-3	53.9111E-12	838.409E-3	-19.9372E-3
1.84842E-3	54.4096E-12	856.653E-3	-23.1649E-3	53.2259E-12	846.834E-3	-21.6339E-3
1.84342E-3	54.3129E-12	860.896E-3	-14.5545E-3	52.4316E-12	852.048E-3	-21.4295E-3
1.83842E-3	53.8978E-12	863.743E-3	5.49282E-3	52.5356E-12	849.098E-3	-17.0219E-3
1.83342E-3	53.5306E-12	869.707E-3	-694.842E-6	52.1952E-12	846.582E-3	-22.9008E-3
1.82841E-3	53.1729E-12	874.725E-3	-10.9722E-3	51.6604E-12	850.825E-3	-43.6052E-3
1.82341E-3	52.9301E-12	875.919E-3	-12.8757E-3	51.3649E-12	863.725E-3	-37.4630E-3
1.81841E-3	52.8377E-12	870.363E-3	-26.5111E-3	51.4351E-12	881.048E-3	-4.96351E-3
1.81341E-3	52.2499E-12	873.170E-3	-38.9154E-3	51.3285E-12	882.284E-3	441.563E-6
1.80840E-3	51.8468E-12	880.644E-3	-30.7627E-3	51.0921E-12	883.752E-3	-16.9819E-3
1.80340E-3	51.4014E-12	881.818E-3	-22.9599E-3	51.1165E-12	906.463E-3	-16.6032E-3
1.79840E-3	51.2206E-12	884.844E-3	-29.1229E-3	51.1635E-12	921.152E-3	-11.7291E-3
1.79340E-3	50.8332E-12	884.954E-3	-35.3589E-3	50.9364E-12	923.531E-3	-17.7426E-3
1.78839E-3	50.7032E-12	879.870E-3	-31.3092E-3	51.0262E-12	932.827E-3	-14.9482E-3
1.78339E-3	50.4814E-12	880.599E-3	-22.5580E-3	50.9296E-12	937.494E-3	-13.9294E-3
1.77839E-3	50.2000E-12	895.804E-3	-21.7290E-3	50.5278E-12	931.667E-3	-23.1212E-3
1.77339E-3	49.8070E-12	917.864E-3	-22.7245E-3	49.7786E-12	932.492E-3	-25.0649E-3
1.76838E-3	49.8043E-12	927.153E-3	-22.3547E-3	49.6478E-12	941.411E-3	-13.4460E-3
1.76338E-3	49.8726E-12	930.574E-3	-20.9223E-3	49.3639E-12	934.940E-3	-7.29090E-3
1.75838E-3	49.3435E-12	925.427E-3	-18.7511E-3	48.9619E-12	917.719E-3	-21.0750E-3
1.75338E-3	48.9424E-12	909.382E-3	-12.1900E-3	48.2902E-12	914.986E-3	-32.5813E-3
1.74837E-3	49.0823E-12	914.052E-3	-3.59555E-3	47.8614E-12	920.708E-3	-32.3894E-3
1.74337E-3	49.4607E-12	934.613E-3	-5.54043E-3	47.4519E-12	928.463E-3	-32.8054E-3
1.73837E-3	48.7482E-12	945.158E-3	-27.0551E-3	46.9357E-12	936.527E-3	-28.8048E-3
1.73337E-3	47.8546E-12	951.393E-3	-44.0832E-3	46.5100E-12	941.757E-3	-21.1200E-3
1.72836E-3	48.0846E-12	965.822E-3	-31.6990E-3	46.0971E-12	949.010E-3	-23.6093E-3
1.72336E-3	48.0216E-12	975.218E-3	-12.6743E-3	45.8074E-12	953.354E-3	-31.1356E-3
1.71836E-3	47.3419E-12	972.020E-3	-889.161E-6	45.3871E-12	956.768E-3	-25.4544E-3
1.71336E-3	46.3173E-12	963.657E-3	5.32516E-3	45.0383E-12	963.915E-3	-9.80092E-3
1.70835E-3	45.7273E-12	965.787E-3	-2.44795E-3	44.8069E-12	982.046E-3	-13.5667E-3
1.70335E-3	45.5146E-12	975.970E-3	-17.6317E-3	44.8131E-12	997.867E-3	-33.8355E-3
1.69835E-3	45.3859E-12	975.194E-3	-13.7854E-3	44.7775E-12	992.767E-3	-32.1987E-3
1.69335E-3	44.5630E-12	979.508E-3	-4.11745E-3	44.5530E-12	987.435E-3	-17.3052E-3
1.68834E-3	44.1393E-12	981.404E-3	-10.6934E-3	44.5217E-12	991.314E-3	-10.4584E-3
1.68334E-3	43.7620E-12	974.901E-3	-18.9670E-3	44.2038E-12	992.372E-3	-7.63261E-3
1.67834E-3	43.7099E-12	978.433E-3	-13.9661E-3	43.9287E-12	1.00165E+0	-16.0350E-3
1.67334E-3	43.2299E-12	981.712E-3	-14.9431E-3	43.7091E-12	1.01395E+0	-21.4951E-3
1.66833E-3	42.6837E-12	987.474E-3	-31.3565E-3	43.6763E-12	1.01153E+0	-7.61849E-3
1.66333E-3	42.5875E-12	993.205E-3	-38.6877E-3	43.3552E-12	1.01693E+0	-884.809E-6
1.65833E-3	42.6128E-12	995.628E-3	-38.3244E-3	42.9165E-12	1.03100E+0	-18.5172E-3
1.65333E-3	42.1946E-12	1.00581E+0	-40.0915E-3	42.2901E-12	1.02832E+0	-34.7448E-3
1.64832E-3	41.9715E-12	1.00672E+0	-38.6083E-3	42.2604E-12	1.02977E+0	-29.5627E-3
1.64332E-3	41.6954E-12	1.00697E+0	-31.0015E-3	41.8530E-12	1.04355E+0	-17.5849E-3
1.63832E-3	41.4247E-12	1.02401E+0	-14.0307E-3	41.1014E-12	1.03382E+0	-9.25484E-3
1.63332E-3	41.3253E-12	1.03342E+0	8.43883E-3	40.3143E-12	1.02303E+0	-2.69996E-3
1.62831E-3	41.1035E-12	1.03009E+0	8.55815E-3	39.9634E-12	1.03212E+0	-5.66051E-3
1.62331E-3	40.7232E-12	1.03778E+0	-15.2159E-3	39.4416E-12	1.03858E+0	-14.4343E-3
1.61831E-3	39.8629E-12	1.05432E+0	-26.8853E-3	38.9728E-12	1.05099E+0	-15.4666E-3
1.61331E-3	39.7096E-12	1.05908E+0	-22.0691E-3	38.6274E-12	1.06573E+0	-20.7536E-3
1.60830E-3	39.0804E-12	1.05504E+0	-18.5670E-3	38.2768E-12	1.07153E+0	-33.6371E-3
1.60330E-3	38.3935E-12	1.04641E+0	-14.6011E-3	37.9247E-12	1.08055E+0	-30.7423E-3
1.59830E-3	37.4881E-12	1.03998E+0	-12.9237E-3	37.5223E-12	1.09363E+0	-15.5051E-3
1.59330E-3	37.3821E-12	1.04668E+0	-21.5581E-3	37.5541E-12	1.09534E+0	-18.3599E-3
1.58829E-3	37.1664E-12	1.06097E+0	-27.0703E-3	37.7708E-12	1.09575E+0	-19.6118E-3
1.58329E-3	36.6424E-12	1.07802E+0	-25.6221E-3	37.2699E-12	1.10865E+0	-15.1707E-3
1.57829E-3	36.0848E-12	1.09057E+0	-26.7343E-3	36.6566E-12	1.12015E+0	-21.1851E-3
1.57329E-3	36.1690E-12	1.09004E+0	-30.9773E-3	36.8591E-12	1.13249E+0	-14.2834E-3
1.56828E-3	36.3164E-12	1.08012E+0	-35.4943E-3	36.7649E-12	1.14728E+0	-11.7312E-3
1.56328E-3	36.0064E-12	1.07400E+0	-37.6240E-3	36.1203E-12	1.15239E+0	-20.0209E-3
1.55828E-3	35.4690E-12	1.07733E+0	-31.9607E-3	35.5667E-12	1.15162E+0	-24.0297E-3
1.55328E-3	35.3153E-12	1.09349E+0	-19.1742E-3	35.4910E-12	1.14496E+0	-26.2609E-3
1.54827E-3	35.4835E-12	1.11555E+0	-13.7443E-3	35.1337E-12	1.13261E+0	-25.0971E-3
1.54327E-3	35.3013E-12	1.12900E+0	-16.1011E-3	34.3541E-12	1.12883E+0	-22.5154E-3
1.53827E-3	34.3910E-12	1.13300E+0	-16.7395E-3	33.6733E-12	1.12746E+0	-16.6300E-3
1.53327E-3	34.0293E-12	1.13114E+0	-18.4276E-3	33.3608E-12	1.12132E+0	-15.1973E-3
1.52826E-3	33.7000E-12	1.13390E+0	-6.11177E-3	32.8083E-12	1.12957E+0	-13.4259E-3
1.52326E-3	33.1981E-12	1.13882E+0	11.5175E-3	31.8088E-12	1.15488E+0	-3.89402E-3
1.51826E-3	32.5470E-12	1.14043E+0	5.62927E-3	31.3199E-12	1.15784E+0	-1.57505E-3
1.51326E-3	31.9516E-12	1.14780E+0	-9.83126E-3	31.3270E-12	1.14673E+0	-5.45585E-3
1.50825E-3	31.6209E-12	1.15525E+0	-25.3727E-3	30.9257E-12	1.15353E+0	-6.25973E-3
1.50325E-3	31.1257E-12	1.16162E+0	-38.0215E-3	30.2890E-12	1.15750E+0	-15.9057E-3
1.49825E-3	30.6346E-12	1.17374E+0	-27.9773E-3	29.9943E-12	1.15886E+0	-28.5520E-3
1.49325E-3	30.0256E-12	1.17084E+0	-16.3358E-3	30.0008E-12	1.17761E+0	-24.9366E-3
1.48824E-3	29.6834E-12	1.15493E+0	-22.1356E-3	29.7978E-12	1.19371E+0	-15.2812E-3
1.48324E-3	29.0694E-12	1.15725E+0	-17.8155E-3	29.3373E-12	1.19753E+0	-18.6825E-3
1.47824E-3	29.0081E-12	1.16549E+0	-6.55485E-3	29.2390E-12	1.20233E+0	-30.6234E-3
1.47324E-3	28.7426E-12	1.15797E+0	-3.47224E-3	29.2376E-12	1.21101E+0	-36.0201E-3
1.46823E-3	28.3356E-12	1.15406E+0	2.96454E-3	28.7638E-12	1.21916E+0	-35.1785E-3
1.46323E-3	28.0093E-12	1.16553E+0	4.28619E-3	28.2301E-12	1.21918E+0	-33.9635E-3
1.45823E-3	27.7862E-12	1.18138E+0	-1.64330E-3	27.9400E-12	1.21657E+0	-38.8580E-3
1.45323E-3	27.5864E-12	1.19948E+0	-12.1029E-3	27.6367E-12	1.20791E+0	-44.5732E-3
1.44822E-3	26.9899E-12	1.21374E+0	-26.6011E-3	26.9438E-12	1.19319E+0	-21.5405E-3
1.44322E-3	26.3616E-12	1.21155E+0	-27.8726E-3	26.2613E-12	1.18931E+0	5.10490E-3
1.43822E-3	26.1437E-12	1.19990E+0	-20.8810E-3	26.1308E-12	1.18144E+0	-6.91180E-3
1.43322E-3	26.1225E-12	1.19713E+0	-15.0872E-3	25.8213E-12	1.16947E+0	-17.9092E-3
1.42821E-3	25.3683E-12	1.20175E+0	-10.1503E-3	24.8736E-12	1.17420E+0	-13.1482E-3
1.42321E-3	24.7236E-12	1.20687E+0	-11.8743E-3	24.2558E-12	1.17359E+0	-16.3032E-3
1.41821E-3	24.3090E-12	1.20054E+0	-18.4889E-3	24.0141E-12	1.16147E+0	-18.5331E-3
1.41321E-3	24.1016E-12	1.18329E+0	-22.4486E-3	23.8024E-12	1.16103E+0	-17.8244E-3
1.40820E-3	23.5162E-12	1.18381E+0	-18.1893E-3	22.8995E-12	1.16258E+0	-15.0986E-3
1.40320E-3	23.0556E-12	1.19367E+0	-8.20297E-3	22.5330E-12	1.15802E+0	-5.51508E-3
1.39820E-3	22.7687E-12	1.18744E+0	-12.4431E-3	22.5179E-12	1.15894E+0	-7.37153E-3
1.39320E-3	22.3869E-12	1.18222E+0	-27.4984E-3	22.3982E-12	1.15707E+0	-20.7766E-3
1.38819E-3	21.9937E-12	1.18534E+0	-25.5568E-3	21.6580E-12	1.14869E+0	-23.1443E-3
1.38319E-3	21.5756E-12	1.18860E+0	-9.01317E-3	21.2641E-12	1.15384E+0	-18.3304E-3
1.37819E-3	21.3620E-12	1.19822E+0	2.58657E-3	21.3266E-12	1.17343E+0	-22.8350E-3
1.37319E-3	20.8937E-12	1.19824E+0	-2.96168E-3	21.2218E-12	1.17965E+0	-21.8311E-3
1.36818E-3	20.2748E-12	1.18139E+0	-22.3038E-3	20.5815E-12	1.17115E+0	-15.0570E-3
1.36318E-3	20.0916E-12	1.16880E+0	-31.5618E-3	20.1805E-12	1.16354E+0	-18.2712E-3
1.35818E-3	19.8174E-12	1.16469E+0	-21.0963E-3	19.9069E-12	1.15251E+0	-12.4245E-3
1.35318E-3	19.3622E-12	1.16578E+0	-11.7507E-3	19.6022E-12	1.13636E+0	-3.85243E-3
1.34817E-3	18.7647E-12	1.16202E+0	-17.4034E-3	18.9766E-12	1.12232E+0	-8.43001E-3
1.34317E-3	18.5365E-12	1.15348E+0	-20.8249E-3	18.6180E-12	1.11290E+0	-12.0695E-3
1.33817E-3	18.5364E-12	1.15078E+0	-9.38946E-3	18.3664E-12	1.10160E+0	-19.5648E-3
1.33317E-3	17.9714E-12	1.14588E+0	3.20903E-3	17.9305E-12	1.08047E+0	-38.7268E-3
1.32816E-3	17.4953E-12	1.13102E+0	4.92167E-3	17.3552E-12	1.05459E+0	-52.4387E-3
1.32316E-3	17.2510E-12	1.11916E+0	-5.87917E-3	17.0267E-12	1.04330E+0	-45.7520E-3
1.31816E-3	17.0433E-12	1.11690E+0	-10.5002E-3	16.6319E-12	1.04232E+0	-31.3835E-3
1.31316E-3	16.5049E-12	1.10591E+0	-1.47809E-3	16.0163E-12	1.03065E+0	-17.4871E-3
1.30815E-3	15.9715E-12	1.08885E+0	6.49158E-3	15.5902E-12	1.01265E+0	-4.09355E-3
1.30315E-3	15.8125E-12	1.08391E+0	7.76502E-3	15.4660E-12	996.049E-3	-10.2322E-3
1.29815E-3	15.6734E-12	1.08154E+0	778.215E-6	15.2485E-12	985.001E-3	-26.6790E-3
1.29315E-3	15.0787E-12	1.07512E+0	-4.42935E-3	14.5794E-12	988.011E-3	-29.2938E-3
1.28814E-3	14.6275E-12	1.06219E+0	1.15918E-3	14.1973E-12	987.835E-3	-23.5957E-3
1.28314E-3	14.3444E-12	1.04442E+0	-2.93551E-3	14.2376E-12	972.287E-3	-16.7192E-3
1.27814E-3	14.0545E-12	1.03210E+0	-16.3165E-3	13.9633E-12	957.753E-3	-10.0436E-3
1.27314E-3	13.4762E-12	1.02212E+0	-16.2361E-3	13.2813E-12	940.018E-3	-10.9350E-3
1.26813E-3	13.0922E-12	1.00710E+0	-9.53930E-3	12.8883E-12	920.435E-3	-16.1151E-3
1.26313E-3	12.8755E-12	986.794E-3	-10.0479E-3	12.9735E-12	919.807E-3	-7.69794E-3
1.25813E-3	12.6680E-12	968.513E-3	-9.81477E-3	12.7068E-12	909.841E-3	-3.03454E-3
1.25313E-3	12.2671E-12	954.502E-3	-5.01535E-3	12.1447E-12	875.692E-3	-21.5498E-3
1.24812E-3	11.8421E-12	934.679E-3	-8.64088E-3	11.8280E-12	854.790E-3	-24.6915E-3
1.24312E-3	11.7271E-12	900.398E-3	-14.5659E-3	11.8947E-12	854.961E-3	-19.4503E-3
1.23812E-3	11.3203E-12	869.965E-3	-14.4785E-3	11.5209E-12	852.539E-3	-39.0747E-3
1.23312E-3	11.0294E-12	855.641E-3	-15.8223E-3	10.9502E-12	824.854E-3	-47.0117E-3
1.22811E-3	10.8824E-12	852.559E-3	-11.5714E-3	10.7770E-12	788.287E-3	-31.8748E-3
1.22311E-3	10.7041E-12	856.502E-3	-5.42423E-3	10.8583E-12	764.837E-3	-21.5861E-3
1.21811E-3	10.2947E-12	852.227E-3	-20.2468E-3	10.3676E-12	753.622E-3	-21.0417E-3
1.21311E-3	9.92747E-12	834.441E-3	-42.4565E-3	9.63414E-12	747.588E-3	-19.0688E-3
1.20810E-3	9.75848E-12	809.884E-3	-38.2458E-3	9.43726E-12	726.416E-3	-11.9022E-3
1.20310E-3	9.73745E-12	786.142E-3	-18.0733E-3	9.48279E-12	692.663E-3	-4.47485E-3
1.19810E-3	9.30357E-12	768.834E-3	-9.95368E-3	9.20743E-12	667.080E-3	-10.2705E-3
1.19310E-3	8.86209E-12	753.049E-3	-11.4051E-3	8.60211E-12	648.951E-3	-28.0121E-3
1.18809E-3	8.67253E-12	734.805E-3	-13.1185E-3	8.44209E-12	635.665E-3	-29.3186E-3
1.18309E-3	8.62518E-12	713.774E-3	-17.3289E-3	8.47064E-12	634.508E-3	-10.9147E-3
1.17809E-3	8.33734E-12	687.910E-3	-18.5167E-3	8.20987E-12	630.549E-3	-4.27909E-3
1.17309E-3	7.97022E-12	668.581E-3	-11.9731E-3	7.90320E-12	610.986E-3	-21.8969E-3
1.16808E-3	7.74064E-12	660.037E-3	-14.1365E-3	7.85343E-12	596.230E-3	-33.5456E-3
1.16308E-3	7.53481E-12	646.367E-3	-22.2891E-3	7.78096E-12	590.262E-3	-30.5436E-3
1.15808E-3	7.39446E-12	621.157E-3	-18.5893E-3	7.50660E-12	578.942E-3	-25.0726E-3
1.15308E-3	7.20334E-12	597.463E-3	-10.2587E-3	7.20874E-12	562.711E-3	-15.7061E-3
1.14807E-3	7.01718E-12	583.324E-3	-2.35716E-3	7.20996E-12	546.166E-3	-12.7327E-3
1.14307E-3	6.79989E-12	564.052E-3	3.32280E-3	7.09214E-12	529.787E-3	-21.2642E-3
1.13807E-3	6.65378E-12	537.477E-3	-2.16348E-3	6.78923E-12	507.402E-3	-29.1129E-3
1.13307E-3	6.73650E-12	519.656E-3	-19.2542E-3	6.56329E-12	482.243E-3	-22.0935E-3
1.12806E-3	6.42715E-12	505.973E-3	-31.8490E-3	6.61222E-12	462.664E-3	-12.7022E-3
1.12306E-3	6.30727E-12	496.766E-3	-23.0866E-3	6.47748E-12	446.739E-3	-20.2867E-3
1.11806E-3	6.11248E-12	493.132E-3	-15.1736E-3	6.00528E-12	435.551E-3	-21.6365E-3
1.11306E-3	6.18152E-12	483.800E-3	-29.0837E-3	5.73359E-12	416.677E-3	-6.27809E-3
1.10805E-3	5.90691E-12	473.255E-3	-37.0586E-3	5.86315E-12	392.987E-3	769.339E-6
1.10305E-3	5.68078E-12	464.865E-3	-25.3701E-3	5.76810E-12	385.430E-3	-4.79000E-3
1.09805E-3	5.55537E-12	444.347E-3	-14.6829E-3	5.31255E-12	369.639E-3	-9.06439E-3
1.09305E-3	5.59560E-12	419.966E-3	-15.1972E-3	5.18768E-12	339.658E-3	-15.7671E-3
1.08804E-3	5.53732E-12	409.569E-3	-20.0569E-3	5.24575E-12	334.604E-3	-26.5350E-3
1.08304E-3	5.06252E-12	405.665E-3	-18.1074E-3	5.22453E-12	340.753E-3	-30.5163E-3
1.07804E-3	4.86341E-12	395.390E-3	-11.8158E-3	4.90805E-12	319.069E-3	-25.8090E-3
1.07304E-3	4.98613E-12	376.790E-3	-12.3525E-3	4.79065E-12	294.661E-3	-16.0343E-3
1.06803E-3	4.92560E-12	355.753E-3	-16.4965E-3	4.83505E-12	287.868E-3	-20.3265E-3
1.06303E-3	4.58690E-12	341.155E-3	-21.7584E-3	4.64019E-12	281.343E-3	-28.9443E-3
1.05803E-3	4.48837E-12	328.802E-3	-27.7130E-3	4.47646E-12	277.923E-3	-23.7861E-3
1.05303E-3	4.54976E-12	309.512E-3	-16.3066E-3	4.40430E-12	277.101E-3	-20.1275E-3
1.04802E-3	4.48601E-12	297.484E-3	2.60039E-3	4.53957E-12	267.266E-3	-13.7345E-3
1.04302E-3	4.46591E-12	296.858E-3	3.87887E-3	4.45092E-12	258.343E-3	-6.88350E-3
1.03802E-3	4.31092E-12	291.471E-3	-6.35938E-3	4.23753E-12	251.473E-3	-11.2433E-3
1.03302E-3	4.20343E-12	280.561E-3	-12.2120E-3	4.19862E-12	223.653E-3	-16.6579E-3
1.02801E-3	4.00195E-12	269.656E-3	-10.8049E-3	3.98884E-12	188.284E-3	-19.2367E-3
1.02301E-3	3.79103E-12	254.098E-3	-11.1223E-3	3.64344E-12	174.682E-3	-24.3628E-3
1.01801E-3	3.69947E-12	234.398E-3	-17.6194E-3	3.48761E-12	169.102E-3	-26.6530E-3
1.01301E-3	3.75914E-12	215.271E-3	-19.8006E-3	3.69630E-12	161.673E-3	-20.2984E-3
1.00800E-3	3.67904E-12	193.706E-3	-17.0619E-3	3.60626E-12	154.411E-3	-12.2091E-3
1.00300E-3	3.60228E-12	173.451E-3	-16.9094E-3	3.30977E-12	141.063E-3	-12.3015E-3
997.999E-6	3.42354E-12	172.368E-3	-13.9119E-3	3.06180E-12	129.002E-3	-23.4105E-3
992.997E-6	3.44010E-12	181.453E-3	-8.58425E-3	3.31514E-12	124.781E-3	-31.3627E-3
987.994E-6	3.34288E-12	177.333E-3	-6.57798E-3	3.35557E-12	128.561E-3	-16.7234E-3
982.991E-6	3.28379E-12	167.629E-3	-7.48006E-3	3.07397E-12	136.422E-3	5.59703E-3
977.989E-6	3.15989E-12	164.706E-3	-11.6206E-3	2.85171E-12	137.775E-3	878.915E-6
972.986E-6	3.14310E-12	162.657E-3	-19.6174E-3	3.04432E-12	124.530E-3	-20.9567E-3
967.984E-6	3.07489E-12	157.260E-3	-23.6389E-3	3.14422E-12	109.309E-3	-23.1705E-3
962.981E-6	2.96249E-12	145.084E-3	-16.5223E-3	2.94034E-12	110.587E-3	-8.33985E-3
957.979E-6	2.95968E-12	127.452E-3	-13.6996E-3	2.77990E-12	105.196E-3	-7.41570E-3
952.976E-6	2.91427E-12	115.204E-3	-12.2684E-3	2.90323E-12	93.7495E-3	-12.7224E-3
947.974E-6	2.75813E-12	101.553E-3	-954.520E-6	2.99911E-12	102.490E-3	-10.7556E-3
942.971E-6	2.81524E-12	89.1386E-3	-4.56567E-3	2.81121E-12	109.471E-3	-10.6145E-3
937.969E-6	2.84899E-12	94.1722E-3	-21.1429E-3	2.74249E-12	107.295E-3	-11.1725E-3
932.966E-6	2.70579E-12	105.534E-3	-25.4171E-3	2.71836E-12	111.609E-3	-5.98703E-3
927.964E-6	2.57622E-12	104.783E-3	-20.8354E-3	2.75768E-12	112.101E-3	-402.675E-6
922.961E-6	2.60765E-12	93.6884E-3	-21.8061E-3	2.65900E-12	96.4729E-3	-1.08690E-3
917.959E-6	2.72673E-12	88.1321E-3	-21.9525E-3	2.62202E-12	81.9843E-3	-3.21253E-3
912.956E-6	2.55256E-12	96.8538E-3	-12.8591E-3	2.63168E-12	74.8960E-3	-10.8181E-3
907.954E-6	2.36544E-12	103.212E-3	-13.9538E-3	2.45174E-12	66.6797E-3	-23.3929E-3
902.951E-6	2.48379E-12	94.3558E-3	-21.5534E-3	2.41847E-12	71.7738E-3	-28.8515E-3
897.949E-6	2.68274E-12	85.4093E-3	-19.1394E-3	2.51095E-12	84.5088E-3	-28.4516E-3
892.946E-6	2.47391E-12	93.3952E-3	-18.9919E-3	2.50919E-12	81.3646E-3	-23.8053E-3
887.944E-6	2.30212E-12	102.374E-3	-24.6960E-3	2.31602E-12	74.1179E-3	-13.6204E-3
882.941E-6	2.33639E-12	104.214E-3	-28.4440E-3	2.28215E-12	79.0763E-3	-11.6269E-3
877.939E-6	2.48297E-12	107.518E-3	-18.2173E-3	2.45965E-12	79.7269E-3	-12.7985E-3
872.936E-6	2.37393E-12	95.0841E-3	991.394E-6	2.43108E-12	76.2450E-3	-9.99083E-3
867.934E-6	2.19957E-12	75.5489E-3	8.52007E-3	2.16493E-12	81.4073E-3	-13.8438E-3
862.931E-6	2.25105E-12	66.7225E-3	215.846E-6	2.05329E-12	79.6773E-3	-16.1943E-3
857.929E-6	2.37894E-12	59.3560E-3	-11.7067E-3	2.32171E-12	80.9442E-3	-13.5411E-3
852.926E-6	2.26143E-12	63.3803E-3	-17.8723E-3	2.34811E-12	91.9589E-3	-12.0859E-3
847.924E-6	2.16071E-12	80.2457E-3	-23.1267E-3	2.12121E-12	85.7549E-3	-14.4677E-3
842.921E-6	2.18244E-12	84.1357E-3	-23.2928E-3	2.00410E-12	71.3214E-3	-21.9832E-3
837.919E-6	2.23566E-12	68.5594E-3	-15.6720E-3	2.27213E-12	73.6994E-3	-25.5059E-3
832.916E-6	2.13597E-12	54.1243E-3	-18.9971E-3	2.31089E-12	83.4739E-3	-15.7805E-3
827.914E-6	2.12001E-12	52.6563E-3	-29.1506E-3	2.08852E-12	89.7113E-3	3.52858E-3
822.911E-6	2.09807E-12	60.8618E-3	-23.2939E-3	1.99412E-12	89.3208E-3	3.87957E-3
817.909E-6	2.05298E-12	72.2089E-3	-9.67023E-3	2.15363E-12	82.9962E-3	-11.8388E-3
812.906E-6	1.94888E-12	82.0064E-3	-2.32288E-3	2.13866E-12	82.2522E-3	-8.99411E-3
807.904E-6	1.99467E-12	86.4527E-3	101.074E-6	1.96425E-12	80.0994E-3	-4.84125E-3
802.901E-6	1.99763E-12	80.2420E-3	-6.08950E-3	1.97151E-12	63.8072E-3	-14.4116E-3
797.899E-6	1.91307E-12	67.7595E-3	-14.6700E-3	2.05612E-12	52.8711E-3	-19.8841E-3
792.896E-6	1.84187E-12	65.4312E-3	-12.7583E-3	1.96934E-12	62.1929E-3	-20.6341E-3
787.894E-6	1.90723E-12	67.6944E-3	-8.32715E-3	1.85211E-12	73.9090E-3	-19.4886E-3
782.891E-6	1.93876E-12	69.7914E-3	-7.14549E-3	1.90820E-12	74.8487E-3	-10.7867E-3
777.889E-6	1.81257E-12	80.9888E-3	-4.33838E-3	1.91740E-12	67.5826E-3	1.54690E-3
772.886E-6	1.72334E-12	82.2801E-3	-665.388E-6	1.79716E-12	64.2132E-3	-4.65396E-3
767.884E-6	1.86273E-12	73.6576E-3	-1.06240E-3	1.63489E-12	67.0580E-3	-22.5294E-3
762.881E-6	1.88317E-12	80.0269E-3	-15.7636E-3	1.72827E-12	65.5293E-3	-24.2661E-3
757.879E-6	1.73272E-12	85.9545E-3	-36.9392E-3	1.86569E-12	64.4335E-3	-17.0406E-3
752.876E-6	1.62488E-12	73.0609E-3	-35.9371E-3	1.60363E-12	66.1785E-3	-6.92164E-3
747.874E-6	1.75519E-12	69.0839E-3	-20.0446E-3	1.48706E-12	65.7996E-3	-2.59907E-3
742.871E-6	1.86514E-12	76.5022E-3	-16.6673E-3	1.69887E-12	59.0797E-3	-14.4304E-3
737.869E-6	1.63255E-12	72.4997E-3	-25.3540E-3	1.83646E-12	47.2574E-3	-18.9627E-3
732.866E-6	1.50682E-12	69.0514E-3	-33.2206E-3	1.60717E-12	49.7037E-3	-17.0944E-3
727.864E-6	1.65037E-12	66.7734E-3	-29.3855E-3	1.48659E-12	62.1398E-3	-26.3258E-3
722.861E-6	1.65129E-12	55.5464E-3	-24.2334E-3	1.57361E-12	62.3893E-3	-29.2875E-3
717.859E-6	1.48836E-12	56.2404E-3	-28.8694E-3	1.74208E-12	59.7813E-3	-21.4978E-3
712.856E-6	1.45415E-12	65.2619E-3	-36.1068E-3	1.52753E-12	65.1383E-3	-20.7584E-3
707.854E-6	1.52307E-12	63.3928E-3	-41.3468E-3	1.40834E-12	70.0448E-3	-23.9571E-3
702.851E-6	1.58671E-12	69.8766E-3	-38.7772E-3	1.51931E-12	72.7911E-3	-24.4082E-3
697.849E-6	1.43430E-12	82.0700E-3	-24.9368E-3	1.56394E-12	77.2086E-3	-33.0207E-3
692.846E-6	1.39009E-12	84.7558E-3	-4.00226E-3	1.37521E-12	74.0732E-3	-33.1722E-3
687.844E-6	1.48681E-12	89.1425E-3	6.11376E-3	1.29181E-12	72.2241E-3	-12.6083E-3
682.841E-6	1.42990E-12	88.7575E-3	-3.18116E-3	1.43425E-12	78.1988E-3	-8.76095E-3
677.839E-6	1.30184E-12	72.4714E-3	-17.7491E-3	1.38721E-12	72.4867E-3	-14.5664E-3
672.836E-6	1.35165E-12	55.8605E-3	-22.6319E-3	1.21776E-12	65.4547E-3	-4.10144E-3
667.834E-6	1.40722E-12	60.6026E-3	-12.1936E-3	1.28759E-12	71.2064E-3	1.25575E-3
662.831E-6	1.25199E-12	76.1140E-3	-3.83746E-3	1.39675E-12	72.6767E-3	-7.97368E-3
657.829E-6	1.12286E-12	73.4899E-3	-14.2847E-3	1.28264E-12	66.9312E-3	-13.6608E-3
652.826E-6	1.26323E-12	63.5272E-3	-24.3272E-3	1.10012E-12	57.6624E-3	-17.0500E-3
647.824E-6	1.34429E-12	62.6419E-3	-19.4632E-3	1.19144E-12	46.0223E-3	-24.5528E-3
642.821E-6	1.13669E-12	67.7283E-3	-15.7169E-3	1.31107E-12	42.6806E-3	-26.8800E-3
637.819E-6	1.04467E-12	71.6798E-3	-14.1911E-3	1.15219E-12	59.9052E-3	-26.2489E-3
632.816E-6	1.10556E-12	74.8303E-3	-4.69146E-3	952.931E-15	72.2855E-3	-17.1227E-3
627.814E-6	1.16888E-12	80.7272E-3	3.50388E-3	1.09500E-12	67.8666E-3	-731.620E-6
622.811E-6	1.09864E-12	74.3345E-3	-292.106E-6	1.22719E-12	81.6928E-3	-3.44753E-3
617.809E-6	936.957E-15	57.9683E-3	-9.89893E-3	1.04708E-12	90.7950E-3	-21.6145E-3
612.806E-6	1.02360E-12	55.0344E-3	-19.8847E-3	899.813E-15	69.9806E-3	-28.0840E-3
607.804E-6	1.06349E-12	64.5435E-3	-34.1945E-3	1.04762E-12	56.1815E-3	-26.0994E-3
602.801E-6	921.916E-15	65.0227E-3	-37.2349E-3	1.08869E-12	58.8548E-3	-27.4527E-3
597.799E-6	870.106E-15	62.6010E-3	-21.9528E-3	865.328E-15	60.4501E-3	-27.2977E-3
592.796E-6	970.221E-15	72.1721E-3	-8.88197E-3	767.559E-15	67.4909E-3	-19.0649E-3
587.794E-6	950.830E-15	75.8243E-3	-5.21105E-3	930.819E-15	74.6283E-3	-15.3092E-3
582.791E-6	839.284E-15	70.7026E-3	-4.68245E-3	986.840E-15	60.9374E-3	-18.2159E-3
577.789E-6	785.869E-15	64.5060E-3	-3.72784E-3	817.485E-15	54.9262E-3	-23.9837E-3
572.786E-6	883.464E-15	60.3483E-3	-1.78400E-3	705.346E-15	67.7662E-3	-28.7509E-3
567.784E-6	849.581E-15	59.2230E-3	-2.87427E-3	810.937E-15	67.3071E-3	-28.0182E-3
562.781E-6	755.116E-15	55.6361E-3	-6.73600E-3	903.937E-15	54.9931E-3	-28.1677E-3
557.779E-6	761.342E-15	59.3778E-3	-10.2054E-3	671.437E-15	48.4182E-3	-18.6817E-3
552.776E-6	782.957E-15	59.2867E-3	-14.9903E-3	655.585E-15	52.1517E-3	-2.97776E-3
547.774E-6	706.427E-15	54.0254E-3	-15.2311E-3	778.065E-15	62.2040E-3	-4.92367E-3
542.771E-6	606.975E-15	62.6067E-3	-4.74779E-3	698.231E-15	70.4913E-3	-20.7127E-3
537.769E-6	666.301E-15	77.4838E-3	-3.45987E-3	579.780E-15	67.9571E-3	-24.5599E-3
532.766E-6	713.272E-15	80.6920E-3	-13.1085E-3	631.686E-15	62.3547E-3	-14.9245E-3
527.764E-6	583.764E-15	74.3485E-3	-17.6040E-3	719.899E-15	64.4831E-3	-5.62818E-3
522.761E-6	514.856E-15	61.8152E-3	-21.9707E-3	605.746E-15	55.6621E-3	-4.82505E-3
517.759E-6	618.301E-15	43.0901E-3	-21.6575E-3	476.883E-15	45.7681E-3	-12.6328E-3
512.756E-6	620.813E-15	37.3430E-3	-12.8278E-3	562.541E-15	48.8705E-3	-20.7139E-3
507.754E-6	542.827E-15	43.5413E-3	-13.3880E-3	704.535E-15	45.3095E-3	-25.3694E-3
502.751E-6	432.380E-15	45.1487E-3	-23.5249E-3	531.283E-15	44.8720E-3	-15.7378E-3
497.749E-6	464.885E-15	47.4648E-3	-32.1898E-3	362.477E-15	48.6174E-3	-1.78844E-3
492.746E-6	547.344E-15	49.0401E-3	-28.6567E-3	508.351E-15	41.5545E-3	-12.2223E-3
487.744E-6	421.097E-15	47.9557E-3	-15.4155E-3	596.686E-15	39.6704E-3	-26.5893E-3
482.741E-6	351.761E-15	51.0985E-3	-9.03583E-3	376.628E-15	55.1442E-3	-20.0350E-3
477.739E-6	485.873E-15	44.9848E-3	-13.6278E-3	290.621E-15	63.0633E-3	-6.60851E-3
472.736E-6	469.105E-15	33.4476E-3	-14.1059E-3	449.121E-15	52.1165E-3	-4.07129E-3
467.734E-6	362.058E-15	37.7250E-3	-4.42893E-3	506.067E-15	36.2352E-3	-9.49717E-3
462.731E-6	314.085E-15	48.8031E-3	-841.413E-6	299.960E-15	19.7447E-3	-13.0944E-3
457.729E-6	410.285E-15	52.5484E-3	-10.7080E-3	235.349E-15	10.9408E-3	-10.1436E-3
452.726E-6	429.938E-15	49.4172E-3	-22.9837E-3	373.542E-15	18.2194E-3	-10.5258E-3
447.724E-6	206.890E-15	37.3570E-3	-26.9998E-3	462.923E-15	25.6102E-3	-16.4673E-3
442.721E-6	254.453E-15	27.5425E-3	-22.4540E-3	238.916E-15	19.7639E-3	-15.3430E-3
437.719E-6	357.612E-15	32.9553E-3	-15.3046E-3	250.225E-15	18.8611E-3	-24.5415E-3
432.716E-6	328.716E-15	38.3375E-3	-12.3323E-3	352.894E-15	28.8861E-3	-41.6310E-3
427.714E-6	183.112E-15	36.0066E-3	-18.1759E-3	353.452E-15	27.8640E-3	-36.2210E-3
422.711E-6	241.784E-15	41.3199E-3	-20.3674E-3	164.688E-15	21.9830E-3	-21.5276E-3
417.709E-6	321.862E-15	46.9976E-3	-5.81991E-3	195.589E-15	24.7961E-3	-19.9566E-3
412.706E-6	241.427E-15	41.3299E-3	1.85457E-3	299.742E-15	35.9819E-3	-23.3673E-3
407.704E-6	119.095E-15	43.2842E-3	-11.4792E-3	163.746E-15	46.0536E-3	-22.0433E-3
402.701E-6	174.044E-15	38.0551E-3	-24.5482E-3	89.0395E-15	42.4619E-3	-19.2917E-3
397.699E-6	254.698E-15	16.5111E-3	-24.3605E-3	209.296E-15	40.6295E-3	-10.9583E-3
392.696E-6	139.306E-15	8.37574E-3	-15.5439E-3	257.540E-15	47.3614E-3	1.10509E-3
387.694E-6	77.0591E-15	15.0220E-3	-9.48971E-3	162.909E-15	45.4356E-3	-721.862E-6
382.691E-6	186.818E-15	28.7034E-3	-13.4620E-3	-30.7115E-15	40.8175E-3	-12.3310E-3
377.689E-6	201.737E-15	40.9886E-3	-19.9259E-3	148.915E-15	50.9799E-3	-19.5876E-3
372.686E-6	89.4231E-15	41.8491E-3	-26.8044E-3	274.674E-15	60.9143E-3	-26.3628E-3
367.684E-6	29.4692E-15	37.8498E-3	-23.9014E-3	92.1261E-15	46.6112E-3	-25.6255E-3
362.681E-6	144.390E-15	38.0580E-3	-8.43208E-3	-52.1610E-15	23.4619E-3	-11.5800E-3
357.679E-6	185.972E-15	40.8645E-3	-9.44339E-3	119.156E-15	16.2787E-3	-11.4155E-3
352.676E-6	-7.35248E-15	41.2894E-3	-15.9634E-3	186.521E-15	21.6861E-3	-25.8782E-3
347.674E-6	-33.7371E-15	36.8926E-3	-15.4623E-3	12.9199E-15	25.4379E-3	-27.2234E-3
342.671E-6	127.195E-15	21.7125E-3	-23.0699E-3	-88.3025E-15	21.3227E-3	-24.2810E-3
337.669E-6	168.699E-15	9.85006E-3	-31.8476E-3	80.0237E-15	21.4381E-3	-29.8670E-3
332.666E-6	-23.4047E-15	14.0336E-3	-35.5920E-3	167.635E-15	19.4540E-3	-25.5387E-3
327.664E-6	-48.0019E-15	19.7808E-3	-27.3829E-3	19.6163E-15	5.76397E-3	-17.2127E-3
322.661E-6	106.400E-15	23.1724E-3	-15.7889E-3	-74.1249E-15	-4.62436E-3	-16.8450E-3
317.659E-6	76.0390E-15	29.7699E-3	-22.4089E-3	44.2745E-15	-5.98405E-3	-8.65499E-3
312.656E-6	-103.195E-15	41.3265E-3	-27.9893E-3	89.3098E-15	2.05254E-3	-316.249E-6
307.654E-6	-63.0514E-15	37.6103E-3	-22.1778E-3	-35.4810E-15	10.0748E-3	-8.36064E-3
302.651E-6	73.5976E-15	12.3159E-3	-21.2750E-3	-60.5751E-15	13.5151E-3	-21.6862E-3
297.649E-6	-3.00154E-15	2.71392E-3	-29.0589E-3	17.9858E-15	13.5278E-3	-27.2395E-3
292.646E-6	-56.4509E-15	6.45878E-3	-30.2774E-3	9.17933E-15	7.76325E-3	-34.9916E-3
287.644E-6	-68.7626E-15	11.9244E-3	-15.9037E-3	-92.4878E-15	4.14026E-3	-35.2015E-3
282.641E-6	78.4106E-15	23.4719E-3	-7.79987E-3	-7.16065E-15	3.84384E-3	-20.3054E-3
277.639E-6	-27.0232E-15	20.6869E-3	-11.2027E-3	56.4205E-15	-555.481E-6	-14.1780E-3
272.636E-6	-145.388E-15	6.96960E-3	-13.1425E-3	-56.7910E-15	-227.182E-6	-18.9986E-3
267.634E-6	-7.64022E-15	2.05230E-3	-14.4473E-3	-170.133E-15	9.05854E-3	-18.9554E-3
262.631E-6	54.3192E-15	5.32515E-3	-20.9466E-3	-78.5456E-15	14.0330E-3	-9.89142E-3
257.629E-6	-57.3839E-15	10.5974E-3	-30.9141E-3	83.4329E-15	14.2373E-3	-4.03890E-3
252.626E-6	-132.893E-15	19.1089E-3	-30.8785E-3	-56.8694E-15	11.1404E-3	-3.80306E-3
247.624E-6	-47.1038E-15	28.2568E-3	-24.6661E-3	-201.183E-15	-237.880E-6	-7.20452E-3
242.621E-6	11.8823E-15	27.8019E-3	-30.8428E-3	-27.1889E-15	-6.98624E-3	-19.7834E-3
237.619E-6	-132.998E-15	18.3721E-3	-30.5209E-3	116.331E-15	-4.90319E-3	-27.3062E-3
232.616E-6	-154.779E-15	11.8749E-3	-19.9172E-3	-154.796E-15	-1.85931E-3	-27.6651E-3
227.614E-6	-12.7323E-15	10.3735E-3	-21.1788E-3	-204.644E-15	-4.98964E-3	-34.2179E-3
222.611E-6	3.35483E-15	13.1652E-3	-23.5926E-3	-50.3125E-15	-15.4719E-3	-30.4987E-3
217.609E-6	-139.520E-15	7.53527E-3	-14.3865E-3	18.0381E-15	-9.32627E-3	-16.1710E-3
212.606E-6	-183.221E-15	-7.85176E-3	-7.93305E-3	-159.400E-15	11.9857E-3	-12.0837E-3
207.604E-6	-35.1671E-15	-7.46391E-3	-12.7352E-3	-192.891E-15	18.8516E-3	-8.53762E-3
202.601E-6	-28.8456E-15	10.7646E-3	-17.9919E-3	-67.5331E-15	8.51240E-3	-8.29189E-3
197.599E-6	-160.769E-15	18.6081E-3	-22.9158E-3	233.314E-18	2.25895E-3	-25.0009E-3
192.596E-6	-154.343E-15	10.2108E-3	-26.0549E-3	-153.096E-15	3.04520E-3	-35.2295E-3
187.594E-6	-44.2700E-15	5.81495E-3	-20.0313E-3	-204.601E-15	6.05674E-3	-25.1125E-3
182.591E-6	-62.1621E-15	1.98017E-3	-16.3919E-3	-63.8885E-15	7.49280E-3	-17.1360E-3
177.589E-6	-212.195E-15	2.79877E-3	-18.7405E-3	-63.6269E-15	-6.01015E-3	-9.55039E-3
172.586E-6	-120.494E-15	14.4798E-3	-19.7062E-3	-163.576E-15	-20.5826E-3	-792.341E-6
167.584E-6	-11.0756E-15	11.2926E-3	-25.3686E-3	-195.663E-15	-15.0182E-3	-4.27000E-3
162.581E-6	-79.2083E-15	6.25085E-3	-19.9296E-3	-24.6341E-15	-1.37289E-3	-8.95599E-3
157.579E-6	-201.863E-15	15.4284E-3	-6.12093E-3	-115.001E-15	-4.25548E-3	-14.3860E-3
152.576E-6	-105.968E-15	14.1767E-3	-8.92426E-3	-235.153E-15	-10.5542E-3	-23.9507E-3
147.574E-6	-37.5998E-15	9.35597E-3	-14.4143E-3	-145.841E-15	199.175E-6	-19.2061E-3
142.571E-6	-141.168E-15	8.17793E-3	-21.2747E-3	-19.9955E-15	2.49759E-3	-1.90874E-3
137.569E-6	-231.561E-15	759.757E-6	-29.7250E-3	-128.621E-15	-6.84850E-3	60.8437E-6
132.566E-6	-100.998E-15	3.23531E-3	-27.3865E-3	-291.532E-15	-10.2548E-3	-11.1183E-3
127.564E-6	-49.5801E-15	15.7045E-3	-24.0126E-3	-175.321E-15	-8.44238E-3	-17.4076E-3
122.561E-6	-112.237E-15	13.1726E-3	-30.7145E-3	53.8571E-15	50.0924E-6	-22.6603E-3
117.559E-6	-248.284E-15	261.266E-6	-36.4155E-3	-168.607E-15	3.25187E-3	-23.8826E-3
112.556E-6	-89.4012E-15	-7.17916E-3	-29.5406E-3	-306.181E-15	-1.52308E-3	-9.21422E-3
107.554E-6	-23.0211E-15	-7.14663E-3	-27.3705E-3	-88.5292E-15	-8.98168E-3	-902.937E-6
102.551E-6	-237.943E-15	-5.89450E-3	-35.5942E-3	-33.7284E-15	-17.8127E-3	-12.8741E-3
97.5488E-6	-293.163E-15	-471.052E-6	-33.7228E-3	-193.763E-15	-10.3355E-3	-17.7628E-3
92.5463E-6	-120.302E-15	5.25477E-3	-21.3709E-3	-292.186E-15	12.4346E-3	-11.2026E-3
87.5438E-6	-75.7729E-15	-491.080E-6	-6.55157E-3	-111.217E-15	30.3764E-3	-15.6936E-3
82.5413E-6	-198.593E-15	1.72210E-3	-4.66180E-3	-55.0122E-15	30.0504E-3	-24.8129E-3
77.5388E-6	-246.706E-15	12.7751E-3	-19.2727E-3	-211.201E-15	9.46760E-3	-28.8908E-3
72.5363E-6	-101.940E-15	7.38748E-3	-30.9430E-3	-296.659E-15	-14.3672E-3	-28.0326E-3
67.5338E-6	-110.572E-15	-8.77170E-3	-29.9143E-3	-121.567E-15	-15.2520E-3	-16.1698E-3
62.5313E-6	-229.390E-15	-13.5749E-3	-20.7717E-3	-67.0623E-15	-1.92653E-3	-5.32651E-3
57.5288E-6	-232.128E-15	-5.47915E-3	-16.6639E-3	-192.289E-15	2.27625E-3	-6.00255E-3
52.5263E-6	-87.6922E-15	3.46993E-3	-15.6666E-3	-227.375E-15	-2.01708E-3	-16.6651E-3
47.5238E-6	-120.442E-15	6.84648E-3	-14.1090E-3	-108.313E-15	-429.740E-6	-19.8422E-3
42.5213E-6	-235.807E-15	-1.77994E-3	-14.7801E-3	-139.842E-15	9.26463E-3	-6.58541E-3
37.5188E-6	-158.066E-15	-11.4382E-3	-14.8075E-3	-299.798E-15	9.91546E-3	3.63759E-3
32.5163E-6	-67.3239E-15	-8.82949E-3	-11.4216E-3	-195.349E-15	6.63667E-3	50.8160E-6
27.5138E-6	-160.437E-15	-521.074E-6	-14.2555E-3	-82.9402E-15	1.61210E-3	-14.4566E-3
22.5113E-6	-284.295E-15	-376.543E-6	-24.6621E-3	-164.082E-15	-7.45054E-3	-28.3651E-3
17.5088E-6	-160.089E-15	-7.15110E-3	-23.7868E-3	-229.948E-15	-1.58786E-3	-27.3300E-3
12.5063E-6	-77.6737E-15	-10.5845E-3	-14.6885E-3	-145.623E-15	9.82148E-3	-16.5396E-3
7.50375E-6	-213.878E-15	-15.1266E-3	-13.7681E-3	-4.64950E-15	5.36200E-3	-20.6606E-3
2.50125E-6	-212.509E-15	-17.2437E-3	-16.6097E-3	-147.559E-15	-9.11019E-3	-31.4829E-3
-2.50125E-6	-137.968E-15	-13.2826E-3	-20.8044E-3	-330.900E-15	-13.3512E-3	-28.3508E-3
-7.50375E-6	-51.0972E-15	-10.7496E-3	-29.2976E-3	-168.886E-15	-7.57213E-3	-10.1254E-3
-12.5063E-6	-211.480E-15	-15.1114E-3	-25.3651E-3	-19.3328E-15	-198.870E-6	-1.30624E-3
-17.5088E-6	-302.771E-15	-12.9072E-3	-15.3640E-3	-230.802E-15	2.12109E-3	-13.5793E-3
-22.5113E-6	-110.607E-15	4.02799E-3	-15.8215E-3	-348.696E-15	-13.0144E-3	-20.2020E-3
-27.5138E-6	-54.0182E-15	6.14915E-3	-21.1525E-3	-140.784E-15	-21.1228E-3	-14.4436E-3
-32.5163E-6	-228.492E-15	-16.2474E-3	-32.3389E-3	-60.8890E-15	-10.1818E-3	-8.47436E-3
-37.5188E-6	-237.036E-15	-22.8203E-3	-39.4185E-3	-240.324E-15	-6.61501E-3	-10.4802E-3
-42.5213E-6	-84.2481E-15	-1.71288E-3	-31.2269E-3	-270.013E-15	-12.8987E-3	-10.5308E-3
-47.5238E-6	-112.193E-15	12.1794E-3	-16.0722E-3	-142.075E-15	-13.3470E-3	-17.0332E-3
-52.5263E-6	-242.704E-15	7.76597E-3	-12.5169E-3	-59.1452E-15	-10.7505E-3	-35.3594E-3
-57.5288E-6	-243.916E-15	-2.53786E-3	-15.1222E-3	-259.733E-15	-3.29395E-3	-32.1637E-3
-62.5313E-6	-99.3150E-15	-11.0880E-3	-10.4860E-3	-312.563E-15	8.76670E-3	-17.5181E-3
-67.5338E-6	-135.893E-15	-13.4303E-3	-12.8802E-3	-161.989E-15	3.37379E-3	-15.5233E-3
-72.5363E-6	-250.264E-15	-9.18808E-3	-27.1404E-3	-122.883E-15	-16.1059E-3	-18.2480E-3
-77.5388E-6	-237.917E-15	-1.65199E-3	-41.4971E-3	-279.831E-15	-19.1406E-3	-22.8909E-3
-82.5413E-6	-122.247E-15	-482.466E-6	-41.1978E-3	-222.693E-15	-4.24248E-3	-31.3816E-3
-87.5438E-6	-192.838E-15	-8.83500E-3	-23.9976E-3	-105.227E-15	7.43098E-3	-30.3802E-3
-92.5463E-6	-257.518E-15	-11.3175E-3	-12.7782E-3	-188.636E-15	15.6797E-3	-26.6498E-3
-97.5488E-6	-213.808E-15	-2.04759E-3	-15.5533E-3	-310.811E-15	6.54524E-3	-34.5415E-3
-102.551E-6	-84.1870E-15	3.82134E-3	-16.1078E-3	-197.215E-15	-8.54685E-3	-44.3856E-3
-107.554E-6	-213.521E-15	377.686E-6	-15.5123E-3	-121.575E-15	-523.525E-6	-45.2612E-3
-112.556E-6	-270.963E-15	-8.15825E-3	-18.3894E-3	-214.767E-15	11.7009E-3	-29.0485E-3
-117.559E-6	-171.275E-15	-11.3978E-3	-20.9068E-3	-317.777E-15	18.3984E-3	-17.4246E-3
-122.561E-6	-158.275E-15	2.02587E-3	-23.7501E-3	-214.009E-15	15.6968E-3	-19.5752E-3
-127.564E-6	-220.348E-15	8.62305E-3	-29.6508E-3	-67.6901E-15	4.19161E-3	-21.1591E-3
-132.566E-6	-263.500E-15	-3.15718E-3	-32.0862E-3	-235.336E-15	944.833E-6	-16.8503E-3
-137.569E-6	-194.085E-15	-4.66339E-3	-32.4574E-3	-380.469E-15	3.74696E-3	-13.9997E-3
-142.571E-6	-142.179E-15	1.63525E-3	-33.6772E-3	-146.539E-15	4.17755E-3	-21.3749E-3
-147.574E-6	-273.876E-15	-1.32181E-3	-20.8707E-3	-97.4752E-15	-5.22076E-3	-28.6011E-3
-152.576E-6	-326.244E-15	-4.95868E-3	-13.1046E-3	-269.089E-15	-7.79538E-3	-22.1804E-3
-157.579E-6	-147.297E-15	-3.51229E-3	-20.8877E-3	-361.679E-15	6.93991E-3	-12.3723E-3
-162.581E-6	-112.254E-15	-1.72833E-3	-27.0326E-3	-232.607E-15	10.1070E-3	-15.7171E-3
-167.584E-6	-259.759E-15	-4.38494E-3	-31.7306E-3	-126.258E-15	3.02516E-3	-16.3731E-3
-172.586E-6	-278.828E-15	2.59507E-3	-28.2216E-3	-264.084E-15	3.33826E-3	-14.8591E-3
-177.589E-6	-131.934E-15	12.5442E-3	-24.1928E-3	-334.963E-15	2.60975E-3	-22.4658E-3
-182.591E-6	-169.985E-15	13.4607E-3	-30.9613E-3	-170.281E-15	-1.51188E-3	-16.6824E-3
-187.594E-6	-362.568E-15	18.5955E-3	-32.3728E-3	-158.824E-15	-4.16864E-3	-6.05586E-3
-192.596E-6	-260.762E-15	21.1574E-3	-25.7472E-3	-291.201E-15	-8.02796E-3	-10.3393E-3
-197.599E-6	-150.288E-15	19.6946E-3	-20.2510E-3	-306.355E-15	-9.39460E-3	-7.68874E-3
-202.601E-6	-207.373E-15	17.9768E-3	-13.8775E-3	-179.768E-15	-3.21784E-3	-778.442E-6
-207.604E-6	-354.494E-15	13.7335E-3	-12.2317E-3	-187.363E-15	6.98226E-3	-12.3704E-3
-212.606E-6	-249.802E-15	5.89627E-3	-18.0303E-3	-361.191E-15	10.1996E-3	-29.4560E-3
-217.609E-6	-156.923E-15	-5.24121E-3	-13.8583E-3	-276.535E-15	2.37830E-3	-24.4927E-3
-222.611E-6	-260.404E-15	-8.44096E-3	-11.0647E-3	-192.446E-15	373.422E-6	-2.47546E-3
-227.614E-6	-380.417E-15	-8.21608E-3	-12.8014E-3	-236.836E-15	7.47990E-3	572.815E-6
-232.616E-6	-261.172E-15	-9.13398E-3	-12.6789E-3	-353.274E-15	7.77745E-3	-14.4078E-3
-237.619E-6	-166.994E-15	-8.86122E-3	-12.5001E-3	-275.707E-15	7.55273E-3	-19.9161E-3
-242.621E-6	-312.502E-15	-11.5098E-3	-2.46708E-3	-123.799E-15	11.7072E-3	-14.1417E-3
-247.624E-6	-346.795E-15	-12.5970E-3	-5.20390E-3	-286.257E-15	20.4452E-3	-5.72396E-3
-252.626E-6	-271.521E-15	-1.07474E-3	-24.2046E-3	-428.565E-15	26.5052E-3	-6.35074E-3
-257.629E-6	-206.563E-15	15.3385E-3	-30.8304E-3	-261.930E-15	17.4296E-3	-14.1028E-3
-262.631E-6	-293.625E-15	17.4955E-3	-30.6289E-3	-145.362E-15	6.64355E-3	-19.4259E-3
-267.634E-6	-368.079E-15	7.06846E-3	-34.3968E-3	-341.956E-15	7.10857E-3	-16.9635E-3
-272.636E-6	-218.412E-15	4.46534E-3	-28.1388E-3	-435.758E-15	7.40130E-3	-12.9322E-3
-277.639E-6	-176.324E-15	12.1747E-3	-15.3551E-3	-290.216E-15	8.74190E-3	-20.5260E-3
-282.641E-6	-358.575E-15	10.2521E-3	-14.3014E-3	-164.004E-15	9.80631E-3	-27.1509E-3
-287.644E-6	-373.808E-15	6.66431E-3	-27.7011E-3	-347.920E-15	-4.29864E-3	-22.1483E-3
-292.646E-6	-258.713E-15	14.7195E-3	-36.1604E-3	-452.866E-15	-11.1576E-3	-10.3769E-3
-297.649E-6	-225.091E-15	18.2538E-3	-29.3244E-3	-300.129E-15	172.424E-6	4.87454E-3
-302.651E-6	-385.640E-15	11.4817E-3	-25.5205E-3	-208.812E-15	3.35435E-3	14.5741E-3
-307.654E-6	-404.595E-15	10.2688E-3	-20.2613E-3	-370.529E-15	2.62814E-3	10.1122E-3
-312.656E-6	-234.830E-15	17.3686E-3	-9.33820E-3	-422.610E-15	12.1521E-3	888.035E-6
-317.659E-6	-289.038E-15	18.5187E-3	-3.94891E-3	-305.570E-15	18.0433E-3	-9.67242E-3
-322.661E-6	-419.941E-15	4.70279E-3	-5.25180E-3	-249.662E-15	19.6554E-3	-22.6787E-3
-327.664E-6	-408.231E-15	771.144E-6	-15.6286E-3	-425.635E-15	25.7009E-3	-27.4133E-3
-332.666E-6	-312.467E-15	22.0135E-3	-23.6733E-3	-408.833E-15	33.6192E-3	-27.8250E-3
-337.669E-6	-329.034E-15	35.4661E-3	-16.9183E-3	-287.295E-15	42.3919E-3	-33.4869E-3
-342.671E-6	-444.896E-15	28.0066E-3	-9.61006E-3	-376.606E-15	46.6025E-3	-39.0621E-3
-347.674E-6	-423.176E-15	21.6316E-3	-13.0769E-3	-456.807E-15	34.9880E-3	-37.9509E-3
-352.676E-6	-336.585E-15	25.7723E-3	-14.6136E-3	-399.294E-15	25.8358E-3	-27.4377E-3
-357.679E-6	-406.104E-15	28.5119E-3	-10.5827E-3	-321.256E-15	37.0946E-3	-16.5969E-3
-362.681E-6	-529.953E-15	20.2901E-3	-7.94264E-3	-378.847E-15	44.7519E-3	-16.6864E-3
-367.684E-6	-434.407E-15	6.96206E-3	-13.1017E-3	-595.043E-15	37.8693E-3	-15.4121E-3
-372.686E-6	-350.815E-15	7.71140E-3	-19.4880E-3	-463.529E-15	32.5391E-3	-7.75487E-3
-377.689E-6	-446.736E-15	26.3947E-3	-14.8212E-3	-314.699E-15	33.2157E-3	-9.16404E-3
-382.691E-6	-525.262E-15	30.6551E-3	-15.2454E-3	-486.426E-15	37.3622E-3	-13.4072E-3
-387.694E-6	-451.619E-15	18.6176E-3	-22.2070E-3	-634.785E-15	44.8956E-3	-7.07896E-3
-392.696E-6	-377.583E-15	18.7009E-3	-18.3259E-3	-456.589E-15	49.4285E-3	-3.54072E-3
-397.699E-6	-571.291E-15	27.1124E-3	-15.0691E-3	-375.569E-15	44.4326E-3	-6.65064E-3
-402.701E-6	-629.161E-15	26.2959E-3	-16.0539E-3	-562.005E-15	35.7138E-3	-8.56301E-3
-407.704E-6	-480.392E-15	14.4564E-3	-15.1270E-3	-656.113E-15	37.0433E-3	-15.7019E-3
-412.706E-6	-471.298E-15	12.2929E-3	-17.3568E-3	-497.613E-15	45.3361E-3	-27.9671E-3
-417.709E-6	-593.796E-15	29.9969E-3	-16.9497E-3	-437.955E-15	52.6372E-3	-28.0885E-3
-422.711E-6	-653.000E-15	43.9198E-3	-12.2279E-3	-586.332E-15	60.6572E-3	-17.9581E-3
-427.714E-6	-499.453E-15	45.4008E-3	-16.8830E-3	-726.905E-15	59.2590E-3	-19.6819E-3
-432.716E-6	-513.709E-15	50.1474E-3	-20.6194E-3	-565.284E-15	51.6481E-3	-25.8621E-3
-437.719E-6	-673.926E-15	53.1477E-3	-16.1684E-3	-531.836E-15	59.1866E-3	-22.0703E-3
-442.721E-6	-699.334E-15	42.4497E-3	-16.0021E-3	-689.281E-15	66.3193E-3	-19.6973E-3
-447.724E-6	-569.033E-15	32.6375E-3	-18.1045E-3	-688.235E-15	61.6616E-3	-15.2784E-3
-452.726E-6	-642.851E-15	32.9069E-3	-17.9256E-3	-604.512E-15	71.8953E-3	-10.0501E-3
-457.729E-6	-785.603E-15	32.8232E-3	-21.7855E-3	-677.588E-15	77.7003E-3	-8.56714E-3
-462.731E-6	-720.121E-15	35.1100E-3	-24.0660E-3	-800.321E-15	54.4722E-3	950.658E-6
-467.734E-6	-636.416E-15	31.3513E-3	-15.1884E-3	-727.689E-15	46.5923E-3	5.14915E-3
-472.736E-6	-745.721E-15	22.3565E-3	-6.31727E-3	-635.090E-15	57.3084E-3	-5.42460E-3
-477.739E-6	-857.136E-15	31.9654E-3	-9.61510E-3	-784.565E-15	52.7867E-3	-17.9480E-3
-482.741E-6	-761.407E-15	49.2880E-3	-17.7622E-3	-880.207E-15	50.2690E-3	-29.1483E-3
-487.744E-6	-702.133E-15	53.5377E-3	-25.0753E-3	-788.332E-15	59.9092E-3	-39.0296E-3
-492.746E-6	-830.760E-15	47.7925E-3	-33.5424E-3	-706.597E-15	70.8171E-3	-35.7453E-3
-497.749E-6	-937.145E-15	47.2173E-3	-28.6908E-3	-850.884E-15	82.6848E-3	-29.1095E-3
-502.751E-6	-859.700E-15	58.0075E-3	-9.18164E-3	-1.04493E-12	87.9591E-3	-33.4930E-3
-507.754E-6	-854.172E-15	68.7626E-3	2.71255E-3	-862.987E-15	79.0653E-3	-30.6941E-3
-512.756E-6	-927.248E-15	71.6574E-3	-572.056E-6	-774.704E-15	76.8502E-3	-7.52556E-3
-517.759E-6	-1.02047E-12	58.9731E-3	-4.33255E-3	-1.01330E-12	78.6820E-3	8.83294E-3
-522.761E-6	-880.295E-15	40.7899E-3	-7.46804E-3	-1.09877E-12	70.2861E-3	1.96581E-3
-527.764E-6	-880.966E-15	40.8968E-3	-12.8410E-3	-931.032E-15	59.9838E-3	-4.92929E-3
-532.766E-6	-1.03576E-12	51.7262E-3	-12.7956E-3	-913.402E-15	49.6762E-3	-8.97934E-3
-537.769E-6	-1.10599E-12	58.4771E-3	-14.0170E-3	-1.11154E-12	54.3821E-3	-14.7154E-3
-542.771E-6	-996.654E-15	67.9000E-3	-10.9533E-3	-1.18657E-12	72.5239E-3	-11.4245E-3
-547.774E-6	-964.113E-15	79.9530E-3	-6.56247E-3	-1.07647E-12	83.6583E-3	-2.21352E-3
-552.776E-6	-1.14279E-12	83.0972E-3	-16.5826E-3	-1.02830E-12	81.5896E-3	-2.61635E-3
-557.779E-6	-1.18349E-12	80.9480E-3	-23.1934E-3	-1.19662E-12	81.7727E-3	-12.3375E-3
-562.781E-6	-1.07930E-12	85.2201E-3	-21.1607E-3	-1.26895E-12	89.6253E-3	-16.4087E-3
-567.784E-6	-1.13492E-12	86.6902E-3	-20.4725E-3	-1.14253E-12	96.6919E-3	-14.0761E-3
-572.786E-6	-1.32174E-12	80.5531E-3	-20.8672E-3	-1.23620E-12	102.224E-3	-12.3088E-3
-577.789E-6	-1.27739E-12	73.6831E-3	-26.0021E-3	-1.35528E-12	100.534E-3	-13.8026E-3
-582.791E-6	-1.20440E-12	65.1915E-3	-30.8734E-3	-1.35586E-12	101.744E-3	-19.2892E-3
-587.794E-6	-1.28384E-12	62.1113E-3	-26.9760E-3	-1.25335E-12	99.9335E-3	-13.5702E-3
-592.796E-6	-1.42558E-12	67.7202E-3	-15.3632E-3	-1.40141E-12	89.1089E-3	-3.34484E-3
-597.799E-6	-1.35789E-12	74.1791E-3	-9.39668E-3	-1.50685E-12	81.3655E-3	-4.55822E-3
-602.801E-6	-1.28792E-12	81.2006E-3	-14.8303E-3	-1.46723E-12	71.8313E-3	-14.3222E-3
-607.804E-6	-1.41994E-12	82.4236E-3	-17.4423E-3	-1.37300E-12	71.6266E-3	-27.3656E-3
-612.806E-6	-1.53593E-12	73.9317E-3	-12.2582E-3	-1.47177E-12	80.3272E-3	-30.2132E-3
-617.809E-6	-1.43832E-12	70.1745E-3	-2.52174E-3	-1.71346E-12	77.7195E-3	-29.1789E-3
-622.811E-6	-1.46132E-12	79.9543E-3	6.37729E-3	-1.63268E-12	73.7132E-3	-25.2478E-3
-627.814E-6	-1.56028E-12	88.0733E-3	213.343E-6	-1.45354E-12	75.4758E-3	-14.4063E-3
-632.816E-6	-1.58319E-12	83.1960E-3	-14.2292E-3	-1.63523E-12	76.0686E-3	-15.2894E-3
-637.819E-6	-1.53738E-12	75.2554E-3	-16.8710E-3	-1.76384E-12	77.7549E-3	-29.3436E-3
-642.821E-6	-1.55145E-12	71.5175E-3	-12.7217E-3	-1.67023E-12	75.3673E-3	-43.8460E-3
-647.824E-6	-1.71247E-12	72.3447E-3	-10.8311E-3	-1.59134E-12	73.1991E-3	-46.9374E-3
-652.826E-6	-1.73767E-12	80.2146E-3	-7.21226E-3	-1.79933E-12	82.1228E-3	-34.4040E-3
-657.829E-6	-1.67005E-12	83.5242E-3	-8.54479E-3	-1.82964E-12	87.6790E-3	-23.6168E-3
-662.831E-6	-1.66712E-12	70.2945E-3	-18.4016E-3	-1.83523E-12	82.0478E-3	-20.0436E-3
-667.834E-6	-1.80108E-12	66.7503E-3	-20.2157E-3	-1.76313E-12	80.9917E-3	-15.3119E-3
-672.836E-6	-1.93755E-12	81.7514E-3	-17.3855E-3	-1.89668E-12	80.7253E-3	-11.8120E-3
-677.839E-6	-1.75998E-12	86.2402E-3	-19.5750E-3	-1.90355E-12	75.4588E-3	-10.3663E-3
-682.841E-6	-1.81024E-12	87.7735E-3	-15.6969E-3	-1.82235E-12	78.8797E-3	-9.01992E-3
-687.844E-6	-1.97114E-12	91.3050E-3	-9.00753E-3	-1.87505E-12	83.5361E-3	-13.0159E-3
-692.846E-6	-1.98370E-12	87.2712E-3	-4.81601E-3	-2.08253E-12	82.3074E-3	-13.6413E-3
-697.849E-6	-1.84847E-12	83.6766E-3	-252.616E-6	-2.01839E-12	81.9856E-3	-9.41596E-3
-702.851E-6	-1.96564E-12	84.1015E-3	670.698E-6	-1.93132E-12	89.4585E-3	-10.3427E-3
-707.854E-6	-2.11130E-12	86.0638E-3	674.787E-6	-2.03266E-12	93.5788E-3	-7.43338E-3
-712.856E-6	-2.08823E-12	88.0762E-3	-5.56306E-3	-2.23766E-12	82.4893E-3	-867.676E-6
-717.859E-6	-1.99798E-12	92.1048E-3	-17.6953E-3	-2.16467E-12	83.3157E-3	-11.3596E-3
-722.861E-6	-2.12635E-12	93.0211E-3	-23.1420E-3	-2.09322E-12	100.865E-3	-26.4122E-3
-727.864E-6	-2.24392E-12	95.2318E-3	-28.5912E-3	-2.22850E-12	116.350E-3	-28.2994E-3
-732.866E-6	-2.11263E-12	109.055E-3	-24.0467E-3	-2.36728E-12	122.243E-3	-30.0987E-3
-737.869E-6	-2.06419E-12	110.776E-3	-10.5481E-3	-2.28827E-12	110.220E-3	-36.1233E-3
-742.871E-6	-2.21372E-12	95.4180E-3	-8.52388E-3	-2.15425E-12	98.3950E-3	-31.3878E-3
-747.874E-6	-2.40618E-12	83.8116E-3	-8.74300E-3	-2.32210E-12	105.075E-3	-16.5594E-3
-752.876E-6	-2.26124E-12	73.5153E-3	-15.5294E-3	-2.41561E-12	105.509E-3	-8.74163E-3
-757.879E-6	-2.13770E-12	69.4296E-3	-30.4686E-3	-2.44590E-12	93.8397E-3	-11.4871E-3
-762.881E-6	-2.28035E-12	80.8815E-3	-29.1494E-3	-2.39582E-12	94.4195E-3	-14.9300E-3
-767.884E-6	-2.45097E-12	87.4325E-3	-9.89103E-3	-2.56000E-12	99.2655E-3	-11.4515E-3
-772.886E-6	-2.42424E-12	83.8948E-3	4.78523E-3	-2.52133E-12	94.2394E-3	-1.84932E-3
-777.889E-6	-2.31445E-12	86.4450E-3	8.16280E-3	-2.40780E-12	83.5709E-3	-1.89358E-3
-782.891E-6	-2.43603E-12	91.2490E-3	1.81533E-3	-2.49621E-12	77.9235E-3	-14.6431E-3
-787.894E-6	-2.60407E-12	90.1780E-3	-11.5347E-3	-2.70063E-12	85.0514E-3	-24.7651E-3
-792.896E-6	-2.52838E-12	90.1325E-3	-23.9841E-3	-2.65862E-12	91.7041E-3	-25.9141E-3
-797.899E-6	-2.48310E-12	92.2495E-3	-28.6818E-3	-2.49198E-12	86.7737E-3	-10.8498E-3
-802.901E-6	-2.59276E-12	90.1613E-3	-21.2981E-3	-2.60723E-12	81.5334E-3	2.08258E-3
-807.904E-6	-2.61034E-12	88.9094E-3	-12.3855E-3	-2.84138E-12	82.4778E-3	-4.01141E-3
-812.906E-6	-2.62574E-12	91.6210E-3	-8.47478E-3	-2.73780E-12	80.9828E-3	-7.48797E-3
-817.909E-6	-2.64994E-12	95.5553E-3	-11.4119E-3	-2.54042E-12	86.5380E-3	3.73655E-3
-822.911E-6	-2.72062E-12	90.7332E-3	-18.0430E-3	-2.64595E-12	98.6070E-3	2.79209E-3
-827.914E-6	-2.70529E-12	80.2769E-3	-16.8087E-3	-2.97438E-12	96.9636E-3	-15.6828E-3
-832.916E-6	-2.62513E-12	71.4417E-3	-21.6873E-3	-2.88672E-12	88.1649E-3	-23.7596E-3
-837.919E-6	-2.77918E-12	66.2008E-3	-26.2284E-3	-2.63538E-12	87.9266E-3	-20.5910E-3
-842.921E-6	-2.85952E-12	75.6100E-3	-17.7053E-3	-2.76439E-12	92.5509E-3	-17.6485E-3
-847.924E-6	-2.80804E-12	94.8351E-3	-25.8519E-3	-2.99959E-12	90.6915E-3	-20.0711E-3
-852.926E-6	-2.77448E-12	108.798E-3	-36.8736E-3	-2.99685E-12	87.7834E-3	-25.0905E-3
-857.929E-6	-2.90717E-12	108.319E-3	-27.0608E-3	-2.83184E-12	87.9481E-3	-24.0179E-3
-862.931E-6	-3.03192E-12	95.3946E-3	-17.6411E-3	-2.91977E-12	87.9892E-3	-16.4181E-3
-867.934E-6	-3.03931E-12	91.2506E-3	-15.3696E-3	-3.16206E-12	93.4838E-3	-7.57554E-3
-872.936E-6	-2.92291E-12	90.6994E-3	-10.4923E-3	-3.19673E-12	95.0569E-3	-8.01024E-3
-877.939E-6	-3.06671E-12	73.1591E-3	-8.96729E-3	-3.05970E-12	89.3891E-3	-4.70659E-3
-882.941E-6	-3.23885E-12	64.2409E-3	-12.0976E-3	-3.04968E-12	90.7357E-3	12.4137E-3
-887.944E-6	-3.06661E-12	78.8486E-3	484.174E-6	-3.24897E-12	94.6035E-3	15.7191E-3
-892.946E-6	-3.04775E-12	87.2964E-3	17.0186E-3	-3.14958E-12	93.1595E-3	10.0126E-3
-897.949E-6	-3.21065E-12	92.2618E-3	11.1237E-3	-3.15372E-12	90.4600E-3	6.32327E-3
-902.951E-6	-3.24501E-12	99.8284E-3	-3.69965E-3	-3.27141E-12	95.2221E-3	-11.8034E-3
-907.954E-6	-3.22708E-12	89.7674E-3	-12.4376E-3	-3.32414E-12	103.923E-3	-22.0040E-3
-912.956E-6	-3.20113E-12	86.8936E-3	-18.8532E-3	-3.29825E-12	106.312E-3	-14.9304E-3
-917.959E-6	-3.32621E-12	91.1206E-3	-20.0555E-3	-3.28023E-12	106.700E-3	-8.88668E-3
-922.961E-6	-3.30916E-12	84.2653E-3	-13.8167E-3	-3.52937E-12	109.104E-3	-922.171E-6
-927.964E-6	-3.17625E-12	92.5346E-3	-19.6776E-3	-3.45564E-12	108.975E-3	-282.340E-6
-932.966E-6	-3.23873E-12	104.708E-3	-26.7918E-3	-3.29257E-12	98.1615E-3	-6.23364E-3
-937.969E-6	-3.47186E-12	98.1690E-3	-19.4881E-3	-3.37120E-12	84.8730E-3	-6.91769E-3
-942.971E-6	-3.44940E-12	102.832E-3	-24.5680E-3	-3.66685E-12	94.9789E-3	-9.69043E-3
-947.974E-6	-3.34964E-12	121.929E-3	-33.1338E-3	-3.58073E-12	121.074E-3	-17.7709E-3
-952.976E-6	-3.42760E-12	114.425E-3	-22.9255E-3	-3.42324E-12	137.419E-3	-21.4436E-3
-957.979E-6	-3.64049E-12	96.3389E-3	-16.1991E-3	-3.54644E-12	146.591E-3	-14.9596E-3
-962.981E-6	-3.63116E-12	103.553E-3	-16.7124E-3	-3.89664E-12	145.259E-3	-9.61327E-3
-967.984E-6	-3.55771E-12	116.918E-3	-12.0525E-3	-3.82289E-12	136.453E-3	-15.5823E-3
-972.986E-6	-3.76566E-12	129.887E-3	-11.2613E-3	-3.66912E-12	141.499E-3	-14.9921E-3
-977.989E-6	-3.95740E-12	140.407E-3	-15.1993E-3	-3.71211E-12	150.811E-3	-12.6829E-3
-982.991E-6	-3.91316E-12	131.216E-3	-18.9191E-3	-3.93221E-12	151.590E-3	-32.6908E-3
-987.994E-6	-3.79702E-12	116.589E-3	-24.8881E-3	-3.91808E-12	158.168E-3	-43.2021E-3
-992.997E-6	-4.03398E-12	130.309E-3	-21.3562E-3	-3.84755E-12	169.448E-3	-28.6856E-3
-997.999E-6	-4.21279E-12	150.636E-3	-6.06812E-3	-3.91712E-12	171.869E-3	-25.9578E-3
-1.00300E-3	-4.08777E-12	151.805E-3	-6.54428E-3	-4.10068E-12	178.278E-3	-27.6416E-3
-1.00800E-3	-4.04471E-12	156.720E-3	-16.8376E-3	-3.99413E-12	193.354E-3	-19.3186E-3
-1.01301E-3	-4.18988E-12	166.819E-3	-12.1158E-3	-4.00752E-12	193.552E-3	-18.1290E-3
-1.01801E-3	-4.39219E-12	162.399E-3	-13.6090E-3	-4.25336E-12	184.129E-3	-19.0080E-3
-1.02301E-3	-4.31788E-12	152.152E-3	-21.4037E-3	-4.38383E-12	185.105E-3	-9.38624E-3
-1.02801E-3	-4.25229E-12	155.644E-3	-14.7440E-3	-4.18490E-12	187.889E-3	2.78607E-3
-1.03302E-3	-4.39432E-12	165.583E-3	-7.77040E-3	-4.18970E-12	193.768E-3	1.14278E-3
-1.03802E-3	-4.50140E-12	176.730E-3	-6.28736E-3	-4.46274E-12	214.404E-3	-6.56499E-3
-1.04302E-3	-4.55503E-12	188.946E-3	-4.91758E-3	-4.62069E-12	238.006E-3	-6.59699E-3
-1.04802E-3	-4.56078E-12	193.606E-3	-5.08682E-3	-4.55213E-12	247.827E-3	-4.73235E-3
-1.05303E-3	-4.70571E-12	199.587E-3	-8.10728E-3	-4.45750E-12	249.483E-3	-2.62195E-3
-1.05803E-3	-4.68262E-12	211.141E-3	-10.8133E-3	-4.81616E-12	258.438E-3	-1.14671E-3
-1.06303E-3	-4.69524E-12	215.401E-3	-16.7754E-3	-4.97196E-12	275.944E-3	-12.4188E-3
-1.06803E-3	-4.91496E-12	218.713E-3	-28.8964E-3	-4.98451E-12	285.091E-3	-27.8319E-3
-1.07304E-3	-5.21805E-12	226.305E-3	-24.2811E-3	-4.94532E-12	284.814E-3	-26.5751E-3
-1.07804E-3	-5.17860E-12	235.300E-3	-1.75222E-3	-5.20668E-12	291.542E-3	-18.4528E-3
-1.08304E-3	-5.15040E-12	250.280E-3	-4.78539E-3	-5.31098E-12	308.574E-3	-14.6837E-3
-1.08804E-3	-5.34592E-12	266.831E-3	-20.2212E-3	-5.27037E-12	334.091E-3	-15.9781E-3
-1.09305E-3	-5.61636E-12	274.548E-3	-20.8084E-3	-5.48852E-12	354.773E-3	-28.0565E-3
-1.09805E-3	-5.66191E-12	284.591E-3	-22.9172E-3	-5.52068E-12	366.746E-3	-34.0807E-3
-1.10305E-3	-5.65389E-12	307.647E-3	-23.6815E-3	-5.64859E-12	372.363E-3	-26.4590E-3
-1.10805E-3	-5.77368E-12	323.931E-3	-23.3577E-3	-5.85108E-12	367.755E-3	-17.7426E-3
-1.11306E-3	-5.96890E-12	328.789E-3	-26.0684E-3	-5.98240E-12	369.771E-3	-10.7263E-3
-1.11806E-3	-6.00965E-12	333.719E-3	-17.6874E-3	-6.01838E-12	390.380E-3	-16.9653E-3
-1.12306E-3	-6.06120E-12	338.790E-3	-6.19707E-3	-5.89119E-12	414.265E-3	-23.5507E-3
-1.12806E-3	-6.08876E-12	352.043E-3	-7.82422E-3	-6.12088E-12	431.401E-3	-13.2876E-3
-1.13307E-3	-6.20053E-12	376.628E-3	-14.7939E-3	-6.42856E-12	444.543E-3	-6.62828E-3
-1.13807E-3	-6.29045E-12	388.336E-3	-11.1843E-3	-6.62873E-12	455.749E-3	-13.4644E-3
-1.14307E-3	-6.46795E-12	384.742E-3	-9.02880E-3	-6.33155E-12	463.309E-3	-18.3276E-3
-1.14807E-3	-6.72427E-12	400.483E-3	-24.5869E-3	-6.54909E-12	483.666E-3	-17.0498E-3
-1.15308E-3	-6.73857E-12	418.737E-3	-29.0891E-3	-7.09816E-12	512.863E-3	-15.8501E-3
-1.15808E-3	-6.71445E-12	423.535E-3	-19.3275E-3	-7.29712E-12	523.900E-3	-10.5613E-3
-1.16308E-3	-6.91296E-12	436.934E-3	-16.5745E-3	-7.19532E-12	537.277E-3	-11.1000E-3
-1.16808E-3	-7.38198E-12	452.588E-3	-13.3947E-3	-7.27333E-12	561.652E-3	-17.0259E-3
-1.17309E-3	-7.62220E-12	466.517E-3	-13.8098E-3	-7.76585E-12	577.976E-3	-12.7445E-3
-1.17809E-3	-7.45844E-12	488.416E-3	-17.3839E-3	-8.01211E-12	592.186E-3	-2.59145E-3
-1.18309E-3	-7.68337E-12	519.441E-3	-10.9551E-3	-8.01724E-12	601.724E-3	-3.37327E-3
-1.18809E-3	-8.13715E-12	537.280E-3	-10.8313E-3	-8.10293E-12	607.338E-3	-20.6679E-3
-1.19310E-3	-8.44570E-12	537.982E-3	-20.2195E-3	-8.58713E-12	626.208E-3	-31.3165E-3
-1.19810E-3	-8.31039E-12	556.971E-3	-17.4015E-3	-8.58192E-12	649.971E-3	-17.2483E-3
-1.20310E-3	-8.56752E-12	586.360E-3	-8.57447E-3	-8.65939E-12	664.873E-3	-4.99641E-3
-1.20810E-3	-8.90601E-12	599.335E-3	-14.0071E-3	-8.98707E-12	682.687E-3	-10.8805E-3
-1.21311E-3	-9.29834E-12	617.051E-3	-25.2352E-3	-9.32420E-12	697.173E-3	-12.7938E-3
-1.21811E-3	-9.28170E-12	639.828E-3	-23.5637E-3	-9.34810E-12	707.309E-3	-14.9687E-3
-1.22311E-3	-9.47589E-12	658.962E-3	-22.5623E-3	-9.27714E-12	733.902E-3	-21.6487E-3
-1.22811E-3	-9.83072E-12	677.936E-3	-29.3706E-3	-9.85340E-12	764.123E-3	-14.2420E-3
-1.23312E-3	-9.95553E-12	685.707E-3	-23.7526E-3	-10.2607E-12	775.926E-3	-2.67516E-3
-1.23812E-3	-10.2008E-12	702.482E-3	-10.0351E-3	-10.2370E-12	776.110E-3	-2.12220E-3
-1.24312E-3	-10.3880E-12	727.813E-3	-3.99349E-3	-10.2480E-12	785.623E-3	-9.15066E-3
-1.24812E-3	-10.7304E-12	736.999E-3	-11.4384E-3	-10.6853E-12	810.454E-3	-15.9817E-3
-1.25313E-3	-10.8407E-12	751.287E-3	-23.1204E-3	-11.1326E-12	836.381E-3	-15.4500E-3
-1.25813E-3	-11.1248E-12	781.148E-3	-24.6855E-3	-11.1479E-12	849.141E-3	-20.0810E-3
-1.26313E-3	-11.5088E-12	793.838E-3	-19.2196E-3	-11.5082E-12	853.041E-3	-24.2219E-3
-1.26813E-3	-11.8312E-12	794.702E-3	-23.4227E-3	-12.0803E-12	867.545E-3	-14.0665E-3
-1.27314E-3	-11.9867E-12	818.804E-3	-30.4837E-3	-12.5160E-12	899.197E-3	-5.78292E-3
-1.27814E-3	-12.3072E-12	849.924E-3	-22.5062E-3	-12.3896E-12	923.894E-3	-11.8389E-3
-1.28314E-3	-12.9160E-12	864.221E-3	-23.6921E-3	-12.8720E-12	937.133E-3	-20.5143E-3
-1.28814E-3	-13.1196E-12	875.428E-3	-30.1342E-3	-13.1959E-12	962.911E-3	-21.4725E-3
-1.29315E-3	-13.2884E-12	891.360E-3	-19.8476E-3	-13.5588E-12	984.547E-3	-29.5686E-3
-1.29815E-3	-13.5706E-12	911.373E-3	-15.8494E-3	-13.6794E-12	978.174E-3	-37.0765E-3
-1.30315E-3	-14.2874E-12	937.459E-3	-19.7588E-3	-13.8577E-12	978.460E-3	-22.8766E-3
-1.30815E-3	-14.5306E-12	956.274E-3	-22.5453E-3	-14.4781E-12	1.00228E+0	-8.26420E-3
-1.31316E-3	-14.6870E-12	968.760E-3	-30.3944E-3	-14.6485E-12	1.02412E+0	-18.6836E-3
-1.31816E-3	-15.0169E-12	992.573E-3	-24.1515E-3	-14.8984E-12	1.03045E+0	-28.2083E-3
-1.32316E-3	-15.4951E-12	1.01257E+0	-13.3989E-3	-15.1482E-12	1.03904E+0	-25.9568E-3
-1.32816E-3	-15.8662E-12	1.01601E+0	-17.8932E-3	-15.8171E-12	1.06070E+0	-22.5240E-3
-1.33317E-3	-15.9396E-12	1.03015E+0	-19.9980E-3	-15.7956E-12	1.07806E+0	-9.00918E-3
-1.33817E-3	-16.4478E-12	1.04097E+0	-16.4700E-3	-16.0357E-12	1.08987E+0	-2.70748E-3
-1.34317E-3	-16.6795E-12	1.03737E+0	-13.4013E-3	-16.5456E-12	1.09738E+0	-6.84367E-3
-1.34817E-3	-16.9600E-12	1.04703E+0	-3.34907E-3	-16.8264E-12	1.10417E+0	-16.2154E-3
-1.35318E-3	-17.0171E-12	1.07588E+0	13.5328E-3	-16.9817E-12	1.11970E+0	-32.1631E-3
-1.35818E-3	-17.7363E-12	1.09683E+0	11.1412E-3	-17.3238E-12	1.13538E+0	-29.3524E-3
-1.36318E-3	-18.2151E-12	1.09733E+0	-11.5573E-3	-18.5333E-12	1.15135E+0	-7.46248E-3
-1.36818E-3	-18.5075E-12	1.09979E+0	-14.2243E-3	-18.8909E-12	1.16989E+0	-11.1926E-3
-1.37319E-3	-18.6444E-12	1.10619E+0	-1.42676E-3	-19.0721E-12	1.17282E+0	-33.7511E-3
-1.37819E-3	-19.3249E-12	1.12121E+0	-9.12091E-3	-19.5338E-12	1.17067E+0	-23.8953E-3
-1.38319E-3	-19.7800E-12	1.13982E+0	-16.9546E-3	-20.3746E-12	1.18717E+0	-4.06374E-3
-1.38819E-3	-19.9969E-12	1.14235E+0	-11.6717E-3	-21.0006E-12	1.19834E+0	-3.83416E-3
-1.39320E-3	-20.3245E-12	1.14961E+0	-17.8071E-3	-20.6789E-12	1.20004E+0	225.385E-6
-1.39820E-3	-21.0727E-12	1.16696E+0	-23.6910E-3	-21.3463E-12	1.21238E+0	1.52834E-3
-1.40320E-3	-21.8024E-12	1.16498E+0	-15.1346E-3	-21.7810E-12	1.22527E+0	-6.13640E-3
-1.40820E-3	-22.0412E-12	1.16711E+0	-16.2094E-3	-22.3555E-12	1.22239E+0	-7.81302E-3
-1.41321E-3	-22.1663E-12	1.19304E+0	-20.8778E-3	-22.1706E-12	1.20459E+0	-17.8785E-3
-1.41821E-3	-22.6306E-12	1.20520E+0	-10.3782E-3	-22.5624E-12	1.19246E+0	-21.6915E-3
-1.42321E-3	-23.4859E-12	1.20543E+0	1.28456E-3	-23.1351E-12	1.19361E+0	-7.15254E-3
-1.42821E-3	-23.8954E-12	1.21923E+0	7.06861E-3	-23.5793E-12	1.20220E+0	-4.32345E-3
-1.43322E-3	-23.7876E-12	1.22492E+0	-1.94493E-3	-23.6547E-12	1.20787E+0	-6.45793E-3
-1.43822E-3	-24.1047E-12	1.21571E+0	-20.8881E-3	-23.9167E-12	1.20837E+0	-2.53469E-3
-1.44322E-3	-24.5467E-12	1.20924E+0	-28.8368E-3	-24.6059E-12	1.20967E+0	-5.71320E-3
-1.44822E-3	-24.9960E-12	1.20269E+0	-23.0886E-3	-24.6305E-12	1.20942E+0	-10.1649E-3
-1.45323E-3	-25.1629E-12	1.19946E+0	-25.1608E-3	-24.8727E-12	1.20756E+0	-9.68099E-3
-1.45823E-3	-25.2971E-12	1.21635E+0	-34.7886E-3	-25.5199E-12	1.20522E+0	-15.4961E-3
-1.46323E-3	-25.4373E-12	1.23349E+0	-29.9030E-3	-26.2899E-12	1.20275E+0	-21.3613E-3
-1.46823E-3	-26.1266E-12	1.21206E+0	-23.4854E-3	-26.4343E-12	1.20557E+0	-12.3368E-3
-1.47324E-3	-26.7692E-12	1.18571E+0	-22.9786E-3	-26.5760E-12	1.21509E+0	-1.09208E-3
-1.47824E-3	-26.9140E-12	1.18859E+0	-13.7429E-3	-27.4407E-12	1.22514E+0	-4.75793E-3
-1.48324E-3	-27.0844E-12	1.19720E+0	-6.59654E-3	-28.0248E-12	1.22630E+0	-9.80600E-3
-1.48824E-3	-27.5348E-12	1.20369E+0	-18.7463E-3	-28.3897E-12	1.21850E+0	-166.417E-6
-1.49325E-3	-28.5417E-12	1.20917E+0	-22.7241E-3	-28.4833E-12	1.21772E+0	3.25429E-3
-1.49825E-3	-28.9645E-12	1.19852E+0	-11.7934E-3	-29.4263E-12	1.22350E+0	-2.84407E-3
-1.50325E-3	-29.2839E-12	1.18409E+0	-19.8063E-3	-29.6902E-12	1.21508E+0	766.270E-6
-1.50825E-3	-29.7784E-12	1.18524E+0	-35.9915E-3	-30.0468E-12	1.18994E+0	-3.16732E-3
-1.51326E-3	-30.9223E-12	1.19197E+0	-41.1741E-3	-29.9843E-12	1.16939E+0	-14.3866E-3
-1.51826E-3	-31.7296E-12	1.21289E+0	-34.3410E-3	-30.2939E-12	1.15900E+0	-11.1640E-3
-1.52326E-3	-31.4217E-12	1.24080E+0	-18.1693E-3	-30.5696E-12	1.14668E+0	-9.75772E-3
-1.52826E-3	-31.3486E-12	1.24261E+0	-10.4121E-3	-30.5607E-12	1.14448E+0	-10.0803E-3
-1.53327E-3	-32.1672E-12	1.22474E+0	-13.3724E-3	-30.7924E-12	1.14768E+0	-813.799E-6
-1.53827E-3	-33.1906E-12	1.21118E+0	-10.8534E-3	-31.0751E-12	1.13408E+0	-4.79056E-3
-1.54327E-3	-32.9032E-12	1.20154E+0	-6.02192E-3	-31.5779E-12	1.11728E+0	-12.0972E-3
-1.54827E-3	-32.6261E-12	1.19927E+0	-4.46250E-3	-31.7612E-12	1.10971E+0	-7.33557E-3
-1.55328E-3	-32.9809E-12	1.20219E+0	14.8546E-3	-32.1627E-12	1.11149E+0	-7.55069E-3
-1.55828E-3	-33.7886E-12	1.18596E+0	33.5027E-3	-32.8146E-12	1.11893E+0	-9.84169E-3
-1.56328E-3	-34.0333E-12	1.16536E+0	16.5865E-3	-33.0188E-12	1.12761E+0	-5.51494E-3
-1.56828E-3	-33.6910E-12	1.15579E+0	-1.26133E-3	-33.4551E-12	1.13000E+0	-9.69632E-3
-1.57329E-3	-34.1049E-12	1.13639E+0	2.70242E-3	-34.1271E-12	1.12712E+0	-27.2335E-3
-1.57829E-3	-34.7020E-12	1.11824E+0	-4.60544E-3	-35.0915E-12	1.13229E+0	-37.4212E-3
-1.58329E-3	-35.1728E-12	1.12643E+0	-14.5151E-3	-35.5985E-12	1.13887E+0	-32.6702E-3
-1.58829E-3	-35.5910E-12	1.13031E+0	-3.20950E-3	-35.9675E-12	1.13510E+0	-27.3621E-3
-1.59330E-3	-35.9224E-12	1.12108E+0	-764.587E-6	-36.7379E-12	1.12457E+0	-26.9270E-3
-1.59830E-3	-36.6707E-12	1.12555E+0	-6.06982E-3	-37.5139E-12	1.11924E+0	-23.3493E-3
-1.60330E-3	-37.6648E-12	1.13232E+0	2.36774E-3	-37.6588E-12	1.12315E+0	-21.3679E-3
-1.60830E-3	-38.3105E-12	1.13568E+0	-3.73445E-3	-37.6010E-12	1.13049E+0	-26.9800E-3
-1.61331E-3	-38.4489E-12	1.14304E+0	-17.8624E-3	-38.0484E-12	1.13352E+0	-31.0986E-3
-1.61831E-3	-38.7076E-12	1.13929E+0	-20.9325E-3	-38.8914E-12	1.11454E+0	-22.7785E-3
-1.62331E-3	-39.3411E-12	1.12419E+0	-31.4307E-3	-38.9809E-12	1.07682E+0	-12.0514E-3
-1.62831E-3	-39.9754E-12	1.12273E+0	-41.4228E-3	-39.0735E-12	1.05261E+0	-11.0703E-3
-1.63332E-3	-40.2019E-12	1.12700E+0	-26.4203E-3	-39.1022E-12	1.04803E+0	-5.26835E-3
-1.63832E-3	-40.0913E-12	1.11633E+0	-8.68047E-3	-39.5665E-12	1.03599E+0	3.81511E-3
-1.64332E-3	-40.1364E-12	1.11112E+0	-10.7730E-3	-39.5635E-12	1.01970E+0	-2.26045E-3
-1.64832E-3	-41.1379E-12	1.10687E+0	-13.8612E-3	-39.8243E-12	1.02186E+0	-14.9798E-3
-1.65333E-3	-41.0349E-12	1.08958E+0	-21.7683E-3	-40.2363E-12	1.03481E+0	-24.0071E-3
-1.65833E-3	-40.6878E-12	1.08210E+0	-30.6453E-3	-40.7181E-12	1.04674E+0	-32.4454E-3
-1.66333E-3	-40.8346E-12	1.07767E+0	-22.2563E-3	-41.0522E-12	1.04345E+0	-36.3735E-3
-1.66833E-3	-41.8408E-12	1.05423E+0	-8.16153E-3	-41.4222E-12	1.02503E+0	-30.0257E-3
-1.67334E-3	-42.2441E-12	1.03215E+0	-1.73528E-3	-42.2616E-12	1.00836E+0	-22.9653E-3
-1.67834E-3	-41.8546E-12	1.03959E+0	6.76816E-3	-42.5028E-12	999.082E-3	-30.6939E-3
-1.68334E-3	-42.1527E-12	1.04377E+0	4.01017E-3	-43.0584E-12	1.00025E+0	-34.8528E-3
-1.68834E-3	-43.3713E-12	1.03192E+0	-21.4884E-3	-43.6393E-12	1.01290E+0	-18.9993E-3
-1.69335E-3	-43.3781E-12	1.02807E+0	-26.4412E-3	-44.3751E-12	1.02259E+0	-3.63749E-3
-1.69835E-3	-43.4499E-12	1.01189E+0	-12.1259E-3	-44.5057E-12	1.02254E+0	3.41620E-3
-1.70335E-3	-44.1195E-12	992.578E-3	-19.6440E-3	-44.6143E-12	1.01530E+0	6.18768E-3
-1.70835E-3	-45.0348E-12	998.055E-3	-24.4604E-3	-45.5364E-12	1.00259E+0	6.96994E-3
-1.71336E-3	-45.5963E-12	1.00717E+0	-16.6673E-3	-45.9554E-12	996.540E-3	15.0898E-3
-1.71836E-3	-45.6818E-12	1.02306E+0	-27.6635E-3	-45.8472E-12	993.949E-3	13.4529E-3
-1.72336E-3	-46.2430E-12	1.04053E+0	-37.6953E-3	-45.7339E-12	984.607E-3	-10.7834E-3
-1.72836E-3	-46.4952E-12	1.02330E+0	-31.5592E-3	-46.8045E-12	973.603E-3	-27.7439E-3
-1.73337E-3	-46.8678E-12	1.00783E+0	-33.2596E-3	-46.9907E-12	965.407E-3	-19.9613E-3
-1.73837E-3	-47.2179E-12	1.02221E+0	-35.0294E-3	-46.9029E-12	962.107E-3	-11.9409E-3
-1.74337E-3	-47.7131E-12	1.01802E+0	-17.0263E-3	-46.4826E-12	960.415E-3	-11.9798E-3
-1.74837E-3	-47.9187E-12	990.859E-3	-8.88092E-3	-46.5689E-12	961.945E-3	-13.6753E-3
-1.75338E-3	-47.9334E-12	975.168E-3	-13.7903E-3	-47.1581E-12	962.490E-3	-31.1287E-3
-1.75838E-3	-48.0115E-12	962.531E-3	-9.93705E-3	-47.1054E-12	948.869E-3	-43.9488E-3
-1.76338E-3	-48.2659E-12	955.525E-3	-16.1837E-3	-46.9325E-12	924.165E-3	-35.4849E-3
-1.76838E-3	-48.8081E-12	967.704E-3	-26.9573E-3	-47.3245E-12	907.430E-3	-24.3369E-3
-1.77339E-3	-48.3575E-12	961.993E-3	-21.5271E-3	-47.8578E-12	902.189E-3	-21.4041E-3
-1.77839E-3	-48.2030E-12	927.384E-3	-18.1320E-3	-47.8017E-12	894.972E-3	-19.8898E-3
-1.78339E-3	-48.6789E-12	913.670E-3	-24.9233E-3	-48.0653E-12	896.833E-3	-25.1690E-3
-1.78839E-3	-49.0787E-12	914.964E-3	-21.9868E-3	-48.4925E-12	909.584E-3	-34.9498E-3
-1.79340E-3	-49.1683E-12	911.438E-3	-14.1059E-3	-49.1085E-12	910.258E-3	-30.3876E-3
-1.79840E-3	-49.4222E-12	914.571E-3	-15.6088E-3	-49.6519E-12	903.602E-3	-19.6198E-3
-1.80340E-3	-50.0395E-12	906.203E-3	-16.9483E-3	-49.9524E-12	911.836E-3	-15.1004E-3
-1.80840E-3	-50.7038E-12	892.474E-3	-14.5021E-3	-50.6206E-12	920.961E-3	-17.7121E-3
-1.81341E-3	-51.4256E-12	902.528E-3	-12.1234E-3	-50.9550E-12	914.531E-3	-20.3371E-3
-1.81841E-3	-51.9707E-12	918.564E-3	-6.88567E-3	-51.5902E-12	898.996E-3	-18.9701E-3
-1.82341E-3	-52.2674E-12	909.072E-3	-11.3343E-3	-52.0186E-12	884.632E-3	-18.2641E-3
-1.82841E-3	-52.2925E-12	906.907E-3	-22.4714E-3	-52.5523E-12	885.267E-3	-17.3448E-3
-1.83342E-3	-52.9798E-12	920.715E-3	-18.8264E-3	-52.5095E-12	883.899E-3	-15.6369E-3
-1.83842E-3	-53.7089E-12	923.548E-3	-20.6418E-3	-52.4075E-12	872.133E-3	-11.8498E-3
-1.84342E-3	-54.0868E-12	934.883E-3	-37.1777E-3	-52.9442E-12	867.622E-3	-7.09106E-3
-1.84842E-3	-54.2657E-12	941.567E-3	-29.1215E-3	-53.1653E-12	859.203E-3	-8.17446E-3
-1.85343E-3	-54.2945E-12	917.655E-3	-11.9790E-3	-52.9990E-12	844.563E-3	-15.1670E-3
-1.85843E-3	-54.9362E-12	897.967E-3	-24.4989E-3	-52.7370E-12	838.519E-3	-13.6633E-3
-1.86343E-3	-55.0091E-12	905.300E-3	-30.2516E-3	-53.0782E-12	843.159E-3	-9.62687E-3
-1.86843E-3	-54.3467E-12	912.012E-3	-21.6496E-3	-53.5843E-12	845.795E-3	-7.71389E-3
-1.87344E-3	-53.8907E-12	893.583E-3	-23.5424E-3	-53.2892E-12	841.318E-3	-1.93826E-3
-1.87844E-3	-54.6598E-12	868.458E-3	-15.5858E-3	-53.3486E-12	841.575E-3	-9.94511E-3
-1.88344E-3	-55.2640E-12	863.050E-3	2.99067E-3	-54.0630E-12	840.395E-3	-20.4042E-3
-1.88844E-3	-54.6779E-12	872.242E-3	2.22733E-3	-55.0783E-12	841.223E-3	-15.8787E-3
-1.89345E-3	-54.1700E-12	878.617E-3	-10.4770E-3	-54.9346E-12	855.044E-3	-19.7993E-3
-1.89845E-3	-55.1072E-12	866.431E-3	-16.1498E-3	-55.3968E-12	862.443E-3	-18.8329E-3
-1.90345E-3	-56.0918E-12	849.628E-3	-27.1831E-3	-56.3329E-12	854.523E-3	-3.59916E-3
-1.90845E-3	-56.0723E-12	854.750E-3	-22.4429E-3	-57.1977E-12	857.741E-3	-4.29517E-3
-1.91346E-3	-55.9228E-12	861.173E-3	-6.07528E-3	-57.3950E-12	874.012E-3	-7.73189E-3
-1.91846E-3	-57.0051E-12	858.423E-3	-12.5959E-3	-57.7748E-12	877.572E-3	-3.56863E-3
-1.92346E-3	-58.1187E-12	864.175E-3	-17.4209E-3	-58.6302E-12	865.694E-3	-1.10231E-3
-1.92846E-3	-58.4430E-12	860.697E-3	-6.33655E-3	-59.2213E-12	853.937E-3	-5.23743E-3
-1.93347E-3	-58.5768E-12	850.396E-3	-13.5533E-3	-59.0266E-12	849.286E-3	-9.52487E-3
-1.93847E-3	-59.0168E-12	859.852E-3	-25.5168E-3	-58.8236E-12	853.640E-3	970.293E-6
-1.94347E-3	-59.4308E-12	863.325E-3	-16.7455E-3	-59.6185E-12	848.186E-3	11.3746E-3
-1.94847E-3	-60.1875E-12	848.800E-3	-11.8306E-3	-59.2636E-12	823.920E-3	1.16846E-3
-1.95348E-3	-60.5729E-12	843.960E-3	-11.5145E-3	-58.8698E-12	814.691E-3	-14.3514E-3
-1.95848E-3	-59.7668E-12	841.657E-3	-6.58578E-3	-58.9672E-12	821.030E-3	-16.5966E-3
-1.96348E-3	-59.6297E-12	830.576E-3	-16.8292E-3	-59.0719E-12	830.263E-3	-15.1241E-3
-1.96848E-3	-59.9258E-12	827.660E-3	-32.1811E-3	-59.2396E-12	835.009E-3	-11.4268E-3
-1.97349E-3	-60.5703E-12	832.460E-3	-26.8203E-3	-59.5018E-12	819.978E-3	-10.4148E-3
-1.97849E-3	-60.2481E-12	826.254E-3	-23.3159E-3	-60.0485E-12	802.997E-3	-17.8024E-3
-1.98349E-3	-59.7157E-12	815.688E-3	-36.4889E-3	-60.4739E-12	808.115E-3	-24.0223E-3
-1.98849E-3	-59.8325E-12	813.558E-3	-44.6541E-3	-60.9591E-12	822.084E-3	-24.8057E-3
-1.99350E-3	-60.3174E-12	817.785E-3	-41.3240E-3	-61.5931E-12	828.570E-3	-12.0854E-3
-1.99850E-3	-60.9621E-12	821.192E-3	-38.1973E-3	-62.7756E-12	830.767E-3	2.35434E-3
-2.00350E-3	-60.7227E-12	824.893E-3	-22.6788E-3	-63.4471E-12	823.892E-3	-3.46395E-3
-2.00850E-3	-60.8441E-12	816.781E-3	-7.74493E-3	-63.5792E-12	814.390E-3	-6.56151E-3
-2.01351E-3	-61.6773E-12	794.983E-3	-15.8141E-3	-64.1634E-12	817.107E-3	-11.5645E-3
-2.01851E-3	-62.3261E-12	789.196E-3	-10.2905E-3	-65.3093E-12	809.181E-3	-23.6423E-3
-2.02351E-3	-62.3002E-12	791.205E-3	-1.10007E-3	-65.3561E-12	795.759E-3	-9.60717E-3
-2.02851E-3	-62.9418E-12	794.609E-3	-12.9667E-3	-65.0301E-12	801.126E-3	-645.325E-6
-2.03352E-3	-63.8076E-12	814.911E-3	-22.5332E-3	-65.1169E-12	803.993E-3	-16.3236E-3
-2.03852E-3	-64.5410E-12	819.728E-3	-24.6786E-3	-65.7431E-12	795.629E-3	-15.3860E-3
-2.04352E-3	-65.1598E-12	800.135E-3	-26.5984E-3	-65.6244E-12	786.431E-3	2.15891E-3
-2.04852E-3	-64.7860E-12	793.653E-3	-28.2135E-3	-64.8664E-12	775.909E-3	10.4414E-3
-2.05353E-3	-65.3834E-12	795.850E-3	-25.2241E-3	-64.6428E-12	768.882E-3	3.89484E-3
-2.05853E-3	-66.0470E-12	796.919E-3	-22.6472E-3	-65.0563E-12	773.938E-3	-15.5833E-3
-2.06353E-3	-66.5085E-12	809.469E-3	-7.92381E-3	-65.2459E-12	780.760E-3	-34.5590E-3
-2.06853E-3	-66.1262E-12	818.767E-3	15.7312E-3	-65.1199E-12	773.816E-3	-38.1072E-3
-2.07354E-3	-66.3962E-12	814.646E-3	12.5166E-3	-64.6686E-12	760.340E-3	-25.7959E-3
-2.07854E-3	-66.4096E-12	800.920E-3	435.032E-6	-65.0900E-12	754.398E-3	-12.0488E-3
-2.08354E-3	-66.4525E-12	778.918E-3	5.23181E-3	-65.6782E-12	745.637E-3	-19.5492E-3
-2.08854E-3	-67.2057E-12	765.804E-3	5.73159E-3	-65.9456E-12	749.514E-3	-29.4261E-3
-2.09355E-3	-66.9119E-12	779.974E-3	-2.04388E-3	-65.7794E-12	769.736E-3	-27.9907E-3
-2.09855E-3	-66.7488E-12	789.635E-3	-11.2417E-3	-66.4062E-12	777.554E-3	-25.6835E-3
-2.10355E-3	-67.1733E-12	774.996E-3	-28.3475E-3	-66.6241E-12	776.630E-3	-16.3609E-3
-2.10855E-3	-67.3663E-12	775.845E-3	-41.2114E-3	-67.0302E-12	776.881E-3	-12.4071E-3
-2.11356E-3	-67.6630E-12	781.960E-3	-35.1288E-3	-67.7123E-12	779.801E-3	-23.5033E-3
-2.11856E-3	-67.9381E-12	776.340E-3	-23.6502E-3	-67.7263E-12	774.758E-3	-22.3566E-3
-2.12356E-3	-68.0894E-12	786.254E-3	-13.2371E-3	-68.1962E-12	768.841E-3	-8.38353E-3
-2.12856E-3	-68.2822E-12	797.147E-3	-701.294E-6	-68.4331E-12	759.139E-3	-10.6419E-3
-2.13357E-3	-69.2829E-12	789.379E-3	290.981E-6	-68.7348E-12	748.691E-3	-13.5724E-3
-2.13857E-3	-69.5994E-12	780.091E-3	-6.23037E-3	-68.6905E-12	762.497E-3	-5.16913E-3
-2.14357E-3	-69.4121E-12	774.170E-3	-526.681E-6	-68.8809E-12	770.515E-3	-7.06238E-3
-2.14857E-3	-69.8943E-12	765.758E-3	5.39335E-3	-69.2446E-12	754.775E-3	-15.3344E-3
-2.15358E-3	-71.2322E-12	770.896E-3	-1.18298E-3	-69.0968E-12	750.253E-3	-13.3058E-3
-2.15858E-3	-71.4863E-12	787.066E-3	-11.8053E-3	-69.5392E-12	752.645E-3	-8.10019E-3
-2.16358E-3	-70.6719E-12	795.291E-3	-21.2178E-3	-69.7259E-12	741.247E-3	-16.1346E-3
-2.16858E-3	-71.3800E-12	800.415E-3	-23.6949E-3	-69.6658E-12	740.604E-3	-17.7223E-3
-2.17359E-3	-72.2169E-12	807.691E-3	-21.6600E-3	-69.5802E-12	754.963E-3	-9.24277E-3
-2.17859E-3	-71.6921E-12	799.154E-3	-18.5187E-3	-70.0826E-12	744.791E-3	-7.35196E-3
-2.18359E-3	-70.8203E-12	781.700E-3	-14.7872E-3	-69.9126E-12	729.845E-3	-12.2949E-3
-2.18859E-3	-71.1806E-12	788.173E-3	-3.49996E-3	-70.2777E-12	742.512E-3	-23.5439E-3
-2.19360E-3	-71.5041E-12	799.850E-3	15.2459E-3	-70.7633E-12	749.945E-3	-19.2629E-3
-2.19860E-3	-70.7599E-12	782.306E-3	3.26956E-3	-70.9547E-12	747.337E-3	-11.7708E-3
-2.20360E-3	-70.4657E-12	754.829E-3	-19.1485E-3	-71.2772E-12	761.922E-3	-28.8211E-3
-2.20860E-3	-71.2309E-12	729.928E-3	-18.5252E-3	-71.3209E-12	773.658E-3	-34.7457E-3
-2.21361E-3	-72.0147E-12	717.134E-3	-24.5137E-3	-71.7148E-12	764.798E-3	-13.6646E-3
-2.21861E-3	-71.6247E-12	734.248E-3	-24.5199E-3	-72.0734E-12	756.944E-3	-4.50076E-3
-2.22361E-3	-71.9516E-12	756.059E-3	-9.71487E-3	-72.6262E-12	748.623E-3	-14.2781E-3
-2.22861E-3	-72.8705E-12	748.460E-3	-5.79895E-3	-72.7887E-12	742.444E-3	-29.0041E-3
-2.23362E-3	-73.3976E-12	737.599E-3	-2.13060E-3	-73.8308E-12	751.115E-3	-40.9762E-3
-2.23862E-3	-73.5667E-12	748.452E-3	420.671E-6	-74.1294E-12	761.910E-3	-34.6860E-3
-2.24362E-3	-73.9435E-12	749.414E-3	-6.25563E-3	-74.3637E-12	752.595E-3	-22.0917E-3
-2.24862E-3	-74.8168E-12	751.403E-3	-6.08466E-3	-74.6713E-12	730.778E-3	-20.3073E-3
-2.25363E-3	-75.0341E-12	744.309E-3	-3.53709E-3	-75.5766E-12	720.935E-3	-20.8468E-3
-2.25863E-3	-75.2475E-12	719.323E-3	-19.6713E-3	-76.0862E-12	725.843E-3	-7.38806E-3
-2.26363E-3	-76.3207E-12	724.589E-3	-29.7545E-3	-75.9399E-12	733.267E-3	6.36034E-3
-2.26863E-3	-76.2205E-12	748.896E-3	-13.0809E-3	-76.0567E-12	735.693E-3	-6.86703E-3
-2.27364E-3	-76.0070E-12	747.202E-3	-13.9434E-3	-75.8302E-12	730.672E-3	-19.9256E-3
-2.27864E-3	-75.6204E-12	739.578E-3	-34.4782E-3	-75.4932E-12	721.361E-3	-18.5853E-3
-2.28364E-3	-76.3133E-12	743.555E-3	-35.4982E-3	-75.5622E-12	718.005E-3	-14.6250E-3
-2.28864E-3	-76.1636E-12	733.230E-3	-21.1412E-3	-75.3684E-12	717.533E-3	-5.74425E-3
-2.29365E-3	-75.7373E-12	731.316E-3	-15.3083E-3	-75.3975E-12	728.881E-3	1.26957E-3
-2.29865E-3	-75.6571E-12	737.933E-3	-14.3590E-3	-75.7126E-12	742.333E-3	-5.79569E-3
-2.30365E-3	-75.9574E-12	727.883E-3	-15.8601E-3	-76.6757E-12	733.596E-3	-21.9014E-3
-2.30865E-3	-76.4995E-12	720.446E-3	-24.7806E-3	-76.6373E-12	728.262E-3	-22.7411E-3
-2.31366E-3	-75.9654E-12	721.092E-3	-32.0875E-3	-76.7186E-12	733.946E-3	-4.75860E-3
-2.31866E-3	-76.7126E-12	716.377E-3	-34.3245E-3	-76.9706E-12	735.143E-3	12.9975E-3
-2.32366E-3	-77.3842E-12	706.833E-3	-33.2519E-3	-78.2010E-12	737.330E-3	1.07048E-3
-2.32866E-3	-78.0544E-12	706.250E-3	-24.8367E-3	-79.3550E-12	736.200E-3	-26.6743E-3
-2.33367E-3	-78.1215E-12	716.478E-3	-9.08297E-3	-79.1909E-12	738.834E-3	-32.7105E-3
-2.33867E-3	-78.3646E-12	725.341E-3	-857.065E-6	-79.3833E-12	749.944E-3	-27.5297E-3
-2.34367E-3	-79.6962E-12	731.795E-3	2.52067E-3	-80.1383E-12	756.811E-3	-28.1276E-3
-2.34867E-3	-79.8509E-12	724.162E-3	-1.71455E-3	-81.1085E-12	744.417E-3	-34.2782E-3
-2.35368E-3	-80.3822E-12	705.195E-3	-22.3103E-3	-80.8228E-12	727.189E-3	-24.5745E-3
-2.35868E-3	-80.6818E-12	715.243E-3	-33.0649E-3	-80.4586E-12	721.499E-3	-8.10116E-3
-2.36368E-3	-82.1608E-12	736.886E-3	-31.5108E-3	-80.6152E-12	719.683E-3	-12.9939E-3
-2.36868E-3	-81.9802E-12	745.733E-3	-32.8956E-3	-80.9663E-12	721.665E-3	-20.8938E-3
-2.37369E-3	-82.0929E-12	768.831E-3	-20.7309E-3	-80.8737E-12	724.994E-3	-25.4360E-3
-2.37869E-3	-81.7736E-12	775.813E-3	-7.10044E-3	-80.5947E-12	733.034E-3	-24.2903E-3
-2.38369E-3	-82.2730E-12	750.279E-3	-21.8487E-3	-80.4819E-12	746.340E-3	-12.2048E-3
-2.38869E-3	-82.4788E-12	737.924E-3	-37.7863E-3	-80.4987E-12	745.299E-3	-26.7071E-3
-2.39370E-3	-82.2210E-12	741.095E-3	-33.6689E-3	-80.7023E-12	727.845E-3	-46.7988E-3
-2.39870E-3	-82.1631E-12	736.229E-3	-34.9245E-3	-81.3091E-12	716.357E-3	-30.8298E-3
-2.40370E-3	-82.0225E-12	729.108E-3	-27.8404E-3	-81.3375E-12	721.776E-3	-23.2089E-3
-2.40870E-3	-82.3913E-12	729.965E-3	-5.39366E-3	-81.7999E-12	726.582E-3	-29.3930E-3
-2.41371E-3	-81.8203E-12	725.646E-3	-4.45354E-3	-81.8420E-12	727.650E-3	-26.3854E-3
-2.41871E-3	-81.8504E-12	713.476E-3	-9.63534E-3	-83.7912E-12	739.083E-3	-21.5652E-3
-2.42371E-3	-82.7272E-12	712.109E-3	2.21256E-3	-84.3135E-12	744.728E-3	-20.1927E-3
-2.42871E-3	-83.3821E-12	716.797E-3	5.64929E-3	-84.6723E-12	731.758E-3	-24.2023E-3
-2.43372E-3	-83.7096E-12	719.002E-3	-6.42634E-3	-85.2744E-12	713.560E-3	-26.8333E-3
-2.43872E-3	-84.0182E-12	720.929E-3	-8.92675E-3	-86.1671E-12	711.686E-3	-41.3562E-3
-2.44372E-3	-85.0316E-12	718.012E-3	-17.5435E-3	-86.9011E-12	724.510E-3	-47.7966E-3
-2.44872E-3	-85.5635E-12	720.559E-3	-37.8942E-3	-86.2688E-12	740.806E-3	-28.1309E-3
-2.45373E-3	-86.2358E-12	735.144E-3	-36.2163E-3	-86.3413E-12	746.316E-3	-8.94454E-3
-2.45873E-3	-86.6060E-12	742.229E-3	-33.1455E-3	-86.5302E-12	727.487E-3	3.40349E-3
-2.46373E-3	-87.1856E-12	733.695E-3	-37.7099E-3	-86.8816E-12	719.283E-3	-7.01738E-3
-2.46873E-3	-86.8633E-12	727.134E-3	-22.1952E-3	-85.4855E-12	722.376E-3	-21.5622E-3
-2.47374E-3	-87.2762E-12	727.160E-3	-9.49769E-3	-85.4153E-12	712.836E-3	-6.77115E-3
-2.47874E-3	-87.7130E-12	721.307E-3	-16.4092E-3	-85.8901E-12	709.800E-3	-446.786E-6
-2.48374E-3	-87.4734E-12	710.151E-3	-21.5278E-3	-85.7278E-12	704.743E-3	-16.6370E-3
-2.48874E-3	-86.8009E-12	697.285E-3	-16.8390E-3	-85.2850E-12	700.954E-3	-27.1688E-3
-2.49375E-3	-86.5071E-12	687.540E-3	-3.16473E-3	-84.8662E-12	700.815E-3	-29.4625E-3
-2.49875E-3	-87.1324E-12	700.128E-3	8.57856E-3	-86.3816E-12	685.917E-3	-30.2162E-3
-2.50375E-3	-86.5425E-12	717.710E-3	3.53088E-3	-86.4745E-12	693.435E-3	-21.6394E-3
-2.50875E-3	-86.2144E-12	714.547E-3	-17.5539E-3	-85.8102E-12	720.670E-3	-1.26961E-3
-2.51376E-3	-86.7130E-12	704.888E-3	-32.8947E-3	-86.3810E-12	727.017E-3	891.889E-6
-2.51876E-3	-86.8311E-12	703.150E-3	-36.0484E-3	-88.0585E-12	722.049E-3	-17.8142E-3
-2.52376E-3	-86.2907E-12	710.097E-3	-37.2428E-3	-89.0831E-12	718.455E-3	-27.4647E-3
-2.52876E-3	-85.9210E-12	720.680E-3	-22.3098E-3	-88.8414E-12	719.231E-3	-25.5190E-3
-2.53377E-3	-87.1211E-12	712.287E-3	-4.14454E-3	-89.4355E-12	726.182E-3	-21.9665E-3
-2.53877E-3	-87.5852E-12	684.304E-3	-18.5376E-3	-90.1462E-12	728.962E-3	-16.7655E-3
-2.54377E-3	-87.8508E-12	684.821E-3	-31.3040E-3	-90.9316E-12	721.010E-3	-9.86103E-3
-2.54877E-3	-88.1128E-12	702.951E-3	-21.6409E-3	-89.9574E-12	707.500E-3	-7.77109E-3
-2.55378E-3	-89.2715E-12	704.589E-3	-35.2201E-3	-90.6800E-12	704.093E-3	-14.1622E-3
-2.55878E-3	-90.1299E-12	702.982E-3	-50.5098E-3	-90.7095E-12	704.839E-3	-26.7824E-3
-2.56378E-3	-90.0493E-12	698.092E-3	-32.2930E-3	-90.7745E-12	695.307E-3	-30.3850E-3
-2.56878E-3	-91.1911E-12	685.441E-3	-11.7894E-3	-90.1857E-12	696.033E-3	-20.6911E-3
-2.57379E-3	-91.6724E-12	691.659E-3	-10.3936E-3	-90.7760E-12	712.667E-3	-23.9378E-3
-2.57879E-3	-92.7223E-12	710.861E-3	-14.8821E-3	-90.9573E-12	711.356E-3	-31.3367E-3
-2.58379E-3	-91.8814E-12	714.173E-3	-25.6798E-3	-90.9292E-12	694.612E-3	-25.9802E-3
-2.58879E-3	-91.6434E-12	720.366E-3	-33.2904E-3	-91.0519E-12	688.576E-3	-31.5704E-3
-2.59380E-3	-91.5811E-12	735.571E-3	-25.4022E-3	-91.2641E-12	681.132E-3	-38.1641E-3
-2.59880E-3	-92.3340E-12	723.169E-3	-17.7957E-3	-91.4117E-12	681.979E-3	-30.3182E-3
-2.60380E-3	-91.4416E-12	692.325E-3	-19.3290E-3	-91.0634E-12	697.551E-3	-14.8482E-3
-2.60880E-3	-89.7832E-12	686.577E-3	-30.9709E-3	-91.4116E-12	704.257E-3	-5.66601E-3
-2.61381E-3	-89.8334E-12	687.914E-3	-32.8098E-3	-92.0094E-12	708.227E-3	-5.82106E-3
-2.61881E-3	-90.2914E-12	682.750E-3	-25.3322E-3	-92.2362E-12	711.288E-3	-13.6937E-3
-2.62381E-3	-90.1524E-12	677.633E-3	-24.0267E-3	-92.6010E-12	706.417E-3	-23.9185E-3
-2.62881E-3	-89.6990E-12	666.497E-3	-18.2245E-3	-92.5838E-12	697.686E-3	-16.8537E-3
-2.63382E-3	-90.3637E-12	672.421E-3	-19.9785E-3	-93.3060E-12	684.881E-3	-12.7215E-3
-2.63882E-3	-91.0510E-12	679.708E-3	-28.5188E-3	-93.3891E-12	682.948E-3	-26.3165E-3
-2.64382E-3	-91.7898E-12	667.274E-3	-23.2040E-3	-93.6965E-12	691.900E-3	-30.0871E-3
-2.64882E-3	-92.7286E-12	657.322E-3	-29.0979E-3	-93.6028E-12	712.151E-3	-19.1379E-3
-2.65383E-3	-93.4734E-12	657.239E-3	-29.7815E-3	-94.2390E-12	721.767E-3	-17.5446E-3
-2.65883E-3	-94.1836E-12	674.154E-3	-13.6243E-3	-94.2743E-12	690.601E-3	-13.1418E-3
-2.66383E-3	-95.2299E-12	696.602E-3	-14.0257E-3	-94.3372E-12	668.921E-3	-6.75598E-3
-2.66883E-3	-96.4364E-12	704.058E-3	-15.9832E-3	-94.4007E-12	681.046E-3	-19.2630E-3
-2.67384E-3	-96.6931E-12	704.685E-3	-14.5211E-3	-94.8310E-12	698.918E-3	-15.8975E-3
-2.67884E-3	-97.6465E-12	710.330E-3	-26.2056E-3	-95.0107E-12	708.078E-3	-2.09658E-3
-2.68384E-3	-98.0304E-12	721.291E-3	-35.5317E-3	-94.0013E-12	705.558E-3	-15.1555E-3
-2.68884E-3	-98.7341E-12	726.146E-3	-31.2391E-3	-94.2530E-12	686.814E-3	-31.1115E-3
-2.69385E-3	-97.5298E-12	724.307E-3	-20.0727E-3	-95.1502E-12	666.489E-3	-32.1590E-3
-2.69885E-3	-97.4199E-12	720.785E-3	-13.8839E-3	-95.1761E-12	670.067E-3	-21.8756E-3
-2.70385E-3	-97.0098E-12	713.123E-3	-13.3313E-3	-94.2342E-12	674.572E-3	-8.21962E-3
-2.70885E-3	-97.7473E-12	709.831E-3	-16.4597E-3	-94.3930E-12	670.650E-3	-1.75519E-3
-2.71386E-3	-96.5360E-12	710.300E-3	-30.4340E-3	-95.5866E-12	675.849E-3	-5.44622E-3
-2.71886E-3	-95.4586E-12	705.467E-3	-34.8232E-3	-95.6733E-12	674.524E-3	-9.30362E-3
-2.72386E-3	-95.0484E-12	691.040E-3	-22.8666E-3	-95.5767E-12	671.324E-3	3.58774E-3
-2.72886E-3	-96.1057E-12	683.526E-3	-7.81157E-3	-95.6716E-12	691.129E-3	2.91486E-3
-2.73387E-3	-96.1526E-12	672.869E-3	5.76009E-3	-96.3946E-12	721.253E-3	-10.6820E-3
-2.73887E-3	-95.2579E-12	646.322E-3	-263.689E-6	-96.6781E-12	718.313E-3	-1.23843E-3
-2.74387E-3	-95.2286E-12	643.933E-3	-19.4700E-3	-97.2026E-12	690.343E-3	4.75774E-3
-2.74887E-3	-96.0138E-12	660.641E-3	-26.5297E-3	-97.9304E-12	677.800E-3	-6.68814E-3
-2.75388E-3	-96.9513E-12	670.948E-3	-26.7864E-3	-97.8983E-12	687.167E-3	-2.52553E-3
-2.75888E-3	-97.1775E-12	675.778E-3	-31.0328E-3	-98.0378E-12	705.217E-3	8.60060E-3
-2.76388E-3	-97.2871E-12	682.998E-3	-35.7436E-3	-99.4682E-12	701.030E-3	-2.27194E-3
-2.76888E-3	-98.7600E-12	698.300E-3	-40.1754E-3	-100.027E-12	688.803E-3	-13.9739E-3
-2.77389E-3	-100.453E-12	706.623E-3	-35.2185E-3	-100.302E-12	712.604E-3	-8.36666E-3
-2.77889E-3	-100.615E-12	705.996E-3	-23.0796E-3	-99.5594E-12	729.571E-3	-8.45491E-3
-2.78389E-3	-100.798E-12	698.476E-3	-18.2628E-3	-100.613E-12	704.887E-3	-14.6388E-3
-2.78889E-3	-101.400E-12	691.620E-3	-10.9390E-3	-100.756E-12	689.264E-3	-22.2708E-3
-2.79390E-3	-102.413E-12	699.620E-3	552.499E-6	-99.8503E-12	685.050E-3	-35.0370E-3
-2.79890E-3	-102.493E-12	705.741E-3	-85.1174E-6	-98.8452E-12	671.852E-3	-26.5619E-3
-2.80390E-3	-101.853E-12	707.965E-3	-19.6985E-3	-99.3662E-12	676.706E-3	-16.2560E-3
-2.80890E-3	-101.379E-12	693.009E-3	-38.1490E-3	-99.9591E-12	684.615E-3	-24.7781E-3
-2.81391E-3	-101.448E-12	671.551E-3	-31.2184E-3	-99.5051E-12	666.803E-3	-12.6600E-3
-2.81891E-3	-101.989E-12	683.212E-3	-10.4459E-3	-99.0968E-12	668.222E-3	11.7956E-3
-2.82391E-3	-101.178E-12	692.677E-3	-9.29192E-3	-99.7885E-12	696.761E-3	-1.13447E-3
-2.82891E-3	-100.183E-12	683.074E-3	-24.2910E-3	-101.351E-12	700.106E-3	-18.3397E-3
-2.83392E-3	-99.9907E-12	670.862E-3	-31.2121E-3	-101.702E-12	678.954E-3	716.369E-6
-2.83892E-3	-100.863E-12	657.287E-3	-36.6669E-3	-101.205E-12	668.023E-3	-583.671E-6
-2.84392E-3	-101.094E-12	657.951E-3	-34.3103E-3	-102.138E-12	663.021E-3	-26.6306E-3
-2.84892E-3	-100.545E-12	675.714E-3	-26.2133E-3	-103.642E-12	665.207E-3	-26.9182E-3
-2.85393E-3	-101.017E-12	693.653E-3	-21.1178E-3	-104.966E-12	687.912E-3	-15.8532E-3
-2.85893E-3	-101.938E-12	698.840E-3	-13.7792E-3	-105.282E-12	702.317E-3	-13.6985E-3
-2.86393E-3	-103.605E-12	685.559E-3	-21.7140E-3	-105.902E-12	695.438E-3	-20.4080E-3
-2.86893E-3	-103.336E-12	675.554E-3	-31.6942E-3	-106.386E-12	683.940E-3	-26.1063E-3
-2.87394E-3	-103.866E-12	675.840E-3	-8.45339E-3	-107.189E-12	667.338E-3	-9.68835E-3
-2.87894E-3	-105.289E-12	672.360E-3	5.88001E-3	-106.868E-12	660.448E-3	2.23726E-3
-2.88394E-3	-107.255E-12	682.831E-3	-5.29008E-3	-106.016E-12	662.507E-3	-7.44761E-3
-2.88894E-3	-106.931E-12	691.596E-3	1.83660E-3	-105.335E-12	658.290E-3	-21.5592E-3
-2.89395E-3	-106.963E-12	686.995E-3	-2.72638E-3	-105.431E-12	649.126E-3	-24.8171E-3
-2.89895E-3	-107.656E-12	697.578E-3	-19.5358E-3	-104.965E-12	651.364E-3	-18.4619E-3
-2.90395E-3	-108.680E-12	706.486E-3	-14.5212E-3	-104.443E-12	675.736E-3	-27.4229E-3
-2.90895E-3	-107.953E-12	706.323E-3	-24.8886E-3	-103.957E-12	678.320E-3	-29.4836E-3
-2.91396E-3	-107.003E-12	709.084E-3	-42.3000E-3	-103.665E-12	656.999E-3	-12.0131E-3
-2.91896E-3	-107.458E-12	697.157E-3	-24.4333E-3	-103.543E-12	647.259E-3	103.838E-6
-2.92396E-3	-107.703E-12	676.027E-3	-10.7520E-3	-103.844E-12	652.791E-3	3.02241E-3
-2.92896E-3	-106.647E-12	668.067E-3	-25.2556E-3	-103.885E-12	678.165E-3	-1.57009E-3
-2.93397E-3	-105.640E-12	682.118E-3	-18.4219E-3	-104.651E-12	688.787E-3	-16.2223E-3
-2.93897E-3	-105.402E-12	697.070E-3	627.136E-6	-105.415E-12	674.340E-3	-25.2599E-3
-2.94397E-3	-105.246E-12	694.582E-3	561.907E-6	-105.978E-12	674.976E-3	-25.4319E-3
-2.94897E-3	-105.284E-12	697.164E-3	-258.457E-6	-106.572E-12	683.281E-3	-29.6410E-3
-2.95398E-3	-105.267E-12	689.977E-3	3.22256E-3	-106.821E-12	686.986E-3	-10.7360E-3
-2.95898E-3	-105.834E-12	678.687E-3	-5.25822E-3	-107.890E-12	683.332E-3	19.7359E-3
-2.96398E-3	-107.026E-12	677.280E-3	-26.8664E-3	-108.430E-12	671.430E-3	16.2436E-3
-2.96898E-3	-107.799E-12	668.856E-3	-39.0474E-3	-108.868E-12	658.965E-3	876.901E-6
-2.97399E-3	-108.578E-12	665.945E-3	-46.9395E-3	-108.235E-12	666.642E-3	-8.73377E-3
-2.97899E-3	-108.739E-12	674.082E-3	-49.3079E-3	-108.848E-12	687.495E-3	-22.1287E-3
-2.98399E-3	-110.482E-12	695.373E-3	-40.2167E-3	-108.477E-12	680.826E-3	-26.0316E-3
-2.98899E-3	-111.099E-12	714.627E-3	-44.6745E-3	-108.268E-12	668.314E-3	-3.78983E-3
-2.99400E-3	-112.848E-12	713.766E-3	-47.6646E-3	-107.738E-12	660.572E-3	17.6684E-3
-2.99900E-3	-112.210E-12	708.456E-3	-41.5808E-3	-107.843E-12	650.540E-3	1.95126E-3
-3.00400E-3	-112.645E-12	700.070E-3	-37.0331E-3	-107.366E-12	660.640E-3	-12.2717E-3
-3.00900E-3	-112.438E-12	688.517E-3	-20.8670E-3	-106.734E-12	674.059E-3	-996.722E-6
-3.01401E-3	-113.002E-12	687.045E-3	-19.8767E-3	-107.141E-12	664.536E-3	-3.51510E-3
-3.01901E-3	-112.870E-12	699.818E-3	-34.2893E-3	-107.778E-12	654.921E-3	-20.2488E-3
-3.02401E-3	-112.133E-12	708.562E-3	-23.4041E-3	-108.403E-12	658.140E-3	-28.7087E-3
-3.02901E-3	-110.992E-12	689.280E-3	-12.8101E-3	-108.352E-12	651.138E-3	-17.2470E-3
-3.03402E-3	-110.667E-12	668.192E-3	-22.3790E-3	-108.827E-12	644.142E-3	-1.64507E-3
-3.03902E-3	-111.476E-12	678.461E-3	-31.0159E-3	-109.477E-12	645.800E-3	-9.26338E-3
-3.04402E-3	-110.408E-12	704.187E-3	-21.9034E-3	-110.463E-12	640.170E-3	-21.5295E-3
-3.04902E-3	-109.278E-12	706.951E-3	-5.09912E-3	-110.831E-12	652.229E-3	-16.7586E-3
-3.05403E-3	-109.700E-12	691.177E-3	-6.73492E-3	-110.987E-12	689.467E-3	-7.05231E-3
-3.05903E-3	-110.049E-12	680.439E-3	-19.8373E-3	-112.194E-12	711.897E-3	-15.4558E-3
-3.06403E-3	-110.763E-12	650.352E-3	-24.8792E-3	-112.728E-12	707.065E-3	-18.2026E-3
-3.06903E-3	-110.456E-12	620.471E-3	-21.8455E-3	-112.985E-12	701.751E-3	1.05651E-3
-3.07404E-3	-111.419E-12	633.220E-3	-16.3160E-3	-112.757E-12	685.338E-3	-7.02896E-3
-3.07904E-3	-113.031E-12	657.806E-3	-9.46114E-3	-113.564E-12	664.929E-3	-29.2777E-3
-3.08404E-3	-115.138E-12	668.944E-3	-6.25010E-3	-113.611E-12	676.554E-3	-18.9991E-3
-3.08904E-3	-114.712E-12	675.623E-3	-15.2704E-3	-114.032E-12	681.845E-3	-9.35739E-3
-3.09405E-3	-115.006E-12	670.614E-3	-26.2077E-3	-114.025E-12	668.339E-3	-23.2963E-3
-3.09905E-3	-116.030E-12	660.765E-3	-34.1460E-3	-114.247E-12	677.454E-3	-43.5145E-3
-3.10405E-3	-117.275E-12	665.694E-3	-34.4347E-3	-114.814E-12	682.096E-3	-44.4024E-3
-3.10905E-3	-117.043E-12	675.068E-3	-23.6665E-3	-114.385E-12	658.613E-3	-23.2448E-3
-3.11406E-3	-116.437E-12	668.040E-3	-17.5785E-3	-115.244E-12	659.970E-3	-14.3703E-3
-3.11906E-3	-116.562E-12	651.955E-3	-10.7897E-3	-115.902E-12	681.260E-3	-23.9867E-3
-3.12406E-3	-116.025E-12	649.263E-3	-2.41928E-3	-116.364E-12	685.330E-3	-17.7361E-3
-3.12906E-3	-116.611E-12	653.377E-3	4.36726E-3	-116.485E-12	682.658E-3	-536.395E-6
-3.13407E-3	-115.367E-12	649.886E-3	674.456E-6	-116.522E-12	682.340E-3	-5.90064E-3
-3.13907E-3	-114.484E-12	655.859E-3	-14.9473E-3	-116.331E-12	677.248E-3	-18.0692E-3
-3.14407E-3	-114.109E-12	675.082E-3	-19.6456E-3	-116.873E-12	662.569E-3	-33.3181E-3
-3.14907E-3	-113.899E-12	670.834E-3	-24.8385E-3	-116.968E-12	656.158E-3	-44.9585E-3
-3.15408E-3	-113.295E-12	647.798E-3	-29.9236E-3	-116.611E-12	668.922E-3	-28.1088E-3
-3.15908E-3	-113.319E-12	635.759E-3	-25.2708E-3	-117.095E-12	681.564E-3	-15.5385E-3
-3.16408E-3	-114.134E-12	639.717E-3	-17.0970E-3	-117.712E-12	664.805E-3	-25.8007E-3
-3.16908E-3	-114.760E-12	658.477E-3	-3.45708E-3	-118.240E-12	644.216E-3	-26.5498E-3
-3.17409E-3	-116.217E-12	670.143E-3	813.329E-6	-117.917E-12	663.743E-3	-18.2669E-3
-3.17909E-3	-116.030E-12	682.062E-3	-11.1484E-3	-118.554E-12	691.098E-3	-3.87270E-3
-3.18409E-3	-116.629E-12	691.912E-3	-19.6314E-3	-119.301E-12	687.022E-3	21.5406E-3
-3.18909E-3	-117.887E-12	675.332E-3	-20.0985E-3	-120.324E-12	676.748E-3	37.2667E-3
-3.19410E-3	-119.388E-12	658.542E-3	-17.6502E-3	-121.186E-12	676.530E-3	25.1213E-3
-3.19910E-3	-119.942E-12	651.145E-3	-17.2112E-3	-120.984E-12	657.528E-3	-6.05188E-3
-3.20410E-3	-119.389E-12	646.638E-3	-23.5188E-3	-120.409E-12	643.631E-3	-30.8448E-3
-3.20910E-3	-121.005E-12	659.316E-3	-25.1005E-3	-120.661E-12	661.384E-3	-49.7827E-3
-3.21411E-3	-121.832E-12	674.209E-3	-16.9432E-3	-120.825E-12	663.877E-3	-68.6951E-3
-3.21911E-3	-122.466E-12	679.234E-3	-12.8630E-3	-120.166E-12	642.335E-3	-66.5290E-3
-3.22411E-3	-122.783E-12	685.122E-3	-9.88245E-3	-119.483E-12	634.859E-3	-58.0260E-3
-3.22911E-3	-123.481E-12	679.933E-3	-11.0994E-3	-119.620E-12	652.614E-3	-55.4068E-3
-3.23412E-3	-122.180E-12	675.072E-3	-20.5699E-3	-119.580E-12	680.222E-3	-36.5749E-3
-3.23912E-3	-120.810E-12	682.332E-3	-16.2028E-3	-119.199E-12	677.980E-3	-9.55627E-3
-3.24412E-3	-121.428E-12	682.201E-3	-6.04382E-3	-118.518E-12	644.987E-3	-1.89872E-3
-3.24912E-3	-121.185E-12	667.087E-3	-13.7767E-3	-119.623E-12	629.771E-3	-17.7568E-3
-3.25413E-3	-120.700E-12	668.566E-3	-27.4907E-3	-120.944E-12	642.236E-3	-31.0548E-3
-3.25913E-3	-119.328E-12	687.938E-3	-21.7960E-3	-120.262E-12	667.796E-3	-30.2081E-3
-3.26413E-3	-120.198E-12	683.013E-3	-10.8027E-3	-119.578E-12	681.861E-3	-20.3801E-3
-3.26913E-3	-120.685E-12	656.647E-3	-2.32447E-3	-120.513E-12	683.042E-3	-16.4373E-3
-3.27414E-3	-121.524E-12	646.619E-3	-7.70844E-3	-122.302E-12	688.346E-3	-32.5644E-3
-3.27914E-3	-120.967E-12	655.800E-3	-32.7172E-3	-122.305E-12	698.896E-3	-37.8085E-3
-3.28414E-3	-121.003E-12	653.674E-3	-41.2493E-3	-122.196E-12	717.482E-3	-8.50167E-3
-3.28914E-3	-122.887E-12	637.955E-3	-39.6312E-3	-123.349E-12	714.534E-3	8.24323E-3
-3.29415E-3	-123.679E-12	622.835E-3	-42.6983E-3	-124.627E-12	679.214E-3	-3.57007E-3
-3.29915E-3	-123.871E-12	636.212E-3	-40.5542E-3	-125.524E-12	659.646E-3	-9.77211E-3
-3.30415E-3	-124.248E-12	674.465E-3	-27.0193E-3	-124.478E-12	669.251E-3	-22.4818E-3
-3.30915E-3	-125.647E-12	680.810E-3	-13.7647E-3	-124.156E-12	668.080E-3	-24.6207E-3
-3.31416E-3	-126.337E-12	667.292E-3	-13.3356E-3	-123.851E-12	660.862E-3	-1.77363E-3
-3.31916E-3	-127.183E-12	686.537E-3	-20.8250E-3	-124.887E-12	642.917E-3	-2.99224E-3
-3.32416E-3	-127.210E-12	706.590E-3	-30.0605E-3	-124.459E-12	613.722E-3	-26.7032E-3
-3.32916E-3	-126.969E-12	700.712E-3	-24.8937E-3	-124.325E-12	629.236E-3	-46.4131E-3
-3.33417E-3	-126.849E-12	705.067E-3	-11.2373E-3	-123.075E-12	648.785E-3	-41.6503E-3
-3.33917E-3	-126.081E-12	723.411E-3	-28.4775E-3	-122.941E-12	643.602E-3	-6.85545E-3
-3.34417E-3	-125.793E-12	723.779E-3	-57.5600E-3	-123.238E-12	647.314E-3	12.9479E-3
-3.34917E-3	-124.626E-12	707.811E-3	-52.8582E-3	-123.583E-12	650.481E-3	678.344E-6
-3.35418E-3	-124.007E-12	690.790E-3	-37.6384E-3	-124.085E-12	652.001E-3	-6.24093E-3
-3.35918E-3	-123.405E-12	672.528E-3	-31.5845E-3	-123.675E-12	645.406E-3	12.4400E-3
-3.36418E-3	-123.947E-12	649.882E-3	-31.6257E-3	-124.866E-12	632.072E-3	21.1067E-3
-3.36918E-3	-123.586E-12	627.891E-3	-35.6858E-3	-125.765E-12	646.746E-3	-11.8204E-3
-3.37419E-3	-122.514E-12	622.802E-3	-25.9468E-3	-125.873E-12	667.336E-3	-44.6000E-3
-3.37919E-3	-123.013E-12	625.679E-3	-15.6029E-3	-126.490E-12	668.362E-3	-34.3680E-3
-3.38419E-3	-124.674E-12	642.532E-3	-21.5522E-3	-127.830E-12	655.892E-3	-15.1733E-3
-3.38919E-3	-125.347E-12	662.106E-3	-24.9622E-3	-128.533E-12	636.200E-3	-8.56913E-3
-3.39420E-3	-125.955E-12	673.601E-3	-16.7692E-3	-127.649E-12	658.777E-3	-7.70512E-3
-3.39920E-3	-127.466E-12	686.613E-3	-6.50460E-3	-128.460E-12	686.556E-3	-26.1044E-3
-3.40420E-3	-129.422E-12	686.450E-3	-7.70434E-3	-129.967E-12	675.049E-3	-50.9800E-3
-3.40920E-3	-129.365E-12	676.198E-3	-17.7479E-3	-130.045E-12	675.275E-3	-44.7772E-3
-3.41421E-3	-129.771E-12	650.311E-3	-10.9415E-3	-128.667E-12	680.815E-3	-9.50999E-3
-3.41921E-3	-130.838E-12	637.102E-3	-8.25413E-3	-128.795E-12	667.202E-3	18.0920E-3
-3.42421E-3	-131.580E-12	655.834E-3	-21.9964E-3	-129.510E-12	654.743E-3	15.7429E-3
-3.42921E-3	-131.419E-12	670.222E-3	-19.3965E-3	-129.768E-12	663.520E-3	-13.4712E-3
-3.43422E-3	-130.635E-12	665.870E-3	-27.2123E-3	-128.329E-12	677.801E-3	-39.2236E-3
-3.43922E-3	-131.220E-12	649.061E-3	-44.8839E-3	-127.623E-12	675.728E-3	-34.2004E-3
-3.44422E-3	-130.938E-12	643.532E-3	-27.6517E-3	-128.245E-12	668.322E-3	-18.6671E-3
-3.44922E-3	-130.235E-12	666.504E-3	-13.7059E-3	-129.520E-12	644.379E-3	-27.5123E-3
-3.45423E-3	-129.126E-12	687.146E-3	-30.4082E-3	-129.505E-12	613.893E-3	-27.7953E-3
-3.45923E-3	-128.564E-12	681.495E-3	-48.4754E-3	-129.272E-12	631.680E-3	-10.7473E-3
-3.46423E-3	-128.233E-12	664.732E-3	-39.1799E-3	-129.820E-12	663.457E-3	-25.6694E-3
-3.46923E-3	-127.727E-12	650.992E-3	-17.3476E-3	-130.366E-12	665.376E-3	-47.0302E-3
-3.47424E-3	-127.582E-12	640.603E-3	-11.9808E-3	-131.367E-12	651.265E-3	-45.6437E-3
-3.47924E-3	-127.879E-12	643.283E-3	-3.66846E-3	-131.814E-12	629.067E-3	-35.6864E-3
-3.48424E-3	-128.416E-12	660.587E-3	-3.03803E-3	-131.882E-12	649.050E-3	-20.4828E-3
-3.48924E-3	-129.285E-12	657.606E-3	-26.7904E-3	-132.656E-12	687.992E-3	-18.1720E-3
-3.49425E-3	-130.437E-12	637.428E-3	-37.1522E-3	-133.370E-12	661.873E-3	-21.5714E-3
-3.49925E-3	-131.006E-12	634.243E-3	-29.9735E-3	-133.598E-12	632.311E-3	-6.85868E-3
-3.50425E-3	-131.818E-12	646.982E-3	-22.3384E-3	-133.288E-12	645.938E-3	6.51975E-3
-3.50925E-3	-133.037E-12	655.187E-3	-12.6615E-3	-134.574E-12	660.135E-3	8.86027E-3
-3.51426E-3	-134.154E-12	652.729E-3	-7.78055E-3	-134.406E-12	683.310E-3	9.42867E-3
-3.51926E-3	-135.155E-12	658.975E-3	-19.3900E-3	-134.871E-12	692.333E-3	-3.53285E-3
-3.52426E-3	-134.721E-12	677.745E-3	-40.2786E-3	-135.707E-12	665.140E-3	-16.5693E-3
-3.52926E-3	-135.537E-12	680.863E-3	-29.2351E-3	-134.825E-12	656.731E-3	-8.53166E-3
-3.53427E-3	-136.043E-12	663.297E-3	-1.82739E-3	-134.553E-12	670.294E-3	-7.59045E-3
-3.53927E-3	-136.258E-12	655.339E-3	6.48237E-3	-135.204E-12	675.731E-3	-3.20181E-3
-3.54427E-3	-135.043E-12	660.404E-3	4.90977E-3	-135.701E-12	675.442E-3	24.8935E-3
-3.54927E-3	-135.307E-12	649.354E-3	-303.328E-6	-134.619E-12	675.314E-3	13.6941E-3
-3.55428E-3	-135.338E-12	632.150E-3	-3.05777E-3	-134.700E-12	684.659E-3	-23.4120E-3
-3.55928E-3	-134.403E-12	640.182E-3	-4.47150E-3	-136.203E-12	695.910E-3	-22.9522E-3
-3.56428E-3	-132.657E-12	662.816E-3	-11.2481E-3	-137.207E-12	696.639E-3	-268.267E-6
-3.56928E-3	-132.243E-12	663.342E-3	-15.4186E-3	-136.537E-12	680.504E-3	6.79422E-3
-3.57429E-3	-133.232E-12	649.617E-3	-7.96237E-3	-135.628E-12	666.571E-3	3.37240E-3
-3.57929E-3	-132.431E-12	650.729E-3	2.02659E-3	-137.003E-12	677.154E-3	18.5761E-3
-3.58429E-3	-132.518E-12	655.267E-3	-2.08777E-3	-139.269E-12	695.998E-3	24.7175E-3
-3.58929E-3	-132.959E-12	640.880E-3	-6.64252E-3	-138.050E-12	707.909E-3	12.8270E-3
-3.59430E-3	-134.390E-12	621.863E-3	-2.11602E-3	-138.540E-12	695.287E-3	-5.57597E-3
-3.59930E-3	-135.215E-12	623.959E-3	-7.26617E-3	-140.143E-12	655.125E-3	-22.6110E-3
-3.60430E-3	-135.029E-12	641.343E-3	-23.8930E-3	-141.490E-12	630.937E-3	-23.6286E-3
-3.60930E-3	-136.719E-12	654.285E-3	-29.2065E-3	-141.053E-12	643.785E-3	-39.5332E-3
-3.61431E-3	-137.823E-12	650.479E-3	-10.7528E-3	-140.180E-12	658.086E-3	-49.0648E-3
-3.61931E-3	-139.431E-12	650.434E-3	5.83275E-3	-140.078E-12	663.822E-3	-15.3310E-3
-3.62431E-3	-139.218E-12	651.263E-3	11.5010E-3	-140.332E-12	668.484E-3	20.7800E-3
-3.62931E-3	-140.222E-12	641.195E-3	10.2358E-3	-139.363E-12	658.947E-3	22.7137E-3
-3.63432E-3	-140.964E-12	642.972E-3	-16.9879E-3	-139.019E-12	647.090E-3	-1.44325E-3
-3.63932E-3	-140.977E-12	655.778E-3	-43.4133E-3	-138.428E-12	651.912E-3	-14.1907E-3
-3.64432E-3	-140.556E-12	671.513E-3	-34.3741E-3	-138.572E-12	658.401E-3	-12.4291E-3
-3.64932E-3	-140.435E-12	681.765E-3	-18.1196E-3	-137.322E-12	650.038E-3	-16.0899E-3
-3.65433E-3	-140.405E-12	677.736E-3	-9.58792E-3	-137.282E-12	640.539E-3	-17.2076E-3
-3.65933E-3	-140.192E-12	651.007E-3	-4.03682E-3	-137.948E-12	653.712E-3	-21.5837E-3
-3.66433E-3	-139.520E-12	623.945E-3	-3.63759E-3	-137.995E-12	666.770E-3	-26.3465E-3
-3.66933E-3	-138.874E-12	637.859E-3	-4.42994E-3	-137.372E-12	653.625E-3	-24.0986E-3
-3.67434E-3	-138.237E-12	657.277E-3	-12.4653E-3	-138.047E-12	643.055E-3	-34.0398E-3
-3.67934E-3	-137.403E-12	651.978E-3	-21.9242E-3	-139.550E-12	641.245E-3	-49.7281E-3
-3.68434E-3	-137.420E-12	653.158E-3	-11.6549E-3	-140.113E-12	651.919E-3	-56.1192E-3
-3.68934E-3	-137.433E-12	666.391E-3	3.69934E-3	-140.003E-12	664.602E-3	-53.1987E-3
-3.69435E-3	-136.946E-12	670.337E-3	-5.31613E-3	-140.282E-12	646.073E-3	-26.4340E-3
-3.69935E-3	-136.947E-12	653.602E-3	-23.3629E-3	-141.281E-12	630.282E-3	2.71201E-3
-3.70435E-3	-138.535E-12	639.669E-3	-35.9887E-3	-141.921E-12	647.288E-3	-4.30342E-3
-3.70935E-3	-139.382E-12	644.261E-3	-45.8055E-3	-142.584E-12	661.959E-3	-18.1735E-3
-3.71436E-3	-139.955E-12	637.110E-3	-45.8394E-3	-142.509E-12	660.626E-3	-20.7661E-3
-3.71936E-3	-140.730E-12	610.393E-3	-40.3977E-3	-143.154E-12	670.958E-3	-24.2154E-3
-3.72436E-3	-142.988E-12	619.314E-3	-40.2406E-3	-142.889E-12	671.234E-3	-27.4016E-3
-3.72936E-3	-144.191E-12	658.610E-3	-41.2054E-3	-142.382E-12	646.846E-3	-35.2206E-3
-3.73437E-3	-144.405E-12	664.012E-3	-37.6739E-3	-142.866E-12	646.350E-3	-36.3823E-3
-3.73937E-3	-143.935E-12	637.755E-3	-31.9595E-3	-143.238E-12	663.868E-3	-24.5380E-3
-3.74437E-3	-145.661E-12	637.200E-3	-32.0987E-3	-142.639E-12	668.584E-3	-14.8611E-3
-3.74937E-3	-145.741E-12	663.228E-3	-39.9952E-3	-141.993E-12	652.289E-3	-14.3012E-3
-3.75438E-3	-145.755E-12	678.917E-3	-45.6454E-3	-142.068E-12	628.354E-3	-27.4356E-3
-3.75938E-3	-144.397E-12	685.303E-3	-42.4767E-3	-142.291E-12	625.475E-3	-38.0974E-3
-3.76438E-3	-144.226E-12	683.882E-3	-29.2609E-3	-141.569E-12	652.100E-3	-17.6386E-3
-3.76938E-3	-143.280E-12	678.657E-3	-22.2648E-3	-142.257E-12	679.032E-3	-6.81674E-3
-3.77439E-3	-142.854E-12	676.507E-3	-13.0090E-3	-142.481E-12	673.655E-3	-27.3601E-3
-3.77939E-3	-141.652E-12	661.188E-3	4.83652E-3	-142.257E-12	658.280E-3	-31.6028E-3
-3.78439E-3	-141.170E-12	640.124E-3	6.33981E-3	-143.211E-12	662.421E-3	-29.0683E-3
-3.78939E-3	-140.116E-12	645.756E-3	6.76269E-3	-144.026E-12	659.370E-3	-21.6459E-3
-3.79440E-3	-139.403E-12	660.508E-3	8.12575E-3	-144.842E-12	647.434E-3	4.88767E-3
-3.79940E-3	-140.277E-12	654.115E-3	1.04933E-3	-145.101E-12	641.555E-3	-4.39180E-3
-3.80440E-3	-141.061E-12	642.728E-3	3.30325E-3	-145.807E-12	637.504E-3	-39.6091E-3
-3.80940E-3	-141.049E-12	638.086E-3	9.08315E-3	-146.874E-12	661.697E-3	-43.1965E-3
-3.81441E-3	-142.231E-12	644.937E-3	4.43877E-3	-147.990E-12	692.578E-3	-42.7051E-3
-3.81941E-3	-144.192E-12	662.639E-3	-5.33035E-3	-148.800E-12	679.910E-3	-43.3557E-3
-3.82441E-3	-145.895E-12	661.534E-3	-20.2249E-3	-148.369E-12	646.668E-3	-27.6743E-3
-3.82941E-3	-146.796E-12	647.847E-3	-37.0699E-3	-149.260E-12	635.618E-3	-29.4471E-3
-3.83442E-3	-147.519E-12	661.337E-3	-43.1590E-3	-149.165E-12	630.203E-3	-36.6464E-3
-3.83942E-3	-149.546E-12	679.510E-3	-39.6341E-3	-148.679E-12	634.902E-3	-22.3190E-3
-3.84442E-3	-151.277E-12	678.063E-3	-24.4625E-3	-147.598E-12	651.855E-3	-3.13688E-3
-3.84942E-3	-151.802E-12	680.342E-3	-2.04652E-3	-148.069E-12	643.951E-3	11.6265E-3
-3.85443E-3	-149.938E-12	687.150E-3	1.72667E-3	-147.832E-12	634.169E-3	15.4607E-3
-3.85943E-3	-150.136E-12	670.228E-3	-19.3489E-3	-147.127E-12	639.214E-3	-742.161E-6
-3.86443E-3	-150.424E-12	652.838E-3	-31.9609E-3	-146.314E-12	658.850E-3	-25.2687E-3
-3.86943E-3	-149.975E-12	658.416E-3	-18.4571E-3	-146.109E-12	680.350E-3	-25.7759E-3
-3.87444E-3	-148.175E-12	654.768E-3	-17.1773E-3	-146.256E-12	668.584E-3	-11.5414E-3
-3.87944E-3	-147.744E-12	654.110E-3	-33.9214E-3	-146.550E-12	640.936E-3	-21.8269E-3
-3.88444E-3	-147.011E-12	656.254E-3	-30.2119E-3	-146.664E-12	626.320E-3	-21.3421E-3
-3.88944E-3	-146.433E-12	633.120E-3	-25.9078E-3	-148.242E-12	651.417E-3	-2.72812E-3
-3.89445E-3	-145.683E-12	623.934E-3	-39.0432E-3	-147.528E-12	679.791E-3	-14.4006E-3
-3.89945E-3	-145.440E-12	645.224E-3	-20.6960E-3	-148.597E-12	659.311E-3	-35.6073E-3
-3.90445E-3	-145.740E-12	650.106E-3	5.07729E-3	-150.230E-12	636.079E-3	-30.4936E-3
-3.90945E-3	-146.610E-12	648.988E-3	-4.41053E-3	-151.544E-12	638.972E-3	-16.7100E-3
-3.91446E-3	-146.752E-12	649.206E-3	-13.0116E-3	-151.388E-12	653.961E-3	-27.0028E-3
-3.91946E-3	-148.222E-12	642.759E-3	-8.88858E-3	-152.303E-12	662.357E-3	-48.1173E-3
-3.92446E-3	-149.481E-12	644.892E-3	-10.9127E-3	-153.404E-12	643.673E-3	-49.9994E-3
-3.92946E-3	-151.371E-12	642.477E-3	-1.41173E-3	-153.027E-12	632.052E-3	-38.3658E-3
-3.93447E-3	-153.311E-12	638.854E-3	14.4761E-3	-153.144E-12	642.661E-3	-35.7297E-3
-3.93947E-3	-154.896E-12	629.281E-3	823.059E-6	-153.207E-12	660.323E-3	-35.7764E-3
-3.94447E-3	-155.933E-12	613.931E-3	-24.6896E-3	-153.526E-12	678.730E-3	-23.2928E-3
-3.94947E-3	-156.476E-12	605.381E-3	-23.5441E-3	-152.106E-12	666.759E-3	-24.7694E-3
-3.95448E-3	-156.968E-12	605.592E-3	-12.0537E-3	-152.192E-12	645.407E-3	-45.4376E-3
-3.95948E-3	-158.241E-12	615.070E-3	-24.5906E-3	-152.039E-12	639.854E-3	-53.3602E-3
-3.96448E-3	-157.021E-12	632.418E-3	-30.6039E-3	-151.466E-12	640.352E-3	-33.8520E-3
-3.96948E-3	-156.160E-12	651.630E-3	-15.5366E-3	-151.067E-12	645.892E-3	-6.29967E-3
-3.97449E-3	-156.466E-12	656.903E-3	-9.87645E-3	-149.858E-12	635.843E-3	2.40755E-3
-3.97949E-3	-156.028E-12	665.175E-3	-13.3117E-3	-150.106E-12	623.411E-3	1.00641E-3
-3.98449E-3	-154.360E-12	678.724E-3	-13.9354E-3	-150.232E-12	645.096E-3	3.13335E-3
-3.98949E-3	-153.641E-12	679.496E-3	-15.3259E-3	-151.709E-12	667.906E-3	12.0215E-3
-3.99450E-3	-152.796E-12	662.396E-3	-17.0631E-3	-150.715E-12	652.636E-3	16.6140E-3
-3.99950E-3	-152.077E-12	635.194E-3	-32.3230E-3	-152.341E-12	647.969E-3	757.386E-6
-4.00450E-3	-151.833E-12	630.675E-3	-43.9317E-3	-153.439E-12	650.325E-3	-15.7527E-3
-4.00950E-3	-152.606E-12	639.232E-3	-26.6516E-3	-154.623E-12	631.055E-3	-23.5328E-3
-4.01451E-3	-153.125E-12	625.756E-3	-18.3558E-3	-155.314E-12	633.171E-3	-38.5231E-3
-4.01951E-3	-154.158E-12	630.127E-3	-28.8059E-3	-156.435E-12	643.901E-3	-43.0822E-3
-4.02451E-3	-154.655E-12	653.186E-3	-23.1235E-3	-156.037E-12	645.131E-3	-26.2211E-3
-4.02951E-3	-154.981E-12	645.007E-3	229.692E-6	-156.488E-12	649.777E-3	-11.9250E-3
-4.03452E-3	-155.648E-12	640.750E-3	20.5183E-3	-157.508E-12	665.679E-3	-17.1876E-3
-4.03952E-3	-156.846E-12	651.587E-3	31.0293E-3	-157.921E-12	681.228E-3	-33.9363E-3
-4.04452E-3	-156.755E-12	652.703E-3	13.6293E-3	-157.007E-12	670.259E-3	-23.8251E-3
-4.04952E-3	-157.100E-12	658.018E-3	-26.0479E-3	-156.402E-12	656.106E-3	14.3161E-3
-4.05453E-3	-158.470E-12	663.467E-3	-30.8932E-3	-156.673E-12	659.029E-3	22.6436E-3
-4.05953E-3	-159.409E-12	662.694E-3	-8.04579E-3	-156.155E-12	671.483E-3	6.98564E-3
-4.06453E-3	-159.340E-12	671.586E-3	-13.5782E-3	-155.498E-12	675.126E-3	3.96555E-3
-4.06953E-3	-159.368E-12	683.892E-3	-40.6700E-3	-154.424E-12	660.068E-3	1.14071E-3
-4.07454E-3	-159.113E-12	678.160E-3	-50.6390E-3	-154.437E-12	641.677E-3	-6.56935E-3
-4.07954E-3	-159.711E-12	659.682E-3	-31.4475E-3	-154.534E-12	613.909E-3	5.63572E-3
-4.08454E-3	-158.412E-12	660.416E-3	-18.3778E-3	-154.733E-12	589.551E-3	13.3497E-3
-4.08954E-3	-157.382E-12	658.289E-3	-33.6047E-3	-154.903E-12	598.746E-3	-6.20627E-3
-4.09455E-3	-157.977E-12	644.565E-3	-35.6072E-3	-155.254E-12	636.800E-3	-26.2636E-3
-4.09955E-3	-157.340E-12	651.758E-3	-7.54040E-3	-155.183E-12	673.061E-3	-39.0765E-3
-4.10455E-3	-155.719E-12	633.009E-3	2.11599E-3	-156.180E-12	664.387E-3	-42.8295E-3
-4.10955E-3	-155.295E-12	599.279E-3	-9.14506E-3	-158.954E-12	631.938E-3	-42.1514E-3
-4.11456E-3	-155.710E-12	617.410E-3	1.26027E-3	-159.529E-12	627.030E-3	-40.3091E-3
-4.11956E-3	-155.045E-12	642.676E-3	-4.15423E-3	-158.694E-12	637.917E-3	-28.1206E-3
-4.12456E-3	-154.484E-12	644.587E-3	-31.9858E-3	-159.891E-12	652.489E-3	-27.9878E-3
-4.12956E-3	-156.365E-12	649.347E-3	-31.9834E-3	-161.466E-12	659.792E-3	-31.0032E-3
-4.13457E-3	-156.789E-12	645.325E-3	-30.0458E-3	-162.767E-12	659.743E-3	-17.4834E-3
-4.13957E-3	-157.331E-12	627.868E-3	-44.4774E-3	-162.981E-12	667.962E-3	-23.0556E-3
-4.14457E-3	-157.845E-12	621.594E-3	-46.9250E-3	-162.821E-12	674.540E-3	-22.5383E-3
-4.14957E-3	-159.452E-12	631.123E-3	-33.6835E-3	-162.856E-12	680.231E-3	12.7785E-3
-4.15458E-3	-161.417E-12	628.796E-3	-36.1516E-3	-162.476E-12	671.459E-3	23.9889E-3
-4.15958E-3	-162.779E-12	626.116E-3	-52.5562E-3	-162.445E-12	656.025E-3	2.10060E-3
-4.16458E-3	-162.449E-12	650.249E-3	-30.7220E-3	-161.888E-12	666.142E-3	-7.70526E-3
-4.16958E-3	-162.282E-12	667.990E-3	10.9588E-3	-161.442E-12	679.032E-3	-15.3646E-3
-4.17459E-3	-163.027E-12	670.731E-3	5.46376E-3	-162.321E-12	663.673E-3	-11.5245E-3
-4.17959E-3	-163.823E-12	671.146E-3	-8.67938E-3	-161.283E-12	636.852E-3	-1.59799E-3
-4.18459E-3	-163.947E-12	661.649E-3	-8.63451E-3	-162.327E-12	630.499E-3	362.575E-6
-4.18959E-3	-162.238E-12	654.943E-3	-23.2780E-3	-162.121E-12	646.183E-3	-11.1178E-3
-4.19460E-3	-161.207E-12	654.695E-3	-18.6397E-3	-162.765E-12	657.752E-3	-38.5522E-3
-4.19960E-3	-161.528E-12	650.658E-3	-17.1145E-3	-163.304E-12	653.009E-3	-40.3187E-3
-4.20460E-3	-161.566E-12	656.789E-3	-41.9847E-3	-162.700E-12	626.971E-3	-30.4834E-3
-4.20960E-3	-160.941E-12	668.000E-3	-39.9374E-3	-163.275E-12	607.229E-3	-41.7926E-3
-4.21461E-3	-159.019E-12	668.146E-3	-23.4429E-3	-164.993E-12	632.267E-3	-53.5858E-3
-4.21961E-3	-159.259E-12	658.533E-3	-25.8762E-3	-166.504E-12	645.531E-3	-38.0650E-3
-4.22461E-3	-160.171E-12	631.109E-3	-26.3776E-3	-166.861E-12	634.834E-3	-14.1250E-3
-4.22961E-3	-161.524E-12	601.186E-3	-26.3639E-3	-166.741E-12	662.308E-3	-17.2913E-3
-4.23462E-3	-160.659E-12	594.792E-3	-31.4557E-3	-167.874E-12	690.206E-3	-30.4943E-3
-4.23962E-3	-161.443E-12	615.477E-3	-25.6729E-3	-169.916E-12	689.170E-3	-15.2638E-3
-4.24462E-3	-162.881E-12	646.798E-3	-33.9026E-3	-169.740E-12	687.874E-3	16.2238E-3
-4.24962E-3	-165.252E-12	670.804E-3	-64.7860E-3	-169.327E-12	687.768E-3	18.9260E-3
-4.25463E-3	-166.644E-12	666.295E-3	-56.1136E-3	-169.882E-12	681.915E-3	-7.44025E-3
-4.25963E-3	-168.025E-12	640.302E-3	-16.3632E-3	-169.734E-12	666.536E-3	-24.3886E-3
-4.26463E-3	-169.530E-12	640.537E-3	-3.56566E-3	-169.860E-12	658.138E-3	-27.8065E-3
-4.26963E-3	-170.846E-12	664.390E-3	6.13988E-3	-169.507E-12	673.399E-3	-18.8049E-3
-4.27464E-3	-171.611E-12	663.103E-3	9.08688E-3	-168.963E-12	690.299E-3	-62.5880E-6
-4.27964E-3	-170.823E-12	659.998E-3	-4.04401E-3	-167.876E-12	676.560E-3	-3.63578E-3
-4.28464E-3	-171.253E-12	683.823E-3	-222.856E-6	-167.569E-12	656.236E-3	-23.7396E-3
-4.28964E-3	-171.229E-12	683.015E-3	-3.08662E-3	-168.108E-12	656.097E-3	-36.0166E-3
-4.29465E-3	-170.317E-12	660.627E-3	-24.4529E-3	-167.516E-12	662.581E-3	-32.8709E-3
-4.29965E-3	-169.697E-12	659.742E-3	-32.9118E-3	-166.955E-12	664.871E-3	-21.7071E-3
-4.30465E-3	-168.901E-12	653.479E-3	-14.4715E-3	-166.705E-12	653.741E-3	-18.5296E-3
-4.30965E-3	-167.912E-12	634.344E-3	16.5231E-3	-166.946E-12	658.222E-3	-9.90727E-3
-4.31466E-3	-165.992E-12	628.422E-3	24.8030E-3	-167.423E-12	682.523E-3	12.0767E-3
-4.31966E-3	-166.121E-12	629.338E-3	6.13649E-3	-168.187E-12	680.562E-3	11.9771E-3
-4.32466E-3	-167.051E-12	625.138E-3	-14.8928E-3	-169.129E-12	650.256E-3	-12.3022E-3
-4.32966E-3	-166.089E-12	623.492E-3	-23.4394E-3	-169.228E-12	631.902E-3	-19.4553E-3
-4.33467E-3	-166.057E-12	630.088E-3	-19.6681E-3	-169.893E-12	629.788E-3	-16.0150E-3
-4.33967E-3	-167.176E-12	631.443E-3	-11.5451E-3	-171.092E-12	629.158E-3	-23.2788E-3
-4.34467E-3	-169.676E-12	625.459E-3	4.91350E-3	-171.803E-12	624.086E-3	-27.4812E-3
-4.34967E-3	-170.640E-12	620.114E-3	20.6073E-3	-171.657E-12	614.438E-3	-26.7705E-3
-4.35468E-3	-171.701E-12	626.364E-3	14.8647E-3	-171.464E-12	629.642E-3	-31.4480E-3
-4.35968E-3	-171.796E-12	636.742E-3	-5.12837E-3	-171.405E-12	654.454E-3	-42.9047E-3
-4.36468E-3	-173.922E-12	650.454E-3	-21.1183E-3	-171.255E-12	653.611E-3	-39.4921E-3
-4.36968E-3	-174.698E-12	661.267E-3	-27.3276E-3	-171.309E-12	645.828E-3	-14.9154E-3
-4.37469E-3	-174.267E-12	649.785E-3	-30.8732E-3	-170.278E-12	641.362E-3	-774.423E-6
-4.37969E-3	-174.686E-12	638.756E-3	-25.9998E-3	-169.529E-12	630.003E-3	-6.59835E-3
-4.38469E-3	-175.389E-12	638.463E-3	-5.15846E-3	-169.884E-12	630.519E-3	-25.6252E-3
-4.38969E-3	-173.996E-12	636.822E-3	12.6271E-3	-169.302E-12	640.313E-3	-46.1666E-3
-4.39470E-3	-172.362E-12	652.091E-3	21.6379E-3	-169.086E-12	644.797E-3	-27.6224E-3
-4.39970E-3	-172.012E-12	661.777E-3	7.09493E-3	-167.855E-12	643.805E-3	8.42448E-3
-4.40470E-3	-170.873E-12	646.626E-3	-26.8732E-3	-167.941E-12	641.189E-3	8.13224E-3
-4.40970E-3	-170.352E-12	638.449E-3	-32.3415E-3	-168.131E-12	645.661E-3	-16.1960E-3
-4.41471E-3	-169.808E-12	626.316E-3	-8.47512E-3	-168.986E-12	643.973E-3	-36.7872E-3
-4.41971E-3	-169.208E-12	630.950E-3	-15.9439E-3	-169.989E-12	627.413E-3	-23.7312E-3
-4.42471E-3	-167.344E-12	651.458E-3	-43.2033E-3	-170.665E-12	623.288E-3	14.3412E-3
-4.42971E-3	-168.392E-12	638.985E-3	-40.1826E-3	-171.373E-12	648.169E-3	24.2126E-3
-4.43472E-3	-170.430E-12	618.881E-3	-37.3025E-3	-171.591E-12	670.931E-3	12.8882E-3
-4.43972E-3	-170.618E-12	609.470E-3	-43.0433E-3	-172.960E-12	680.174E-3	11.9029E-3
-4.44472E-3	-171.063E-12	607.834E-3	-44.5724E-3	-172.812E-12	670.885E-3	11.3497E-3
-4.44972E-3	-170.820E-12	614.092E-3	-61.4210E-3	-173.629E-12	635.979E-3	17.5221E-3
-4.45473E-3	-172.835E-12	627.793E-3	-64.3346E-3	-174.139E-12	612.073E-3	16.6933E-3
-4.45973E-3	-174.538E-12	659.852E-3	-40.2987E-3	-174.961E-12	626.237E-3	-13.2814E-3
-4.46473E-3	-174.217E-12	665.632E-3	-31.4269E-3	-174.637E-12	647.321E-3	-31.0847E-3
-4.46973E-3	-173.803E-12	648.869E-3	-21.2613E-3	-174.087E-12	653.151E-3	-28.5120E-3
-4.47474E-3	-175.873E-12	643.967E-3	12.8583E-3	-173.984E-12	657.562E-3	-25.1076E-3
-4.47974E-3	-177.097E-12	641.024E-3	38.8899E-3	-173.380E-12	660.482E-3	-16.5046E-3
-4.48474E-3	-176.673E-12	642.162E-3	32.5201E-3	-172.560E-12	647.663E-3	-9.31293E-3
-4.48974E-3	-175.720E-12	651.438E-3	18.1513E-3	-171.049E-12	641.621E-3	-13.4988E-3
-4.49475E-3	-175.506E-12	668.486E-3	14.5834E-3	-171.401E-12	644.529E-3	-22.9407E-3
-4.49975E-3	-176.708E-12	673.236E-3	-7.82738E-3	-171.232E-12	642.913E-3	-12.6840E-3
-4.50475E-3	-175.645E-12	654.732E-3	-32.3857E-3	-171.823E-12	654.116E-3	12.3364E-3
-4.50975E-3	-174.976E-12	638.093E-3	-19.2384E-3	-171.087E-12	639.729E-3	4.38888E-3
-4.51476E-3	-174.205E-12	632.684E-3	-4.74070E-3	-172.226E-12	608.352E-3	-9.34956E-3
-4.51976E-3	-174.550E-12	633.797E-3	47.4759E-6	-173.821E-12	623.235E-3	-3.57686E-3
-4.52476E-3	-175.390E-12	632.786E-3	14.3771E-3	-174.517E-12	651.812E-3	-11.8658E-3
-4.52976E-3	-174.814E-12	623.954E-3	23.0476E-3	-174.864E-12	647.455E-3	-14.5911E-3
-4.53477E-3	-174.661E-12	624.091E-3	3.13828E-3	-175.310E-12	641.756E-3	-8.16015E-3
-4.53977E-3	-174.105E-12	641.386E-3	-40.6802E-3	-177.526E-12	632.279E-3	-12.1867E-3
-4.54477E-3	-175.051E-12	664.700E-3	-65.5352E-3	-178.444E-12	605.556E-3	-20.3973E-3
-4.54977E-3	-175.447E-12	663.330E-3	-57.4349E-3	-177.964E-12	617.005E-3	-28.0913E-3
-4.55478E-3	-176.739E-12	645.773E-3	-37.6097E-3	-178.083E-12	647.339E-3	-16.1226E-3
-4.55978E-3	-176.403E-12	641.588E-3	-28.7912E-3	-179.719E-12	647.135E-3	-5.22811E-3
-4.56478E-3	-177.534E-12	649.249E-3	-27.5143E-3	-180.656E-12	651.264E-3	894.636E-6
-4.56978E-3	-179.386E-12	663.426E-3	-24.4523E-3	-180.419E-12	678.207E-3	23.9273E-3
-4.57479E-3	-180.268E-12	670.935E-3	-16.2977E-3	-180.387E-12	678.173E-3	15.5217E-3
-4.57979E-3	-181.338E-12	676.648E-3	1.89764E-3	-180.301E-12	656.523E-3	-25.2880E-3
-4.58479E-3	-181.782E-12	680.755E-3	11.8005E-3	-179.337E-12	653.211E-3	-45.7476E-3
-4.58979E-3	-183.998E-12	679.101E-3	-8.23697E-3	-178.580E-12	641.937E-3	-45.4791E-3
-4.59480E-3	-185.146E-12	682.338E-3	-32.7141E-3	-178.984E-12	632.834E-3	-46.1022E-3
-4.59980E-3	-184.460E-12	674.369E-3	-39.0180E-3	-178.712E-12	645.696E-3	-41.2672E-3
-4.60480E-3	-182.982E-12	647.361E-3	-41.6819E-3	-178.559E-12	648.208E-3	-12.4816E-3
-4.60980E-3	-183.575E-12	620.430E-3	-31.4093E-3	-178.383E-12	643.050E-3	5.47015E-3
-4.61481E-3	-183.293E-12	629.035E-3	-12.3236E-3	-179.413E-12	650.012E-3	3.96251E-3
-4.61981E-3	-181.658E-12	654.227E-3	-26.3831E-3	-179.157E-12	655.353E-3	-6.73103E-3
-4.62481E-3	-180.636E-12	662.588E-3	-45.8191E-3	-179.661E-12	646.810E-3	-33.3511E-3
-4.62981E-3	-179.810E-12	663.885E-3	-18.8593E-3	-180.301E-12	626.731E-3	-32.9970E-3
-4.63482E-3	-179.008E-12	653.432E-3	8.73397E-3	-181.353E-12	636.300E-3	-16.6079E-3
-4.63982E-3	-178.597E-12	640.422E-3	-6.94724E-3	-182.957E-12	677.824E-3	-15.0592E-3
-4.64482E-3	-177.957E-12	627.842E-3	-31.8306E-3	-183.656E-12	677.051E-3	-13.0973E-3
-4.64982E-3	-177.320E-12	609.805E-3	-25.8984E-3	-183.853E-12	631.811E-3	-29.9738E-3
-4.65483E-3	-179.092E-12	611.977E-3	-11.0305E-3	-184.226E-12	620.811E-3	-44.3568E-3
-4.65983E-3	-180.001E-12	628.579E-3	-17.8017E-3	-185.690E-12	663.560E-3	-20.3055E-3
-4.66483E-3	-181.360E-12	633.498E-3	-15.2780E-3	-185.489E-12	687.159E-3	-4.12708E-3
-4.66983E-3	-182.525E-12	639.625E-3	-7.63325E-3	-185.447E-12	663.205E-3	-21.2229E-3
-4.67484E-3	-184.778E-12	645.173E-3	-27.8986E-3	-184.398E-12	642.988E-3	-21.0596E-3
-4.67984E-3	-185.535E-12	651.298E-3	-35.4913E-3	-184.266E-12	650.601E-3	6.48195E-3
-4.68484E-3	-186.898E-12	657.499E-3	-15.0606E-3	-183.941E-12	662.139E-3	24.4604E-3
-4.68984E-3	-187.743E-12	660.153E-3	-2.76751E-3	-183.314E-12	663.728E-3	11.6035E-3
-4.69485E-3	-187.461E-12	665.423E-3	-14.0313E-3	-183.272E-12	656.128E-3	-14.0765E-3
-4.69985E-3	-188.062E-12	660.417E-3	-21.1590E-3	-181.644E-12	637.400E-3	-7.97369E-3
-4.70485E-3	-188.664E-12	674.340E-3	-30.0217E-3	-180.781E-12	622.221E-3	7.47860E-3
-4.70985E-3	-188.472E-12	682.010E-3	-44.3739E-3	-181.947E-12	609.689E-3	-1.50304E-3
-4.71486E-3	-186.222E-12	651.036E-3	-37.2832E-3	-182.198E-12	593.509E-3	-15.8634E-3
-4.71986E-3	-184.271E-12	622.530E-3	-10.7177E-3	-181.113E-12	604.262E-3	-26.0243E-3
-4.72486E-3	-184.114E-12	593.138E-3	24.4469E-3	-180.680E-12	623.042E-3	-27.3852E-3
-4.72986E-3	-182.482E-12	584.751E-3	25.6077E-3	-182.612E-12	627.493E-3	-28.3383E-3
-4.73487E-3	-181.249E-12	622.426E-3	-9.88377E-3	-183.745E-12	637.613E-3	-36.3205E-3
-4.73987E-3	-179.697E-12	646.512E-3	-34.2883E-3	-184.163E-12	645.685E-3	-21.4490E-3
-4.74487E-3	-180.291E-12	630.683E-3	-48.9962E-3	-184.343E-12	655.370E-3	9.49752E-3
-4.74988E-3	-180.455E-12	618.626E-3	-40.7983E-3	-185.655E-12	669.347E-3	25.5803E-3
-4.75488E-3	-181.131E-12	613.657E-3	-23.7234E-3	-188.363E-12	662.560E-3	27.1507E-3
-4.75988E-3	-180.521E-12	614.289E-3	-31.4032E-3	-188.803E-12	666.222E-3	14.8015E-3
-4.76488E-3	-181.745E-12	646.715E-3	-33.4124E-3	-188.624E-12	688.169E-3	-7.36200E-3
-4.76988E-3	-183.950E-12	680.165E-3	-20.5162E-3	-189.378E-12	679.883E-3	-19.8917E-3
-4.77489E-3	-186.470E-12	686.437E-3	-15.9080E-3	-190.968E-12	660.734E-3	-20.8600E-3
-4.77989E-3	-186.730E-12	674.713E-3	-10.6666E-3	-190.739E-12	663.108E-3	-27.1013E-3
-4.78489E-3	-187.566E-12	655.249E-3	-10.0377E-3	-189.394E-12	664.074E-3	-23.4316E-3
-4.78989E-3	-189.838E-12	639.775E-3	-27.2574E-3	-189.675E-12	636.912E-3	-723.154E-6
-4.79490E-3	-190.818E-12	644.537E-3	-27.6155E-3	-190.225E-12	606.550E-3	8.12558E-3
-4.79990E-3	-191.514E-12	642.219E-3	-15.7379E-3	-189.532E-12	624.159E-3	-17.2732E-3
-4.80490E-3	-192.346E-12	613.234E-3	-3.31763E-3	-187.388E-12	664.986E-3	-44.4463E-3
-4.80990E-3	-191.467E-12	609.075E-3	-4.80906E-3	-187.695E-12	657.870E-3	-41.1037E-3
-4.81491E-3	-190.581E-12	640.576E-3	-23.4996E-3	-188.532E-12	638.235E-3	-27.2180E-3
-4.81991E-3	-192.328E-12	663.759E-3	-18.2426E-3	-187.265E-12	652.632E-3	-27.6477E-3
-4.82491E-3	-191.955E-12	675.896E-3	-11.9447E-3	-186.702E-12	660.767E-3	-33.1943E-3
-4.82991E-3	-189.092E-12	692.240E-3	-23.9604E-3	-187.501E-12	654.461E-3	-28.0799E-3
-4.83492E-3	-187.652E-12	667.753E-3	-17.7303E-3	-189.238E-12	657.587E-3	-17.7940E-3
-4.83992E-3	-188.650E-12	630.970E-3	-15.1710E-3	-188.363E-12	649.876E-3	-25.4733E-3
-4.84492E-3	-189.332E-12	667.338E-3	-17.2138E-3	-189.430E-12	634.109E-3	-22.8256E-3
-4.84992E-3	-187.959E-12	703.940E-3	-12.8499E-3	-191.494E-12	636.104E-3	-16.0122E-3
-4.85493E-3	-186.513E-12	679.360E-3	-23.8641E-3	-193.154E-12	645.153E-3	-32.1088E-3
-4.85993E-3	-187.448E-12	657.521E-3	-24.9345E-3	-194.249E-12	658.586E-3	-18.1533E-3
-4.86493E-3	-189.642E-12	649.460E-3	-18.1703E-3	-195.690E-12	678.237E-3	-24.8551E-3
-4.86993E-3	-190.122E-12	653.212E-3	-17.9401E-3	-196.542E-12	667.532E-3	-60.2900E-3
-4.87494E-3	-190.474E-12	677.847E-3	-11.7101E-3	-197.859E-12	645.829E-3	-52.4526E-3
-4.87994E-3	-190.542E-12	686.797E-3	-9.47443E-3	-199.075E-12	654.499E-3	-14.2001E-3
-4.88494E-3	-193.312E-12	681.725E-3	-5.19478E-3	-197.555E-12	680.960E-3	8.80202E-3
-4.88995E-3	-196.323E-12	671.401E-3	-9.79998E-3	-196.293E-12	699.877E-3	6.29188E-3
-4.89495E-3	-196.015E-12	666.408E-3	-27.3211E-3	-197.090E-12	672.222E-3	330.932E-6
-4.89995E-3	-196.890E-12	674.167E-3	-27.6787E-3	-195.314E-12	635.381E-3	-29.4518E-3
-4.90495E-3	-197.551E-12	674.549E-3	-17.1037E-3	-194.858E-12	624.278E-3	-48.7557E-3
-4.90995E-3	-198.123E-12	675.208E-3	1.67824E-3	-192.831E-12	594.500E-3	-8.69705E-3
-4.91496E-3	-198.829E-12	663.612E-3	25.2189E-3	-192.345E-12	590.071E-3	23.9442E-3
-4.91996E-3	-199.083E-12	632.780E-3	15.4391E-3	-191.297E-12	623.912E-3	6.21854E-3
-4.92496E-3	-198.254E-12	626.682E-3	-20.9478E-3	-192.949E-12	636.467E-3	-29.3258E-3
-4.92996E-3	-196.585E-12	643.249E-3	-33.0420E-3	-191.944E-12	644.489E-3	-45.7687E-3
-4.93497E-3	-197.593E-12	665.593E-3	-23.3031E-3	-191.818E-12	638.838E-3	-22.2939E-3
-4.93997E-3	-197.051E-12	678.957E-3	-6.43439E-3	-193.127E-12	641.285E-3	-6.00843E-3
-4.94497E-3	-194.787E-12	659.869E-3	7.24806E-3	-194.044E-12	664.182E-3	-9.56007E-3
-4.94997E-3	-193.455E-12	648.863E-3	-6.44217E-3	-194.741E-12	662.456E-3	3.04237E-3
-4.95498E-3	-194.038E-12	677.549E-3	-9.55302E-3	-195.643E-12	680.200E-3	10.0443E-3
-4.95998E-3	-192.849E-12	689.370E-3	26.4235E-3	-197.676E-12	689.344E-3	636.867E-6
-4.96498E-3	-193.265E-12	671.231E-3	40.5319E-3	-199.279E-12	661.196E-3	-6.07560E-3
-4.96998E-3	-193.451E-12	676.359E-3	12.4325E-3	-200.863E-12	637.751E-3	-5.78823E-3
-4.97499E-3	-193.534E-12	689.914E-3	-16.9588E-3	-201.186E-12	632.423E-3	-17.2288E-3
-4.97999E-3	-194.149E-12	668.173E-3	-31.7000E-3	-201.180E-12	639.862E-3	-41.2912E-3
-4.98499E-3	-194.426E-12	622.895E-3	-25.0398E-3	-201.568E-12	640.672E-3	-43.1879E-3
-4.98999E-3	-195.057E-12	603.967E-3	-13.9646E-3	-200.835E-12	649.220E-3	-6.17194E-3
-4.99500E-3	-195.736E-12	624.425E-3	-26.7167E-3	-201.453E-12	663.809E-3	17.0704E-3
-5.00000E-3	-198.167E-12	650.713E-3	-34.8749E-3	-200.049E-12	663.902E-3	-8.57320E-3
