Experiment	bias spectroscopy	
Date	19.01.2016 21:38:12	
User		
X (m)	50.3726E-9	
Y (m)	257.661E-9	
Z (m)	-132.599E-9	
Z offset (m)	0E+0	
Settling time (s)	200E-6	
Integration time (s)	5E-3	
Z-Ctrl hold	TRUE	
Final Z (m)	N/A	
Filter type	None	
Order		
Cutoff frq		
Comment01	MnPc/Pb(111)	
Comment02	dz =00pm	
Comment03	7 Sweeps	
Comment04	MagField =0.T	
Comment05	Divider 1:10	
Comment06	Setpoint:5mV,200 pA	
Comment07	Lockin: 50uVrms,5ms,5mV	
Comment08	Gain:9; 912Hz modulation	
Comment09	T=1.06K	
Bias>Bias (V)	5E-3	
Bias>Calibration (V/V)	81.475E-3	
Bias>Offset (V)	1.046E-3	
Bias Spectroscopy>Sweep Start (V)	5E-3	
Bias Spectroscopy>Sweep End (V)	-5E-3	
Bias Spectroscopy>Num Pixel	2000	
Bias Spectroscopy>Z Avg time (s)	500E-3	
Bias Spectroscopy>Z offset (m)	0E+0	
Bias Spectroscopy>1st Settling time (s)	500E-3	
Bias Spectroscopy>Settling time (s)	200E-6	
Bias Spectroscopy>Integration time (s)	5E-3	
Bias Spectroscopy>End Settling time (s)	500E-3	
Bias Spectroscopy>Z control time (s)	500E-3	
Bias Spectroscopy>Max Slew rate (V/s)	Inf	
Bias Spectroscopy>backward sweep	TRUE	
Bias Spectroscopy>Z-controller hold	TRUE	
Bias Spectroscopy>Number of sweeps	7	
Bias Spectroscopy>Channels	Current (A);X% LockIn (V);Y% LockIn (V)	
Bias Spectroscopy>Reset Bias	TRUE	
Bias Spectroscopy>Record final Z	FALSE	
Bias Spectroscopy>Lock-In run	FALSE	
Bias Spectroscopy>Sweep mode	Linear	
Bias Spectroscopy>MultiLine Settings : Segment Start (V), Segment End (V), Settling (s), Integration (s), Steps (xn)	100E-3,3.3E-3,100E-6,10E-3,2500;3.3E-3,-3.3E-3,100E-6,10E-3,10;-3.3E-3,-100E-3,100E-6,10E-3,2500	
Current>Current (A)	200.049E-12	
Current>Calibration (A/V)	999.99900E-12	
Current>Offset (A)	-455.429E-15	
Current>Gain	LN 10^9	
Z-Controller>Z (m)	-132.6E-9	
Z-Controller>Controller name	log Current	
Z-Controller>Controller status	ON	
Z-Controller>Setpoint	200E-12	
Z-Controller>Setpoint unit	A	
Z-Controller>P gain	2.96994E-12	
Z-Controller>I gain	67.0321E-9	
Z-Controller>Time const (s)	44.3062E-6	
Z-Controller>TipLift (m)	0E+0	
Z-Controller>Switch off delay (s)	50E-3	
Current (A)	199.716E-12	
Z (m)	-132.6E-9	

[DATA]
Bias calc (V)	Current (A)	X% LockIn (V)	Y% LockIn (V)	Current [bwd] (A)	X% LockIn [bwd] (V)	Y% LockIn [bwd] (V)
5.00000E-3	203.301E-12	653.185E-3	-44.2516E-3	203.677E-12	654.740E-3	2.10515E-3
4.99500E-3	202.694E-12	620.862E-3	-26.6103E-3	202.876E-12	645.569E-3	-277.545E-6
4.98999E-3	202.032E-12	640.438E-3	-20.4656E-3	202.652E-12	652.898E-3	-3.41191E-3
4.98499E-3	201.357E-12	664.453E-3	-11.1431E-3	201.149E-12	659.499E-3	-26.3182E-3
4.97999E-3	200.971E-12	675.568E-3	-20.4516E-3	199.117E-12	635.330E-3	-70.8127E-3
4.97499E-3	199.321E-12	678.798E-3	-28.4634E-3	198.214E-12	619.433E-3	-70.7719E-3
4.96998E-3	199.260E-12	680.435E-3	-5.04656E-3	196.501E-12	639.418E-3	-43.3784E-3
4.96498E-3	198.909E-12	696.879E-3	7.86355E-3	195.450E-12	644.668E-3	-24.8022E-3
4.95998E-3	198.631E-12	704.551E-3	-12.5881E-3	193.886E-12	630.768E-3	-9.32577E-3
4.95498E-3	199.170E-12	678.209E-3	-39.4092E-3	193.407E-12	633.374E-3	-13.7776E-3
4.94997E-3	198.878E-12	643.161E-3	-65.5297E-3	193.350E-12	625.426E-3	-40.2553E-3
4.94497E-3	199.467E-12	624.549E-3	-69.1023E-3	194.132E-12	618.773E-3	-34.9875E-3
4.93997E-3	199.335E-12	640.347E-3	-47.3357E-3	195.136E-12	656.970E-3	-6.43694E-3
4.93497E-3	199.084E-12	653.326E-3	-41.5837E-3	195.967E-12	688.577E-3	-22.4767E-3
4.92996E-3	198.297E-12	639.391E-3	-63.7443E-3	197.519E-12	667.226E-3	-43.2509E-3
4.92496E-3	198.914E-12	630.063E-3	-81.0526E-3	197.971E-12	636.474E-3	-21.0078E-3
4.91996E-3	198.701E-12	648.335E-3	-59.3026E-3	199.502E-12	627.030E-3	-16.4086E-3
4.91496E-3	197.206E-12	684.858E-3	-36.5391E-3	199.865E-12	630.217E-3	-30.5672E-3
4.90995E-3	196.169E-12	708.369E-3	-26.8785E-3	199.852E-12	644.433E-3	-8.41401E-3
4.90495E-3	195.605E-12	692.673E-3	-9.79935E-3	199.584E-12	657.724E-3	-1.39195E-3
4.89995E-3	196.624E-12	658.477E-3	2.31485E-3	198.565E-12	658.433E-3	-15.9309E-3
4.89495E-3	195.708E-12	651.421E-3	-4.29531E-3	197.318E-12	662.275E-3	-1.59359E-3
4.88995E-3	194.263E-12	645.329E-3	-36.0710E-3	195.301E-12	673.724E-3	5.01934E-3
4.88494E-3	193.557E-12	640.174E-3	-63.8934E-3	194.405E-12	674.591E-3	-6.83581E-3
4.87994E-3	194.658E-12	649.242E-3	-69.8214E-3	194.041E-12	651.948E-3	-10.8752E-3
4.87494E-3	194.773E-12	654.315E-3	-70.6521E-3	192.337E-12	629.199E-3	-10.4907E-3
4.86993E-3	193.688E-12	648.714E-3	-50.9873E-3	193.535E-12	610.253E-3	-14.4261E-3
4.86493E-3	192.669E-12	647.057E-3	-23.6174E-3	192.981E-12	592.659E-3	-25.2930E-3
4.85993E-3	194.141E-12	662.612E-3	-8.01912E-3	193.274E-12	612.166E-3	-24.4341E-3
4.85493E-3	195.032E-12	682.886E-3	9.31788E-3	192.528E-12	656.005E-3	-9.32729E-3
4.84992E-3	194.665E-12	691.500E-3	19.9556E-3	192.984E-12	692.596E-3	-2.87736E-3
4.84492E-3	193.975E-12	702.765E-3	12.6932E-3	194.283E-12	686.646E-3	-11.7414E-3
4.83992E-3	193.997E-12	732.381E-3	3.19585E-3	195.624E-12	651.982E-3	4.40994E-3
4.83492E-3	195.404E-12	732.513E-3	10.2366E-3	195.804E-12	639.857E-3	38.9632E-3
4.82991E-3	195.259E-12	699.620E-3	-10.9663E-3	195.822E-12	653.483E-3	25.7550E-3
4.82491E-3	194.153E-12	675.956E-3	-35.1798E-3	196.875E-12	664.853E-3	8.80156E-3
4.81991E-3	193.576E-12	669.163E-3	-18.6842E-3	196.023E-12	665.381E-3	31.1720E-3
4.81491E-3	194.132E-12	672.388E-3	-3.96654E-3	195.186E-12	675.141E-3	32.7237E-3
4.80990E-3	194.393E-12	683.145E-3	-5.45263E-3	193.232E-12	682.459E-3	1.59490E-3
4.80490E-3	192.753E-12	675.997E-3	-11.8337E-3	192.954E-12	675.404E-3	-20.5500E-3
4.79990E-3	191.664E-12	658.901E-3	7.61324E-3	191.798E-12	670.244E-3	-31.0831E-3
4.79490E-3	192.117E-12	666.774E-3	25.0348E-3	190.558E-12	662.477E-3	-33.4027E-3
4.78989E-3	193.128E-12	671.409E-3	1.47675E-3	190.557E-12	661.705E-3	-20.3996E-3
4.78489E-3	192.334E-12	676.356E-3	-15.0956E-3	188.165E-12	664.683E-3	-15.6260E-3
4.77989E-3	190.557E-12	680.034E-3	-23.2187E-3	187.789E-12	644.329E-3	-30.9417E-3
4.77489E-3	190.171E-12	650.787E-3	-46.0997E-3	187.601E-12	625.865E-3	-39.1536E-3
4.76988E-3	191.317E-12	619.082E-3	-54.5760E-3	188.772E-12	637.613E-3	-28.5233E-3
4.76488E-3	191.705E-12	634.445E-3	-37.2210E-3	188.302E-12	658.162E-3	-25.3312E-3
4.75988E-3	190.331E-12	673.885E-3	-15.2587E-3	189.579E-12	684.991E-3	-27.7676E-3
4.75488E-3	189.968E-12	678.424E-3	-5.04905E-3	190.176E-12	712.465E-3	-9.95728E-3
4.74988E-3	190.802E-12	663.676E-3	-94.2473E-6	190.417E-12	694.908E-3	1.58214E-3
4.74487E-3	191.655E-12	679.238E-3	-3.18755E-3	191.066E-12	661.676E-3	845.851E-6
4.73987E-3	190.770E-12	697.546E-3	-1.67964E-3	190.491E-12	646.767E-3	-1.43772E-3
4.73487E-3	189.293E-12	681.691E-3	11.3008E-3	190.416E-12	647.085E-3	-26.5705E-3
4.72986E-3	188.532E-12	662.164E-3	1.10445E-3	188.441E-12	672.976E-3	-40.7845E-3
4.72486E-3	188.051E-12	647.075E-3	335.292E-6	188.147E-12	684.909E-3	-27.8706E-3
4.71986E-3	187.840E-12	634.922E-3	30.9353E-3	186.828E-12	669.779E-3	-45.7359E-3
4.71486E-3	186.447E-12	618.778E-3	31.2544E-3	186.453E-12	675.138E-3	-63.0186E-3
4.70985E-3	185.046E-12	608.417E-3	-7.19103E-3	184.938E-12	688.399E-3	-34.6456E-3
4.70485E-3	183.653E-12	618.849E-3	-23.9636E-3	184.747E-12	678.032E-3	-23.8400E-3
4.69985E-3	185.169E-12	631.828E-3	-6.80796E-3	185.005E-12	660.178E-3	-41.2138E-3
4.69485E-3	184.906E-12	641.186E-3	9.44307E-3	185.075E-12	660.055E-3	-46.0666E-3
4.68984E-3	184.025E-12	644.004E-3	12.6057E-3	185.590E-12	659.297E-3	-56.0099E-3
4.68484E-3	182.020E-12	637.942E-3	-614.807E-6	185.601E-12	639.583E-3	-64.2907E-3
4.67984E-3	183.737E-12	626.219E-3	-15.4093E-3	187.053E-12	632.970E-3	-48.4092E-3
4.67484E-3	184.611E-12	630.096E-3	-9.64563E-3	187.219E-12	632.371E-3	-31.6207E-3
4.66983E-3	184.512E-12	652.214E-3	19.3456E-3	188.410E-12	634.651E-3	-32.8404E-3
4.66483E-3	182.503E-12	676.018E-3	29.5204E-3	188.736E-12	654.153E-3	-28.0150E-3
4.65983E-3	183.236E-12	706.696E-3	10.2515E-3	189.098E-12	660.957E-3	-16.0921E-3
4.65483E-3	184.725E-12	714.915E-3	-9.84012E-3	188.858E-12	647.332E-3	-11.7432E-3
4.64982E-3	185.275E-12	689.177E-3	-28.8662E-3	187.127E-12	642.038E-3	-9.12168E-3
4.64482E-3	183.960E-12	662.544E-3	-34.9168E-3	186.521E-12	652.390E-3	-12.6292E-3
4.63982E-3	183.340E-12	660.620E-3	-32.3360E-3	184.920E-12	658.752E-3	-28.1492E-3
4.63482E-3	182.869E-12	680.606E-3	-39.1735E-3	183.768E-12	653.841E-3	-49.0360E-3
4.62981E-3	183.529E-12	686.499E-3	-51.5556E-3	181.990E-12	665.443E-3	-35.7612E-3
4.62481E-3	182.483E-12	679.525E-3	-39.2008E-3	180.848E-12	672.074E-3	-7.98173E-3
4.61981E-3	181.453E-12	681.482E-3	-14.2583E-3	179.422E-12	662.032E-3	1.35694E-3
4.61481E-3	181.314E-12	679.192E-3	-12.6413E-3	179.365E-12	680.152E-3	9.76823E-3
4.60980E-3	182.792E-12	664.028E-3	-13.0233E-3	179.930E-12	691.837E-3	-1.11717E-3
4.60480E-3	182.493E-12	652.095E-3	2.27036E-3	180.676E-12	661.579E-3	-32.8514E-3
4.59980E-3	181.825E-12	655.871E-3	-17.1024E-3	180.778E-12	653.774E-3	-47.3481E-3
4.59480E-3	181.951E-12	672.786E-3	-41.6624E-3	180.964E-12	662.727E-3	-39.4284E-3
4.58979E-3	183.100E-12	667.687E-3	-21.4692E-3	182.795E-12	640.346E-3	-43.4257E-3
4.58479E-3	183.188E-12	654.881E-3	-13.5399E-3	184.270E-12	623.173E-3	-57.0834E-3
4.57979E-3	183.009E-12	682.056E-3	-14.1020E-3	183.755E-12	645.712E-3	-53.9670E-3
4.57479E-3	181.881E-12	692.725E-3	-17.4256E-3	183.007E-12	675.745E-3	-22.9434E-3
4.56978E-3	182.407E-12	670.647E-3	-44.0266E-3	183.056E-12	671.037E-3	16.0117E-3
4.56478E-3	182.560E-12	653.013E-3	-45.7943E-3	184.175E-12	659.817E-3	22.6125E-3
4.55978E-3	181.973E-12	645.700E-3	-17.2441E-3	182.968E-12	663.298E-3	4.44020E-3
4.55478E-3	181.068E-12	638.297E-3	-23.4183E-3	181.150E-12	660.695E-3	-20.6101E-3
4.54977E-3	180.704E-12	637.804E-3	-44.6513E-3	178.568E-12	644.086E-3	-34.2773E-3
4.54477E-3	181.412E-12	644.545E-3	-35.6110E-3	178.294E-12	636.367E-3	-13.4686E-3
4.53977E-3	181.905E-12	658.167E-3	-18.0773E-3	177.001E-12	636.852E-3	7.68998E-3
4.53477E-3	181.429E-12	688.425E-3	-23.6008E-3	175.535E-12	633.211E-3	-786.368E-6
4.52976E-3	179.862E-12	682.542E-3	-30.1772E-3	173.214E-12	629.902E-3	-7.55627E-3
4.52476E-3	180.321E-12	633.548E-3	-18.4273E-3	173.861E-12	645.054E-3	10.9648E-3
4.51976E-3	181.087E-12	592.022E-3	-20.1864E-3	174.432E-12	680.076E-3	24.3250E-3
4.51476E-3	181.410E-12	603.747E-3	-38.0882E-3	175.114E-12	679.471E-3	-8.17584E-3
4.50975E-3	180.234E-12	652.511E-3	-56.0687E-3	176.052E-12	645.314E-3	-32.9507E-3
4.50475E-3	179.943E-12	667.842E-3	-68.8278E-3	176.942E-12	633.407E-3	-4.68386E-3
4.49975E-3	180.145E-12	643.342E-3	-70.0856E-3	178.177E-12	638.699E-3	7.85806E-3
4.49475E-3	181.140E-12	617.012E-3	-54.0662E-3	179.668E-12	655.631E-3	-14.0881E-3
4.48974E-3	180.034E-12	632.079E-3	-45.0903E-3	181.982E-12	698.822E-3	-33.9434E-3
4.48474E-3	178.712E-12	689.322E-3	-44.9275E-3	181.987E-12	726.591E-3	-39.2090E-3
4.47974E-3	178.278E-12	720.021E-3	-42.0211E-3	182.058E-12	733.186E-3	-30.5663E-3
4.47474E-3	177.398E-12	699.687E-3	-39.7769E-3	180.864E-12	726.366E-3	-19.2625E-3
4.46973E-3	176.175E-12	667.941E-3	-34.8692E-3	181.318E-12	694.572E-3	-28.6846E-3
4.46473E-3	174.723E-12	652.752E-3	-31.3751E-3	179.931E-12	666.626E-3	-40.2935E-3
4.45973E-3	174.170E-12	663.832E-3	-44.8972E-3	177.761E-12	672.523E-3	-29.6154E-3
4.45473E-3	173.762E-12	666.055E-3	-72.0321E-3	176.025E-12	697.339E-3	-10.9917E-3
4.44972E-3	173.573E-12	645.573E-3	-69.2131E-3	175.161E-12	682.973E-3	7.30123E-3
4.44472E-3	172.670E-12	637.461E-3	-44.8744E-3	174.054E-12	643.289E-3	20.4985E-3
4.43972E-3	173.117E-12	657.630E-3	-40.3532E-3	173.860E-12	635.132E-3	8.47920E-3
4.43472E-3	173.254E-12	673.952E-3	-42.5605E-3	172.877E-12	631.626E-3	-23.5440E-3
4.42971E-3	174.069E-12	656.113E-3	-36.9894E-3	172.446E-12	614.358E-3	-23.8251E-3
4.42471E-3	174.223E-12	631.183E-3	-42.5585E-3	172.824E-12	623.122E-3	12.0878E-3
4.41971E-3	174.398E-12	626.637E-3	-28.0021E-3	174.291E-12	652.842E-3	42.4455E-3
4.41471E-3	175.203E-12	634.399E-3	259.119E-6	175.064E-12	663.240E-3	38.3811E-3
4.40970E-3	175.832E-12	641.350E-3	-17.0466E-3	175.638E-12	671.472E-3	-3.26750E-3
4.40470E-3	176.579E-12	647.158E-3	-40.9894E-3	175.961E-12	691.628E-3	-37.5232E-3
4.39970E-3	176.389E-12	639.498E-3	-48.8896E-3	177.092E-12	695.122E-3	-26.4369E-3
4.39470E-3	176.660E-12	651.984E-3	-49.6292E-3	178.222E-12	698.838E-3	-13.4797E-3
4.38969E-3	176.724E-12	669.243E-3	-31.1865E-3	176.814E-12	694.114E-3	-21.7080E-3
4.38469E-3	176.294E-12	669.424E-3	-11.5162E-3	175.412E-12	664.630E-3	-4.24203E-3
4.37969E-3	175.897E-12	680.869E-3	-12.0043E-3	174.709E-12	670.439E-3	9.31178E-3
4.37469E-3	174.333E-12	672.339E-3	788.967E-6	173.659E-12	707.485E-3	-20.0035E-3
4.36968E-3	172.955E-12	668.083E-3	31.8443E-3	172.538E-12	709.478E-3	-40.7761E-3
4.36468E-3	171.883E-12	684.534E-3	31.2822E-3	170.958E-12	689.371E-3	-33.9719E-3
4.35968E-3	171.301E-12	682.649E-3	8.55966E-3	169.815E-12	668.619E-3	-27.9476E-3
4.35468E-3	170.777E-12	651.610E-3	-5.09401E-3	168.218E-12	648.111E-3	-20.6506E-3
4.34967E-3	170.652E-12	631.621E-3	-21.2220E-3	168.845E-12	649.455E-3	4.06012E-3
4.34467E-3	170.381E-12	654.999E-3	-36.0319E-3	168.698E-12	652.176E-3	19.2542E-3
4.33967E-3	170.024E-12	674.871E-3	-29.1636E-3	168.847E-12	637.550E-3	13.9378E-3
4.33467E-3	171.203E-12	669.663E-3	-33.5209E-3	168.741E-12	631.882E-3	11.6574E-3
4.32966E-3	171.009E-12	677.299E-3	-36.2540E-3	169.496E-12	656.719E-3	3.80575E-3
4.32466E-3	171.899E-12	679.247E-3	-21.7509E-3	169.901E-12	671.706E-3	-9.44412E-3
4.31966E-3	171.367E-12	652.613E-3	-21.7352E-3	170.160E-12	647.733E-3	-14.6871E-3
4.31466E-3	171.638E-12	653.207E-3	-22.8772E-3	170.002E-12	635.517E-3	-13.9462E-3
4.30965E-3	171.450E-12	679.400E-3	-24.8250E-3	170.483E-12	657.495E-3	-10.6634E-3
4.30465E-3	172.118E-12	671.918E-3	-33.2923E-3	171.465E-12	677.436E-3	-4.87705E-3
4.29965E-3	171.776E-12	641.853E-3	-21.7591E-3	170.631E-12	678.565E-3	-5.27414E-3
4.29465E-3	171.272E-12	649.311E-3	-2.55178E-3	169.801E-12	677.396E-3	-12.8489E-3
4.28964E-3	170.277E-12	678.275E-3	-4.50285E-3	168.310E-12	674.035E-3	-14.2503E-3
4.28464E-3	170.223E-12	700.267E-3	-20.6604E-3	168.783E-12	661.611E-3	-11.2527E-3
4.27964E-3	169.424E-12	710.908E-3	-41.7973E-3	168.265E-12	652.158E-3	-3.49574E-3
4.27464E-3	167.572E-12	673.484E-3	-35.6967E-3	167.238E-12	645.507E-3	7.64503E-3
4.26963E-3	166.756E-12	623.840E-3	-15.7898E-3	165.416E-12	644.168E-3	3.42209E-3
4.26463E-3	166.217E-12	621.025E-3	-24.0506E-3	166.127E-12	665.200E-3	-5.56687E-3
4.25963E-3	165.584E-12	653.157E-3	-23.6598E-3	168.106E-12	692.893E-3	5.14096E-3
4.25463E-3	165.342E-12	677.531E-3	-22.7903E-3	167.958E-12	700.417E-3	628.863E-6
4.24962E-3	164.533E-12	675.589E-3	-16.0187E-3	167.395E-12	690.157E-3	-20.0955E-3
4.24462E-3	164.395E-12	665.324E-3	11.5080E-3	167.739E-12	694.718E-3	5.09797E-3
4.23962E-3	164.777E-12	659.721E-3	10.2177E-3	169.856E-12	711.827E-3	31.0132E-3
4.23462E-3	165.527E-12	662.461E-3	7.40802E-3	170.989E-12	712.211E-3	-11.6779E-3
4.22961E-3	164.989E-12	665.479E-3	23.6992E-3	169.963E-12	727.821E-3	-46.6822E-3
4.22461E-3	165.503E-12	647.599E-3	19.9465E-3	169.388E-12	727.246E-3	-33.6739E-3
4.21961E-3	166.086E-12	646.903E-3	15.6754E-3	169.568E-12	675.253E-3	-25.6250E-3
4.21461E-3	167.005E-12	687.153E-3	29.0691E-3	168.248E-12	641.027E-3	-15.4624E-3
4.20960E-3	166.521E-12	721.368E-3	20.2754E-3	165.478E-12	639.056E-3	6.15052E-3
4.20460E-3	166.321E-12	721.269E-3	-31.2288E-3	164.099E-12	650.190E-3	5.65336E-3
4.19960E-3	165.865E-12	706.094E-3	-55.3089E-3	163.052E-12	660.440E-3	-6.19431E-3
4.19460E-3	165.661E-12	700.323E-3	-22.7276E-3	162.848E-12	656.927E-3	-4.19040E-3
4.18959E-3	165.579E-12	685.185E-3	10.0616E-3	161.380E-12	662.479E-3	-21.1027E-3
4.18459E-3	165.313E-12	670.933E-3	17.3020E-3	160.818E-12	668.651E-3	-48.3269E-3
4.17959E-3	164.757E-12	680.684E-3	-11.5101E-3	160.829E-12	679.239E-3	-47.9846E-3
4.17459E-3	164.186E-12	664.976E-3	-56.7468E-3	161.237E-12	689.820E-3	-23.8659E-3
4.16958E-3	163.814E-12	634.327E-3	-61.2200E-3	161.567E-12	670.162E-3	5.77678E-3
4.16458E-3	164.507E-12	641.016E-3	-33.0075E-3	162.495E-12	644.050E-3	6.84028E-3
4.15958E-3	163.663E-12	654.189E-3	-19.4448E-3	163.488E-12	638.498E-3	-18.6010E-3
4.15458E-3	164.614E-12	654.915E-3	-8.40132E-3	163.777E-12	647.488E-3	-29.4440E-3
4.14957E-3	163.856E-12	663.029E-3	5.29854E-3	164.243E-12	651.054E-3	-17.3251E-3
4.14457E-3	164.547E-12	674.355E-3	8.01111E-3	164.939E-12	644.545E-3	-9.54738E-3
4.13957E-3	163.318E-12	673.062E-3	4.69182E-3	165.042E-12	651.289E-3	-16.5149E-3
4.13457E-3	162.682E-12	676.975E-3	-2.88438E-3	164.399E-12	656.971E-3	-30.9908E-3
4.12956E-3	162.591E-12	693.925E-3	-8.46906E-3	164.383E-12	635.592E-3	-37.0809E-3
4.12456E-3	163.017E-12	698.507E-3	-12.5414E-3	163.898E-12	612.326E-3	-30.3704E-3
4.11956E-3	162.334E-12	659.020E-3	-20.4885E-3	161.796E-12	617.760E-3	-19.6481E-3
4.11456E-3	161.388E-12	606.572E-3	-14.6027E-3	159.497E-12	645.038E-3	-11.3120E-3
4.10955E-3	161.401E-12	630.858E-3	-399.396E-6	157.970E-12	656.616E-3	-29.6375E-3
4.10455E-3	161.656E-12	685.071E-3	-6.35745E-3	157.453E-12	659.948E-3	-43.8035E-3
4.09955E-3	161.336E-12	690.049E-3	-26.9172E-3	156.979E-12	674.443E-3	-27.0210E-3
4.09455E-3	160.092E-12	671.809E-3	-32.5901E-3	157.725E-12	673.124E-3	-21.0192E-3
4.08954E-3	159.856E-12	648.840E-3	-27.2025E-3	157.145E-12	653.516E-3	-18.5613E-3
4.08454E-3	160.232E-12	633.382E-3	-27.2909E-3	158.225E-12	649.001E-3	-12.6684E-3
4.07954E-3	159.448E-12	637.930E-3	-30.8656E-3	159.103E-12	650.149E-3	-31.0019E-3
4.07454E-3	160.436E-12	648.317E-3	-38.3630E-3	161.065E-12	644.746E-3	-36.7937E-3
4.06953E-3	160.326E-12	663.307E-3	-22.3474E-3	161.640E-12	657.114E-3	-13.9448E-3
4.06453E-3	160.440E-12	686.042E-3	1.78496E-3	162.861E-12	692.121E-3	-18.1024E-3
4.05953E-3	160.164E-12	684.284E-3	-15.1795E-3	163.882E-12	710.781E-3	-44.2837E-3
4.05453E-3	159.378E-12	667.539E-3	-43.3948E-3	164.527E-12	678.731E-3	-63.4443E-3
4.04952E-3	158.712E-12	657.032E-3	-43.0651E-3	164.729E-12	630.010E-3	-45.5366E-3
4.04452E-3	158.387E-12	641.530E-3	-20.1697E-3	163.789E-12	625.366E-3	12.4423E-3
4.03952E-3	157.986E-12	620.561E-3	-2.98636E-3	162.291E-12	666.136E-3	35.9707E-3
4.03452E-3	157.571E-12	629.496E-3	-8.59087E-3	160.640E-12	684.979E-3	3.39632E-3
4.02951E-3	156.791E-12	669.451E-3	-32.2020E-3	159.841E-12	670.230E-3	-30.1196E-3
4.02451E-3	156.220E-12	672.737E-3	-44.8222E-3	158.316E-12	661.248E-3	-23.2722E-3
4.01951E-3	155.555E-12	640.138E-3	-31.6643E-3	156.214E-12	668.066E-3	-15.4568E-3
4.01451E-3	155.771E-12	623.286E-3	-11.1207E-3	154.503E-12	667.284E-3	-26.9232E-3
4.00950E-3	154.490E-12	620.023E-3	-16.2760E-3	153.932E-12	647.451E-3	-18.3857E-3
4.00450E-3	154.405E-12	627.065E-3	-39.8334E-3	153.943E-12	642.192E-3	-404.192E-6
3.99950E-3	154.452E-12	635.926E-3	-38.7727E-3	153.419E-12	651.089E-3	-5.02209E-3
3.99450E-3	155.150E-12	616.760E-3	-7.62325E-3	153.781E-12	659.625E-3	-18.2799E-3
3.98949E-3	154.799E-12	616.202E-3	15.8098E-3	154.064E-12	670.852E-3	-11.6851E-3
3.98449E-3	155.051E-12	667.199E-3	4.06056E-3	155.889E-12	667.332E-3	-51.3302E-6
3.97949E-3	155.850E-12	696.637E-3	-13.8921E-3	156.974E-12	665.050E-3	3.45533E-3
3.97449E-3	155.639E-12	684.162E-3	-17.3307E-3	157.152E-12	683.129E-3	8.70932E-3
3.96948E-3	156.188E-12	680.869E-3	-9.72054E-3	157.159E-12	696.272E-3	13.4041E-3
3.96448E-3	156.533E-12	693.827E-3	-9.30898E-3	157.557E-12	685.947E-3	5.09138E-3
3.95948E-3	156.821E-12	707.900E-3	-15.6426E-3	157.018E-12	652.292E-3	-14.5135E-3
3.95448E-3	155.379E-12	712.385E-3	-22.0595E-3	156.225E-12	640.248E-3	-29.0960E-3
3.94947E-3	154.482E-12	683.296E-3	-24.1300E-3	154.670E-12	660.103E-3	-41.0491E-3
3.94447E-3	153.867E-12	649.139E-3	-23.1072E-3	152.928E-12	661.971E-3	-51.9350E-3
3.93947E-3	153.376E-12	650.575E-3	-24.1029E-3	151.976E-12	632.077E-3	-60.8283E-3
3.93447E-3	152.750E-12	669.716E-3	-27.0084E-3	150.701E-12	610.156E-3	-50.1489E-3
3.92946E-3	152.192E-12	695.281E-3	-43.0770E-3	149.148E-12	607.828E-3	-36.6901E-3
3.92446E-3	151.537E-12	706.155E-3	-59.7700E-3	147.260E-12	611.270E-3	-48.7295E-3
3.91946E-3	151.109E-12	683.347E-3	-55.0774E-3	147.748E-12	640.619E-3	-42.7426E-3
3.91446E-3	151.385E-12	666.703E-3	-24.4393E-3	148.409E-12	675.069E-3	-28.9475E-3
3.90945E-3	151.253E-12	681.140E-3	-2.60345E-3	149.020E-12	685.590E-3	-34.8264E-3
3.90445E-3	151.427E-12	688.226E-3	-5.06259E-3	147.688E-12	678.571E-3	-38.7817E-3
3.89945E-3	151.371E-12	662.832E-3	-23.8706E-3	149.313E-12	675.375E-3	-37.7637E-3
3.89445E-3	151.839E-12	637.804E-3	-34.3497E-3	150.913E-12	666.340E-3	-40.7953E-3
3.88944E-3	151.399E-12	641.397E-3	-16.4810E-3	152.273E-12	645.910E-3	-37.5307E-3
3.88444E-3	151.756E-12	663.045E-3	7.01489E-3	152.091E-12	650.886E-3	-38.1347E-3
3.87944E-3	152.336E-12	680.378E-3	1.69884E-3	151.898E-12	672.719E-3	-58.1839E-3
3.87444E-3	153.154E-12	669.722E-3	-23.6556E-3	152.898E-12	683.749E-3	-50.5416E-3
3.86943E-3	151.878E-12	662.585E-3	-24.4187E-3	153.394E-12	678.838E-3	-13.4661E-3
3.86443E-3	150.703E-12	677.747E-3	878.767E-6	152.671E-12	662.887E-3	-1.41194E-3
3.85943E-3	150.686E-12	688.190E-3	35.8649E-3	151.311E-12	654.524E-3	-4.95046E-3
3.85443E-3	150.813E-12	702.903E-3	37.4758E-3	150.741E-12	649.096E-3	-1.18725E-3
3.84942E-3	149.192E-12	698.722E-3	-13.3096E-3	150.385E-12	640.448E-3	-5.57975E-3
3.84442E-3	147.016E-12	660.095E-3	-42.0959E-3	149.267E-12	653.855E-3	-12.9641E-3
3.83942E-3	147.096E-12	641.198E-3	-24.0067E-3	147.908E-12	670.941E-3	-11.8818E-3
3.83442E-3	146.940E-12	656.537E-3	-8.68085E-3	147.271E-12	662.436E-3	-15.7133E-3
3.82941E-3	146.881E-12	670.505E-3	-4.78183E-3	147.724E-12	647.681E-3	-35.9508E-3
3.82441E-3	145.682E-12	669.298E-3	-5.96932E-3	147.985E-12	659.303E-3	-56.4661E-3
3.81941E-3	145.259E-12	659.637E-3	-8.37660E-3	147.671E-12	682.634E-3	-64.7153E-3
3.81441E-3	146.029E-12	647.973E-3	-1.20665E-3	148.296E-12	680.346E-3	-60.3124E-3
3.80940E-3	145.960E-12	641.060E-3	5.12414E-3	148.983E-12	666.176E-3	-34.8575E-3
3.80440E-3	146.808E-12	661.466E-3	-9.85923E-3	150.010E-12	666.726E-3	-4.77593E-3
3.79940E-3	146.034E-12	660.045E-3	-18.0512E-3	149.876E-12	676.716E-3	1.78241E-3
3.79440E-3	146.438E-12	616.153E-3	-11.5334E-3	149.010E-12	678.238E-3	-3.83853E-3
3.78939E-3	147.981E-12	637.738E-3	-20.4770E-3	149.049E-12	677.404E-3	-4.02554E-3
3.78439E-3	148.702E-12	697.782E-3	-15.4010E-3	148.584E-12	668.226E-3	-18.7977E-3
3.77939E-3	147.381E-12	699.488E-3	7.25575E-3	148.096E-12	654.140E-3	-35.5221E-3
3.77439E-3	145.807E-12	685.007E-3	5.67730E-3	146.822E-12	653.263E-3	-16.6861E-3
3.76938E-3	146.315E-12	686.775E-3	-11.8531E-3	145.595E-12	656.373E-3	15.9925E-3
3.76438E-3	146.789E-12	664.692E-3	-6.84011E-3	144.032E-12	667.173E-3	20.5632E-3
3.75938E-3	146.529E-12	652.786E-3	17.4414E-3	143.382E-12	671.056E-3	573.940E-6
3.75438E-3	144.603E-12	671.900E-3	25.3369E-3	143.405E-12	657.477E-3	-17.2349E-3
3.74937E-3	144.162E-12	667.903E-3	10.5932E-3	142.497E-12	650.253E-3	-22.8494E-3
3.74437E-3	144.285E-12	656.428E-3	-423.165E-6	141.703E-12	670.386E-3	-23.9328E-3
3.73937E-3	144.974E-12	668.453E-3	-8.20922E-3	141.544E-12	700.617E-3	-25.6693E-3
3.73437E-3	144.153E-12	697.689E-3	-17.0856E-3	143.490E-12	694.408E-3	-17.9614E-3
3.72936E-3	144.012E-12	710.124E-3	-16.4006E-3	143.564E-12	660.404E-3	-25.8191E-3
3.72436E-3	145.186E-12	671.560E-3	-13.3422E-3	144.359E-12	650.570E-3	-48.4328E-3
3.71936E-3	145.997E-12	629.700E-3	-14.1638E-3	143.419E-12	654.954E-3	-46.2940E-3
3.71436E-3	146.050E-12	643.878E-3	-20.8106E-3	144.316E-12	653.638E-3	-31.3788E-3
3.70935E-3	145.450E-12	675.404E-3	-24.3844E-3	144.364E-12	664.628E-3	-12.6979E-3
3.70435E-3	145.309E-12	682.853E-3	-21.7858E-3	144.310E-12	679.475E-3	-4.82923E-3
3.69935E-3	145.714E-12	679.492E-3	-30.7475E-3	143.116E-12	682.651E-3	-12.3146E-3
3.69435E-3	145.693E-12	671.342E-3	-37.2530E-3	142.387E-12	671.515E-3	-1.35176E-3
3.68934E-3	144.199E-12	661.520E-3	-21.9841E-3	141.960E-12	657.131E-3	9.29885E-3
3.68434E-3	143.396E-12	668.459E-3	-17.7391E-3	140.933E-12	653.378E-3	-4.87253E-3
3.67934E-3	143.607E-12	699.302E-3	-26.1182E-3	140.306E-12	653.640E-3	-23.6233E-3
3.67434E-3	143.877E-12	719.208E-3	-24.2077E-3	139.142E-12	651.979E-3	-44.7377E-3
3.66933E-3	142.095E-12	701.330E-3	-19.2431E-3	139.120E-12	643.661E-3	-54.0451E-3
3.66433E-3	140.445E-12	678.410E-3	-9.64454E-3	139.345E-12	637.412E-3	-39.1029E-3
3.65933E-3	139.798E-12	688.672E-3	-6.55696E-3	139.200E-12	638.511E-3	-23.6656E-3
3.65433E-3	140.882E-12	701.911E-3	-3.99156E-3	139.808E-12	653.171E-3	-13.4711E-3
3.64932E-3	140.636E-12	693.783E-3	-465.542E-6	141.076E-12	670.994E-3	-23.6659E-3
3.64432E-3	139.065E-12	681.602E-3	-15.3679E-3	141.900E-12	662.185E-3	-47.0193E-3
3.63932E-3	138.746E-12	662.597E-3	-17.6041E-3	142.404E-12	669.744E-3	-49.8626E-3
3.63432E-3	139.232E-12	661.005E-3	-6.90630E-3	143.543E-12	685.653E-3	-43.6092E-3
3.62931E-3	140.162E-12	679.259E-3	-11.2645E-3	143.964E-12	666.067E-3	-37.7035E-3
3.62431E-3	139.271E-12	680.128E-3	-38.8001E-3	143.400E-12	654.016E-3	-17.8270E-3
3.61931E-3	138.596E-12	681.054E-3	-50.5865E-3	143.521E-12	669.747E-3	12.2252E-3
3.61431E-3	138.479E-12	691.896E-3	-12.3905E-3	142.670E-12	689.601E-3	23.7019E-3
3.60930E-3	139.983E-12	689.507E-3	7.62542E-3	142.010E-12	685.361E-3	19.2880E-3
3.60430E-3	139.199E-12	684.891E-3	-14.6236E-3	140.567E-12	665.362E-3	6.75775E-3
3.59930E-3	137.536E-12	684.943E-3	-25.0423E-3	139.585E-12	666.867E-3	-11.9334E-3
3.59430E-3	136.684E-12	665.751E-3	-22.8853E-3	138.259E-12	667.135E-3	-20.2124E-3
3.58929E-3	136.099E-12	647.486E-3	-11.0708E-3	137.412E-12	657.467E-3	-15.5095E-3
3.58429E-3	136.562E-12	665.358E-3	5.58721E-3	135.774E-12	666.978E-3	-3.39570E-3
3.57929E-3	136.089E-12	684.449E-3	7.95073E-3	134.808E-12	678.169E-3	1.83339E-3
3.57429E-3	135.360E-12	668.749E-3	-9.47232E-3	134.731E-12	679.617E-3	-5.35817E-3
3.56928E-3	134.605E-12	655.305E-3	-27.1039E-3	135.501E-12	693.610E-3	-11.4816E-3
3.56428E-3	135.852E-12	667.872E-3	-2.46571E-3	135.581E-12	692.050E-3	-10.5497E-3
3.55928E-3	136.556E-12	672.348E-3	21.2384E-3	136.152E-12	652.487E-3	2.07967E-3
3.55428E-3	136.033E-12	681.839E-3	-12.4811E-3	136.711E-12	640.326E-3	6.87279E-3
3.54927E-3	135.732E-12	703.926E-3	-42.8595E-3	137.872E-12	665.842E-3	-8.53505E-3
3.54427E-3	136.588E-12	700.080E-3	-20.0634E-3	138.092E-12	672.189E-3	-19.9939E-3
3.53927E-3	137.566E-12	677.324E-3	-5.27312E-3	137.965E-12	672.803E-3	-19.1994E-3
3.53427E-3	136.937E-12	667.127E-3	-19.3341E-3	137.590E-12	693.629E-3	-26.9048E-3
3.52926E-3	136.054E-12	676.047E-3	-33.4387E-3	138.115E-12	715.744E-3	-36.3669E-3
3.52426E-3	135.806E-12	688.940E-3	-25.8637E-3	137.650E-12	729.023E-3	-26.4655E-3
3.51926E-3	136.121E-12	678.744E-3	-13.4096E-3	136.162E-12	727.866E-3	-11.8023E-3
3.51426E-3	135.994E-12	658.438E-3	-28.7329E-3	134.157E-12	689.568E-3	-7.79245E-3
3.50925E-3	135.081E-12	660.821E-3	-43.2529E-3	133.341E-12	637.490E-3	-18.9185E-3
3.50425E-3	133.602E-12	674.176E-3	-32.7728E-3	133.160E-12	611.377E-3	-38.5614E-3
3.49925E-3	133.457E-12	682.620E-3	-16.4897E-3	131.681E-12	613.707E-3	-45.4045E-3
3.49425E-3	133.493E-12	674.547E-3	-23.4579E-3	129.690E-12	632.017E-3	-26.2935E-3
3.48924E-3	133.280E-12	648.396E-3	-28.3397E-3	128.832E-12	653.803E-3	7.44883E-3
3.48424E-3	132.674E-12	643.317E-3	-7.76242E-3	129.857E-12	664.967E-3	23.3301E-3
3.47924E-3	132.278E-12	671.228E-3	-8.50147E-3	130.472E-12	654.281E-3	4.94562E-3
3.47424E-3	133.220E-12	676.819E-3	-40.0537E-3	130.770E-12	656.855E-3	-20.5897E-3
3.46923E-3	134.384E-12	655.586E-3	-52.2414E-3	130.963E-12	681.505E-3	-26.9932E-3
3.46423E-3	134.010E-12	660.389E-3	-33.0464E-3	132.310E-12	690.055E-3	-12.0666E-3
3.45923E-3	133.446E-12	683.448E-3	-2.96625E-3	133.684E-12	700.385E-3	11.6230E-3
3.45423E-3	133.909E-12	691.803E-3	10.4835E-3	134.359E-12	718.363E-3	-1.24406E-3
3.44922E-3	134.891E-12	692.565E-3	-1.36190E-3	134.166E-12	717.226E-3	-36.8380E-3
3.44422E-3	134.464E-12	697.948E-3	-12.9666E-3	134.427E-12	700.093E-3	-39.0137E-3
3.43922E-3	133.272E-12	685.948E-3	-11.7889E-3	134.398E-12	690.403E-3	-30.8425E-3
3.43422E-3	131.629E-12	677.549E-3	6.91761E-3	134.048E-12	704.888E-3	-28.4470E-3
3.42921E-3	131.301E-12	693.755E-3	25.8209E-3	133.503E-12	711.423E-3	-24.8593E-3
3.42421E-3	131.399E-12	700.541E-3	8.28474E-3	132.605E-12	690.221E-3	-16.2476E-3
3.41921E-3	130.394E-12	685.299E-3	-28.3166E-3	131.701E-12	665.118E-3	459.743E-6
3.41421E-3	127.884E-12	668.216E-3	-40.0257E-3	130.183E-12	666.968E-3	4.31216E-3
3.40920E-3	127.516E-12	672.528E-3	-35.1808E-3	129.874E-12	677.527E-3	-12.1876E-3
3.40420E-3	127.653E-12	687.548E-3	-33.1237E-3	129.391E-12	667.511E-3	-29.6907E-3
3.39920E-3	127.802E-12	695.924E-3	-28.4819E-3	128.868E-12	664.905E-3	-26.3317E-3
3.39420E-3	126.661E-12	677.721E-3	-25.4730E-3	128.329E-12	674.920E-3	-11.8747E-3
3.38919E-3	126.502E-12	652.655E-3	-17.9963E-3	128.662E-12	675.798E-3	-7.89778E-3
3.38419E-3	127.074E-12	650.811E-3	-5.42605E-3	129.172E-12	685.836E-3	-12.9611E-3
3.37919E-3	128.264E-12	654.492E-3	-8.13667E-3	128.781E-12	696.905E-3	-20.2645E-3
3.37419E-3	128.309E-12	662.837E-3	-12.4025E-3	129.209E-12	684.593E-3	-22.4288E-3
3.36918E-3	128.196E-12	678.880E-3	-641.026E-6	129.027E-12	681.012E-3	-30.8542E-3
3.36418E-3	128.946E-12	687.242E-3	11.8251E-3	130.078E-12	683.358E-3	-38.9911E-3
3.35918E-3	129.713E-12	679.523E-3	15.2026E-3	129.429E-12	671.334E-3	-26.1135E-3
3.35418E-3	130.019E-12	673.677E-3	8.73023E-3	128.850E-12	666.327E-3	-16.5764E-3
3.34917E-3	129.333E-12	687.913E-3	-10.3042E-3	128.169E-12	681.799E-3	-18.8924E-3
3.34417E-3	128.558E-12	706.434E-3	-35.3668E-3	127.923E-12	690.182E-3	-24.2990E-3
3.33917E-3	127.953E-12	684.616E-3	-35.8270E-3	127.047E-12	696.693E-3	-42.9030E-3
3.33417E-3	127.311E-12	654.885E-3	-11.4736E-3	126.157E-12	698.642E-3	-50.2978E-3
3.32916E-3	127.319E-12	678.205E-3	210.920E-6	125.278E-12	658.488E-3	-29.7425E-3
3.32416E-3	125.787E-12	697.703E-3	-996.407E-6	124.223E-12	640.675E-3	-23.2694E-3
3.31916E-3	124.732E-12	662.047E-3	3.89873E-3	124.246E-12	677.230E-3	-34.0193E-3
3.31416E-3	124.242E-12	646.491E-3	-98.1614E-6	123.968E-12	689.941E-3	-19.8828E-3
3.30915E-3	124.212E-12	684.194E-3	-10.7698E-3	123.579E-12	661.351E-3	6.00319E-3
3.30415E-3	123.959E-12	707.177E-3	-14.0674E-3	123.009E-12	647.959E-3	4.56812E-3
3.29915E-3	123.731E-12	686.994E-3	-26.1306E-3	123.303E-12	656.415E-3	-9.69141E-3
3.29415E-3	124.473E-12	662.091E-3	-33.3724E-3	123.868E-12	665.545E-3	-14.1816E-3
3.28914E-3	124.936E-12	667.214E-3	-20.2599E-3	124.146E-12	671.974E-3	-12.7102E-3
3.28414E-3	124.950E-12	679.151E-3	-87.9425E-6	124.193E-12	671.400E-3	-17.6416E-3
3.27914E-3	124.631E-12	675.378E-3	-661.307E-6	123.630E-12	676.637E-3	-27.6521E-3
3.27414E-3	125.055E-12	682.718E-3	-15.6968E-3	123.923E-12	681.396E-3	-37.0885E-3
3.26913E-3	125.672E-12	686.658E-3	-19.4694E-3	124.037E-12	672.182E-3	-44.6114E-3
3.26413E-3	124.885E-12	670.100E-3	-28.0304E-3	123.884E-12	672.277E-3	-35.8810E-3
3.25913E-3	124.366E-12	676.227E-3	-35.1669E-3	123.048E-12	683.318E-3	-14.8330E-3
3.25413E-3	123.892E-12	694.176E-3	-21.6639E-3	122.444E-12	673.000E-3	-11.9542E-3
3.24912E-3	123.900E-12	684.054E-3	-8.80500E-3	122.896E-12	645.783E-3	-37.2668E-3
3.24412E-3	123.283E-12	663.622E-3	-14.8792E-3	122.397E-12	643.459E-3	-49.5139E-3
3.23912E-3	122.196E-12	661.274E-3	-20.7946E-3	121.773E-12	664.786E-3	-35.3857E-3
3.23412E-3	121.724E-12	687.857E-3	-10.4166E-3	120.453E-12	682.328E-3	-19.9745E-3
3.22911E-3	121.379E-12	709.096E-3	2.62723E-3	121.461E-12	694.457E-3	-405.859E-6
3.22411E-3	120.738E-12	681.284E-3	-65.8488E-6	122.341E-12	692.197E-3	-920.201E-6
3.21911E-3	119.973E-12	651.739E-3	-19.4587E-3	122.595E-12	671.967E-3	-16.3429E-3
3.21411E-3	119.959E-12	654.811E-3	-26.6731E-3	121.780E-12	664.516E-3	-10.7214E-3
3.20910E-3	119.788E-12	666.389E-3	-11.4772E-3	121.930E-12	674.507E-3	-6.41809E-3
3.20410E-3	120.068E-12	665.616E-3	1.46516E-3	123.863E-12	678.501E-3	-16.7267E-3
3.19910E-3	119.955E-12	664.035E-3	-8.72872E-3	124.138E-12	694.149E-3	-27.8009E-3
3.19410E-3	119.711E-12	675.197E-3	-28.1179E-3	123.685E-12	712.753E-3	-20.9069E-3
3.18909E-3	118.971E-12	671.564E-3	-40.0624E-3	122.040E-12	709.589E-3	-6.57283E-3
3.18409E-3	119.452E-12	661.641E-3	-38.5444E-3	122.099E-12	713.808E-3	-18.9364E-3
3.17909E-3	119.377E-12	667.787E-3	-16.4689E-3	122.020E-12	717.514E-3	-40.9714E-3
3.17409E-3	119.243E-12	680.615E-3	-3.34385E-3	120.884E-12	691.231E-3	-41.5604E-3
3.16908E-3	118.193E-12	682.437E-3	-7.31969E-3	118.965E-12	666.978E-3	-20.8516E-3
3.16408E-3	118.051E-12	676.756E-3	-9.77659E-3	117.672E-12	659.485E-3	1.68763E-3
3.15908E-3	118.097E-12	674.846E-3	-16.7068E-3	118.196E-12	650.165E-3	-1.33888E-3
3.15408E-3	117.922E-12	664.195E-3	-17.4826E-3	117.620E-12	650.129E-3	-19.6549E-3
3.14907E-3	117.438E-12	647.966E-3	-19.6204E-3	116.268E-12	651.832E-3	-18.4684E-3
3.14407E-3	117.077E-12	647.813E-3	-43.7848E-3	115.515E-12	648.130E-3	-6.00082E-3
3.13907E-3	117.096E-12	655.202E-3	-48.9378E-3	116.086E-12	656.454E-3	15.3438E-3
3.13407E-3	117.484E-12	665.147E-3	-33.4215E-3	116.631E-12	662.266E-3	25.6239E-3
3.12906E-3	117.518E-12	676.443E-3	-16.2007E-3	116.334E-12	668.562E-3	3.40731E-3
3.12406E-3	117.881E-12	681.043E-3	1.87397E-3	116.622E-12	685.019E-3	-14.0603E-3
3.11906E-3	117.228E-12	684.243E-3	-3.84925E-3	116.373E-12	696.150E-3	-17.5385E-3
3.11406E-3	117.859E-12	681.224E-3	-11.0338E-3	117.637E-12	707.530E-3	-20.9187E-3
3.10905E-3	118.034E-12	678.285E-3	-7.66187E-3	117.724E-12	708.510E-3	-9.18522E-3
3.10405E-3	117.849E-12	693.041E-3	-11.9851E-3	117.281E-12	690.875E-3	7.91967E-3
3.09905E-3	117.008E-12	706.641E-3	-2.38921E-3	116.629E-12	680.320E-3	2.34372E-3
3.09405E-3	116.793E-12	707.116E-3	12.1430E-3	116.569E-12	675.156E-3	-18.4367E-3
3.08904E-3	116.379E-12	709.489E-3	-1.70592E-3	116.368E-12	670.111E-3	-31.9157E-3
3.08404E-3	115.657E-12	714.499E-3	-8.15152E-3	115.287E-12	659.406E-3	-28.7968E-3
3.07904E-3	114.719E-12	711.823E-3	6.35785E-3	113.611E-12	629.788E-3	-14.3585E-3
3.07404E-3	114.316E-12	708.944E-3	920.000E-6	113.160E-12	621.865E-3	7.33690E-3
3.06903E-3	113.988E-12	696.683E-3	-26.2734E-3	112.865E-12	644.118E-3	12.8482E-3
3.06403E-3	113.386E-12	674.375E-3	-28.0931E-3	112.234E-12	664.209E-3	-18.4681E-3
3.05903E-3	112.606E-12	659.534E-3	-2.12190E-3	111.374E-12	683.673E-3	-36.8646E-3
3.05403E-3	112.782E-12	654.721E-3	19.4582E-3	111.710E-12	689.727E-3	-26.6290E-3
3.04902E-3	113.111E-12	667.103E-3	20.6602E-3	111.885E-12	674.051E-3	-20.9050E-3
3.04402E-3	113.375E-12	685.569E-3	-14.6957E-3	112.658E-12	678.595E-3	-12.9140E-3
3.03902E-3	113.108E-12	684.957E-3	-43.3411E-3	112.696E-12	707.549E-3	-4.78858E-3
3.03402E-3	113.549E-12	684.303E-3	-36.8951E-3	113.416E-12	707.706E-3	3.70267E-3
3.02901E-3	113.817E-12	698.869E-3	-11.4740E-3	113.992E-12	679.661E-3	21.4046E-3
3.02401E-3	114.291E-12	709.455E-3	5.29194E-3	114.891E-12	667.993E-3	19.9130E-3
3.01901E-3	113.554E-12	717.493E-3	-4.22641E-3	114.725E-12	682.437E-3	-4.13234E-3
3.01401E-3	112.898E-12	707.696E-3	-16.5093E-3	114.859E-12	692.202E-3	-18.4288E-3
3.00900E-3	112.645E-12	684.481E-3	-30.8883E-3	114.563E-12	683.511E-3	-20.3665E-3
3.00400E-3	112.726E-12	684.707E-3	-25.1531E-3	114.717E-12	672.781E-3	-22.8741E-3
2.99900E-3	111.484E-12	702.881E-3	-1.37590E-3	113.940E-12	668.650E-3	-23.6584E-3
2.99400E-3	109.735E-12	699.493E-3	-7.95267E-3	112.910E-12	681.312E-3	-7.47886E-3
2.98899E-3	109.267E-12	685.329E-3	-38.8421E-3	112.232E-12	694.938E-3	11.1553E-3
2.98399E-3	109.212E-12	683.560E-3	-39.8001E-3	111.578E-12	687.528E-3	3.46259E-3
2.97899E-3	108.526E-12	674.788E-3	-16.5052E-3	110.689E-12	681.159E-3	-3.70667E-3
2.97399E-3	106.691E-12	674.095E-3	-23.2185E-3	110.222E-12	680.494E-3	-5.89227E-3
2.96898E-3	106.088E-12	675.557E-3	-46.1524E-3	109.451E-12	675.588E-3	-22.7357E-3
2.96398E-3	106.477E-12	661.630E-3	-60.9499E-3	109.281E-12	677.715E-3	-30.7272E-3
2.95898E-3	107.165E-12	655.350E-3	-67.4361E-3	109.026E-12	685.813E-3	-24.8557E-3
2.95398E-3	106.824E-12	670.606E-3	-43.2475E-3	108.862E-12	690.058E-3	-17.8333E-3
2.94897E-3	106.998E-12	694.862E-3	-21.3393E-3	108.389E-12	695.753E-3	-16.2827E-3
2.94397E-3	107.817E-12	697.116E-3	-38.0177E-3	109.140E-12	693.995E-3	-29.0761E-3
2.93897E-3	108.975E-12	673.118E-3	-31.5684E-3	109.518E-12	679.769E-3	-28.8385E-3
2.93397E-3	109.489E-12	653.119E-3	175.964E-6	109.531E-12	673.947E-3	-9.50323E-3
2.92896E-3	109.284E-12	667.280E-3	-3.27686E-3	108.611E-12	681.838E-3	-12.6204E-3
2.92396E-3	109.530E-12	698.988E-3	-21.9297E-3	108.497E-12	687.417E-3	-25.5881E-3
2.91896E-3	109.190E-12	703.583E-3	-20.9500E-3	108.887E-12	679.447E-3	-24.0579E-3
2.91396E-3	108.792E-12	680.533E-3	-14.6670E-3	108.610E-12	663.488E-3	-15.4913E-3
2.90895E-3	108.114E-12	674.031E-3	-9.92754E-3	107.011E-12	648.718E-3	6.14271E-3
2.90395E-3	107.769E-12	691.306E-3	352.460E-6	105.569E-12	652.087E-3	12.7931E-3
2.89895E-3	107.039E-12	710.061E-3	1.44613E-3	105.697E-12	665.641E-3	-14.0288E-3
2.89395E-3	106.819E-12	714.432E-3	-21.2917E-3	105.933E-12	667.276E-3	-31.1897E-3
2.88894E-3	106.497E-12	701.218E-3	-33.3054E-3	105.118E-12	673.994E-3	-30.9803E-3
2.88394E-3	105.783E-12	691.112E-3	-21.4371E-3	103.646E-12	680.635E-3	-32.8192E-3
2.87894E-3	105.516E-12	685.259E-3	-21.3519E-3	103.404E-12	670.880E-3	-36.0481E-3
2.87394E-3	105.081E-12	692.073E-3	-16.0919E-3	104.154E-12	670.405E-3	-31.0208E-3
2.86893E-3	105.571E-12	711.686E-3	-2.17186E-3	104.524E-12	688.735E-3	-18.5719E-3
2.86393E-3	105.475E-12	711.912E-3	-9.85988E-3	103.738E-12	707.905E-3	-10.8958E-3
2.85893E-3	105.834E-12	694.775E-3	-3.15457E-3	103.122E-12	708.903E-3	-6.92900E-3
2.85393E-3	105.966E-12	689.557E-3	21.1259E-3	103.592E-12	693.546E-3	-2.47651E-3
2.84892E-3	106.515E-12	700.827E-3	19.6161E-3	104.401E-12	680.030E-3	-2.71589E-3
2.84392E-3	106.427E-12	712.528E-3	17.0440E-3	104.170E-12	683.832E-3	-9.03932E-3
2.83892E-3	106.210E-12	712.381E-3	19.6148E-3	103.483E-12	707.025E-3	-7.15857E-3
2.83392E-3	106.280E-12	710.987E-3	6.82416E-3	102.943E-12	718.956E-3	995.850E-6
2.82891E-3	106.045E-12	708.123E-3	-6.87842E-3	103.846E-12	703.729E-3	2.97192E-3
2.82391E-3	105.325E-12	701.818E-3	-13.9416E-3	103.956E-12	682.830E-3	-4.88948E-3
2.81891E-3	104.238E-12	705.312E-3	-17.4181E-3	103.341E-12	670.627E-3	-26.3729E-3
2.81391E-3	103.962E-12	701.751E-3	-10.2991E-3	102.800E-12	675.638E-3	-31.7533E-3
2.80890E-3	103.457E-12	682.588E-3	-1.27820E-3	102.298E-12	697.765E-3	-4.26440E-3
2.80390E-3	102.536E-12	673.701E-3	-4.88083E-3	102.973E-12	710.177E-3	16.4899E-3
2.79890E-3	101.609E-12	692.618E-3	-5.18736E-3	102.481E-12	703.713E-3	12.0281E-3
2.79390E-3	101.601E-12	710.851E-3	-13.6506E-3	101.770E-12	698.761E-3	6.83760E-3
2.78889E-3	101.763E-12	702.837E-3	-28.7735E-3	101.414E-12	697.856E-3	5.08019E-3
2.78389E-3	100.981E-12	690.677E-3	-21.5504E-3	101.906E-12	692.200E-3	-5.91438E-3
2.77889E-3	100.699E-12	686.182E-3	-11.2230E-3	102.385E-12	694.384E-3	-18.5667E-3
2.77389E-3	100.605E-12	692.647E-3	-17.2744E-3	101.303E-12	701.067E-3	-27.9583E-3
2.76888E-3	100.844E-12	707.985E-3	-28.8217E-3	101.193E-12	702.347E-3	-28.0584E-3
2.76388E-3	100.643E-12	704.220E-3	-44.7872E-3	101.318E-12	701.476E-3	-17.5205E-3
2.75888E-3	100.093E-12	689.312E-3	-50.1661E-3	101.997E-12	697.563E-3	-11.8660E-3
2.75388E-3	100.211E-12	693.019E-3	-33.1447E-3	100.928E-12	699.669E-3	-11.3561E-3
2.74887E-3	100.069E-12	700.926E-3	-17.8124E-3	100.678E-12	698.884E-3	-17.0355E-3
2.74387E-3	99.3603E-12	697.989E-3	-18.6589E-3	100.141E-12	700.664E-3	-28.8276E-3
2.73887E-3	99.0360E-12	693.476E-3	-24.8402E-3	99.6882E-12	715.797E-3	-31.1456E-3
2.73387E-3	98.7906E-12	689.563E-3	-21.4669E-3	98.9963E-12	708.195E-3	-24.2166E-3
2.72886E-3	98.1923E-12	686.319E-3	-18.1386E-3	98.3662E-12	687.616E-3	-26.6946E-3
2.72386E-3	97.9425E-12	694.960E-3	-31.5110E-3	97.8127E-12	681.238E-3	-43.6661E-3
2.71886E-3	97.6193E-12	694.070E-3	-45.2564E-3	96.9101E-12	683.365E-3	-52.7565E-3
2.71386E-3	97.6469E-12	673.129E-3	-45.3516E-3	96.7167E-12	691.610E-3	-46.0644E-3
2.70885E-3	97.5551E-12	677.998E-3	-48.8603E-3	96.6943E-12	695.079E-3	-44.6279E-3
2.70385E-3	97.5289E-12	700.631E-3	-42.8486E-3	96.4571E-12	703.386E-3	-42.5599E-3
2.69885E-3	97.1202E-12	707.660E-3	-23.8064E-3	96.2423E-12	708.911E-3	-21.0285E-3
2.69385E-3	97.6945E-12	699.704E-3	-28.2933E-3	96.3522E-12	692.701E-3	-11.9672E-3
2.68884E-3	97.9069E-12	688.142E-3	-33.1743E-3	96.7205E-12	681.543E-3	-26.9657E-3
2.68384E-3	97.3925E-12	688.403E-3	-12.2855E-3	96.1447E-12	692.157E-3	-22.4074E-3
2.67884E-3	97.2926E-12	693.125E-3	3.04645E-3	96.0088E-12	712.237E-3	-9.83838E-3
2.67384E-3	97.7587E-12	697.183E-3	-319.597E-6	95.7220E-12	712.722E-3	-20.8881E-3
2.66883E-3	97.4895E-12	697.659E-3	-15.8862E-3	96.2694E-12	697.225E-3	-38.1183E-3
2.66383E-3	97.1087E-12	700.621E-3	-36.9522E-3	95.2088E-12	698.411E-3	-35.6524E-3
2.65883E-3	96.1444E-12	717.373E-3	-43.6641E-3	94.4705E-12	704.860E-3	-16.9164E-3
2.65383E-3	95.8471E-12	718.610E-3	-22.5635E-3	93.7252E-12	693.741E-3	-1.34343E-3
2.64882E-3	95.9547E-12	711.646E-3	2.55425E-3	93.7301E-12	674.972E-3	2.64132E-3
2.64382E-3	95.4787E-12	721.010E-3	-6.44311E-3	93.5664E-12	671.062E-3	-12.3436E-3
2.63882E-3	94.1297E-12	711.967E-3	-25.7203E-3	92.5134E-12	682.124E-3	-18.1585E-3
2.63382E-3	93.5984E-12	685.279E-3	-23.6806E-3	91.7689E-12	689.836E-3	-8.22158E-3
2.62881E-3	93.9948E-12	675.219E-3	-19.4426E-3	91.4306E-12	690.473E-3	-17.8188E-3
2.62381E-3	94.5146E-12	688.379E-3	-6.68308E-3	91.8318E-12	700.876E-3	-37.0147E-3
2.61881E-3	93.4747E-12	712.970E-3	9.22595E-3	91.9574E-12	713.745E-3	-45.0014E-3
2.61381E-3	93.3733E-12	722.882E-3	12.0012E-3	91.3220E-12	714.745E-3	-40.3368E-3
2.60880E-3	93.7474E-12	713.768E-3	9.14492E-3	91.5189E-12	719.513E-3	-21.7327E-3
2.60380E-3	93.9679E-12	712.491E-3	4.59459E-3	92.2524E-12	723.242E-3	-5.96360E-3
2.59880E-3	93.3743E-12	724.760E-3	4.11843E-3	93.1895E-12	718.961E-3	-14.0633E-3
2.59380E-3	93.2718E-12	741.062E-3	3.46837E-3	92.9465E-12	709.160E-3	-33.5373E-3
2.58879E-3	92.8740E-12	752.504E-3	-10.1902E-3	93.0501E-12	701.576E-3	-38.8249E-3
2.58379E-3	92.9834E-12	737.562E-3	-18.0889E-3	93.6200E-12	698.462E-3	-37.0543E-3
2.57879E-3	92.4729E-12	701.763E-3	-7.74003E-3	93.8047E-12	706.698E-3	-38.4738E-3
2.57379E-3	91.5802E-12	686.383E-3	-6.76669E-3	92.9541E-12	733.354E-3	-27.8020E-3
2.56878E-3	90.5510E-12	702.772E-3	-11.7344E-3	92.3825E-12	741.989E-3	-3.73874E-3
2.56378E-3	90.2896E-12	711.204E-3	-9.13830E-3	91.8745E-12	724.248E-3	21.4771E-3
2.55878E-3	89.8148E-12	697.422E-3	-19.0105E-3	91.4619E-12	711.458E-3	38.2365E-3
2.55378E-3	89.3583E-12	699.635E-3	-33.7487E-3	90.7120E-12	718.226E-3	32.5804E-3
2.54877E-3	88.2253E-12	718.404E-3	-24.8545E-3	89.7795E-12	711.520E-3	2.89762E-3
2.54377E-3	88.1552E-12	711.188E-3	-1.80204E-3	89.2163E-12	691.283E-3	-19.0724E-3
2.53877E-3	88.9358E-12	684.005E-3	14.7868E-3	88.7773E-12	701.502E-3	-13.1912E-3
2.53377E-3	88.5962E-12	680.166E-3	23.9413E-3	88.5871E-12	715.414E-3	-4.23275E-3
2.52876E-3	87.6583E-12	694.693E-3	20.2510E-3	88.4310E-12	704.937E-3	-17.0241E-3
2.52376E-3	87.9033E-12	706.718E-3	-485.264E-6	88.2200E-12	702.822E-3	-31.3291E-3
2.51876E-3	89.1025E-12	705.224E-3	-18.3522E-3	88.2558E-12	708.619E-3	-27.9001E-3
2.51376E-3	89.4035E-12	696.950E-3	-28.8415E-3	87.7521E-12	719.097E-3	-16.1897E-3
2.50875E-3	88.3630E-12	699.772E-3	-49.9169E-3	88.2464E-12	737.825E-3	-6.41904E-3
2.50375E-3	87.9244E-12	702.037E-3	-56.7812E-3	88.0732E-12	741.321E-3	-6.57915E-3
2.49875E-3	88.7916E-12	705.790E-3	-30.4048E-3	87.9746E-12	728.199E-3	-13.8766E-3
2.49375E-3	89.3008E-12	722.581E-3	-7.34194E-3	87.7237E-12	719.079E-3	-25.4292E-3
2.48874E-3	88.6680E-12	734.673E-3	-11.4034E-3	87.9098E-12	718.337E-3	-33.8573E-3
2.48374E-3	87.2377E-12	730.240E-3	-15.8341E-3	87.4759E-12	718.725E-3	-26.3704E-3
2.47874E-3	86.7191E-12	716.492E-3	-12.2111E-3	86.9766E-12	712.109E-3	-11.1457E-3
2.47374E-3	87.6148E-12	712.976E-3	-9.50956E-3	86.6830E-12	698.228E-3	-9.18045E-3
2.46873E-3	87.0135E-12	720.171E-3	328.221E-6	85.8849E-12	680.048E-3	-19.5496E-3
2.46373E-3	86.0794E-12	717.942E-3	-1.46019E-3	85.5564E-12	663.201E-3	-19.9737E-3
2.45873E-3	84.8925E-12	711.474E-3	-10.2430E-3	84.8181E-12	670.991E-3	-12.6292E-3
2.45373E-3	85.3181E-12	701.579E-3	-7.32071E-3	84.4418E-12	692.340E-3	-11.1221E-3
2.44872E-3	85.5882E-12	698.883E-3	-15.5205E-3	83.8759E-12	698.397E-3	-8.45204E-3
2.44372E-3	85.3005E-12	715.013E-3	-38.1780E-3	83.2642E-12	696.494E-3	-3.75676E-3
2.43872E-3	84.4147E-12	723.996E-3	-39.2423E-3	83.3218E-12	696.043E-3	-8.40441E-3
2.43372E-3	84.3529E-12	720.491E-3	-22.2900E-3	83.5077E-12	700.270E-3	-23.4380E-3
2.42871E-3	85.5663E-12	724.022E-3	-10.9483E-3	83.8391E-12	702.036E-3	-32.1694E-3
2.42371E-3	85.7748E-12	727.583E-3	9.16477E-3	83.4386E-12	702.452E-3	-37.2235E-3
2.41871E-3	85.1526E-12	731.772E-3	24.8204E-3	83.8312E-12	724.770E-3	-44.0143E-3
2.41371E-3	84.4977E-12	745.456E-3	721.400E-6	83.7996E-12	754.892E-3	-40.2306E-3
2.40870E-3	84.8310E-12	747.221E-3	-27.0512E-3	84.3791E-12	763.333E-3	-35.0952E-3
2.40370E-3	84.2366E-12	729.258E-3	-28.2626E-3	84.1224E-12	756.244E-3	-25.6918E-3
2.39870E-3	84.1005E-12	720.581E-3	-17.5333E-3	83.9647E-12	753.137E-3	-10.9838E-3
2.39370E-3	83.1560E-12	729.517E-3	-12.5131E-3	83.4181E-12	740.703E-3	-21.1609E-3
2.38869E-3	82.3780E-12	725.608E-3	-37.0905E-3	83.4936E-12	717.947E-3	-44.4308E-3
2.38369E-3	81.9939E-12	719.635E-3	-57.9748E-3	83.4804E-12	714.790E-3	-38.6265E-3
2.37869E-3	81.5790E-12	723.364E-3	-37.7418E-3	82.8363E-12	729.390E-3	-21.6709E-3
2.37369E-3	80.9849E-12	724.572E-3	-12.2004E-3	82.6322E-12	734.018E-3	-32.4232E-3
2.36868E-3	80.2536E-12	743.382E-3	-11.1811E-3	82.5020E-12	732.885E-3	-34.7877E-3
2.36368E-3	80.1477E-12	753.810E-3	-12.6227E-3	82.8186E-12	740.569E-3	-14.9825E-3
2.35868E-3	79.9730E-12	722.029E-3	-6.60361E-3	81.7194E-12	742.518E-3	-10.9936E-3
2.35368E-3	79.8738E-12	692.781E-3	-4.11604E-3	81.7900E-12	726.103E-3	-16.4014E-3
2.34867E-3	79.2251E-12	710.845E-3	-2.94059E-3	81.4214E-12	712.578E-3	-23.0531E-3
2.34367E-3	79.3791E-12	738.276E-3	1.99356E-3	81.5243E-12	723.622E-3	-35.1490E-3
2.33867E-3	79.4622E-12	735.197E-3	4.10704E-3	80.7777E-12	738.905E-3	-35.8863E-3
2.33367E-3	79.5956E-12	723.790E-3	1.22156E-3	80.1071E-12	734.345E-3	-22.1735E-3
2.32866E-3	79.1825E-12	714.429E-3	6.01853E-3	79.9408E-12	719.381E-3	-15.6800E-3
2.32366E-3	79.0366E-12	707.811E-3	13.6254E-3	79.5136E-12	710.126E-3	-22.1119E-3
2.31866E-3	79.2828E-12	716.465E-3	12.3452E-3	79.1171E-12	704.428E-3	-37.9021E-3
2.31366E-3	78.5606E-12	734.091E-3	773.848E-6	78.2272E-12	709.525E-3	-41.1887E-3
2.30865E-3	77.8879E-12	734.858E-3	-18.8106E-3	78.1867E-12	723.614E-3	-15.7234E-3
2.30365E-3	77.5751E-12	722.725E-3	-23.4376E-3	77.8890E-12	732.504E-3	-7.41865E-3
2.29865E-3	77.8399E-12	721.324E-3	-15.1047E-3	77.4519E-12	730.001E-3	-18.5367E-3
2.29365E-3	77.4183E-12	726.050E-3	-26.0270E-3	76.9565E-12	721.132E-3	-20.7267E-3
2.28864E-3	76.8334E-12	728.276E-3	-43.8653E-3	76.0139E-12	725.523E-3	-27.3186E-3
2.28364E-3	76.6695E-12	727.033E-3	-38.6038E-3	76.0481E-12	729.597E-3	-35.9120E-3
2.27864E-3	76.9495E-12	712.165E-3	-13.6771E-3	75.7252E-12	714.330E-3	-21.9312E-3
2.27364E-3	76.6763E-12	707.123E-3	7.44821E-3	75.4936E-12	709.428E-3	-8.52032E-3
2.26863E-3	76.4885E-12	734.598E-3	2.53543E-3	74.6491E-12	722.748E-3	-22.9380E-3
2.26363E-3	76.3499E-12	754.681E-3	-9.29348E-3	74.5903E-12	733.355E-3	-35.6279E-3
2.25863E-3	76.5249E-12	758.597E-3	-12.1400E-3	75.1539E-12	734.247E-3	-28.3909E-3
2.25363E-3	76.2580E-12	770.252E-3	-14.9871E-3	75.2841E-12	736.431E-3	-16.0120E-3
2.24862E-3	76.3767E-12	769.463E-3	-20.7222E-3	74.7771E-12	743.579E-3	-19.7046E-3
2.24362E-3	76.1600E-12	753.197E-3	-38.4627E-3	74.1084E-12	743.835E-3	-21.9881E-3
2.23862E-3	76.0091E-12	748.742E-3	-54.6830E-3	74.4011E-12	743.255E-3	-7.11095E-3
2.23362E-3	75.4860E-12	760.367E-3	-49.0251E-3	74.6829E-12	742.578E-3	-9.45650E-3
2.22861E-3	75.2674E-12	769.513E-3	-26.3327E-3	74.1798E-12	734.520E-3	-18.0286E-3
2.22361E-3	74.5573E-12	753.175E-3	-832.067E-6	73.4044E-12	735.111E-3	-8.09830E-3
2.21861E-3	74.4192E-12	734.763E-3	1.65763E-3	73.0922E-12	749.175E-3	-1.46728E-3
2.21361E-3	74.0159E-12	744.421E-3	-17.7317E-3	73.1649E-12	760.312E-3	1.38947E-3
2.20860E-3	73.4571E-12	754.213E-3	-26.5910E-3	73.1504E-12	761.673E-3	-8.84440E-3
2.20360E-3	72.9256E-12	746.202E-3	-24.8388E-3	72.7921E-12	744.958E-3	-23.9180E-3
2.19860E-3	72.7837E-12	741.090E-3	-21.6905E-3	72.3107E-12	736.510E-3	-11.9407E-3
2.19360E-3	73.0700E-12	754.169E-3	-16.1841E-3	72.1791E-12	753.551E-3	2.34797E-3
2.18859E-3	72.8982E-12	769.923E-3	-7.06897E-3	72.5559E-12	772.224E-3	-3.25125E-3
2.18359E-3	72.0651E-12	764.640E-3	-4.82145E-3	72.5054E-12	792.928E-3	-8.22567E-3
2.17859E-3	72.0117E-12	749.667E-3	-15.4480E-3	72.6946E-12	804.367E-3	-1.27592E-3
2.17359E-3	72.3633E-12	749.428E-3	-9.31936E-3	72.4332E-12	786.550E-3	-558.384E-6
2.16858E-3	72.2097E-12	761.665E-3	-9.03343E-6	72.6753E-12	763.291E-3	-7.50487E-3
2.16358E-3	71.6070E-12	778.397E-3	-15.0794E-3	72.8392E-12	767.658E-3	-11.7427E-3
2.15858E-3	71.2859E-12	782.309E-3	-24.2886E-3	72.7905E-12	789.252E-3	-17.1329E-3
2.15358E-3	71.4227E-12	759.944E-3	-19.8316E-3	72.4082E-12	797.026E-3	-10.6900E-3
2.14857E-3	70.8723E-12	740.725E-3	-16.9551E-3	72.2251E-12	791.019E-3	-5.63416E-3
2.14357E-3	69.8144E-12	745.435E-3	-7.78690E-3	72.1713E-12	782.850E-3	-14.8275E-3
2.13857E-3	69.3315E-12	753.910E-3	-3.29918E-3	71.7722E-12	780.153E-3	-21.9033E-3
2.13357E-3	68.9107E-12	753.483E-3	-13.0692E-3	70.8970E-12	786.443E-3	-33.7450E-3
2.12856E-3	68.5269E-12	747.008E-3	-15.2799E-3	69.9307E-12	783.416E-3	-36.5617E-3
2.12356E-3	68.0452E-12	747.402E-3	-8.47527E-3	69.7258E-12	767.429E-3	-20.0669E-3
2.11856E-3	67.5723E-12	761.602E-3	-17.7940E-3	69.3535E-12	765.021E-3	-7.89506E-3
2.11356E-3	67.4708E-12	778.645E-3	-28.5394E-3	68.7353E-12	777.443E-3	-2.37041E-3
2.10855E-3	67.6679E-12	776.567E-3	-17.8578E-3	68.0696E-12	781.059E-3	6.34260E-3
2.10355E-3	67.6199E-12	753.762E-3	-3.88370E-3	67.6804E-12	774.624E-3	6.66495E-3
2.09855E-3	67.4835E-12	755.029E-3	-1.12415E-3	67.5714E-12	774.081E-3	-15.2997E-3
2.09355E-3	67.5407E-12	778.737E-3	-15.2870E-3	67.1549E-12	773.429E-3	-31.0265E-3
2.08854E-3	67.2373E-12	795.050E-3	-32.6408E-3	66.9587E-12	771.346E-3	-22.3347E-3
2.08354E-3	67.6103E-12	794.458E-3	-39.0756E-3	66.6386E-12	790.575E-3	-10.9494E-3
2.07854E-3	67.3046E-12	783.646E-3	-35.5460E-3	66.7874E-12	798.940E-3	-6.11776E-3
2.07354E-3	67.1733E-12	793.434E-3	-20.7189E-3	66.6363E-12	778.752E-3	7.05333E-3
2.06853E-3	66.5809E-12	814.720E-3	-4.86863E-3	66.6274E-12	778.796E-3	19.2419E-3
2.06353E-3	66.7610E-12	815.616E-3	-2.54634E-3	66.4113E-12	792.314E-3	6.57149E-3
2.05853E-3	66.5271E-12	797.504E-3	-8.22271E-3	66.3928E-12	798.510E-3	-10.2581E-3
2.05353E-3	65.6457E-12	774.972E-3	-5.59454E-3	66.2004E-12	810.075E-3	-19.1386E-3
2.04852E-3	65.2270E-12	770.975E-3	9.67975E-3	65.8097E-12	808.284E-3	-33.0358E-3
2.04352E-3	64.4858E-12	796.221E-3	8.46153E-3	65.6289E-12	794.185E-3	-48.5622E-3
2.03852E-3	64.2613E-12	821.139E-3	-10.8127E-3	65.2393E-12	800.844E-3	-52.1424E-3
2.03352E-3	63.5530E-12	815.667E-3	-11.1246E-3	64.5535E-12	818.115E-3	-40.2675E-3
2.02851E-3	63.5070E-12	783.246E-3	885.672E-6	64.0000E-12	818.655E-3	-28.3191E-3
2.02351E-3	63.0517E-12	773.571E-3	5.76034E-3	63.5283E-12	797.380E-3	-18.4203E-3
2.01851E-3	62.6927E-12	785.472E-3	5.47555E-3	63.0629E-12	787.111E-3	-16.3842E-3
2.01351E-3	63.0150E-12	781.488E-3	-6.63746E-3	62.5291E-12	798.370E-3	-21.8522E-3
2.00850E-3	63.1049E-12	783.676E-3	-26.2791E-3	62.5372E-12	800.151E-3	-9.77358E-3
2.00350E-3	63.0282E-12	789.505E-3	-23.8981E-3	62.5324E-12	790.008E-3	4.96043E-3
1.99850E-3	62.5090E-12	779.844E-3	-11.5314E-3	62.1899E-12	792.903E-3	-4.03713E-3
1.99350E-3	62.9233E-12	779.930E-3	-14.4186E-3	62.1231E-12	812.387E-3	-18.1917E-3
1.98849E-3	62.8957E-12	801.496E-3	-12.6789E-3	62.0494E-12	830.826E-3	-20.9122E-3
1.98349E-3	62.5579E-12	823.149E-3	-10.0333E-3	62.0916E-12	840.733E-3	-20.6392E-3
1.97849E-3	61.9934E-12	832.818E-3	-16.5544E-3	61.6730E-12	843.293E-3	-18.9260E-3
1.97349E-3	61.9482E-12	826.608E-3	-13.3144E-3	61.6794E-12	844.414E-3	-13.0095E-3
1.96848E-3	61.4397E-12	820.341E-3	-9.68971E-3	61.8163E-12	839.546E-3	-14.5857E-3
1.96348E-3	60.8314E-12	827.414E-3	-23.5554E-3	61.7971E-12	845.328E-3	-31.2249E-3
1.95848E-3	60.1113E-12	828.106E-3	-33.7741E-3	61.3980E-12	870.010E-3	-42.7782E-3
1.95348E-3	59.8513E-12	810.117E-3	-24.2949E-3	61.0577E-12	866.914E-3	-33.1686E-3
1.94847E-3	59.6664E-12	806.884E-3	-9.59351E-3	60.9188E-12	845.113E-3	-25.1277E-3
1.94347E-3	58.9007E-12	836.622E-3	7.60947E-3	60.6818E-12	849.954E-3	-30.4424E-3
1.93847E-3	58.3162E-12	851.484E-3	11.5289E-3	60.0573E-12	863.961E-3	-26.5225E-3
1.93347E-3	58.1948E-12	838.164E-3	-21.0183E-3	59.3367E-12	868.934E-3	-8.52707E-3
1.92846E-3	58.1071E-12	834.942E-3	-50.3491E-3	59.1402E-12	857.868E-3	6.33745E-3
1.92346E-3	57.9838E-12	833.643E-3	-44.7560E-3	58.8635E-12	841.111E-3	8.82724E-3
1.91846E-3	57.4547E-12	831.186E-3	-32.4115E-3	58.2578E-12	847.590E-3	-1.95439E-3
1.91346E-3	57.5005E-12	838.368E-3	-27.1419E-3	57.3759E-12	855.334E-3	-17.4872E-3
1.90845E-3	57.4392E-12	826.988E-3	-21.0502E-3	57.1450E-12	840.509E-3	-24.9942E-3
1.90345E-3	57.8434E-12	810.733E-3	-16.4958E-3	57.2976E-12	820.420E-3	-21.1102E-3
1.89845E-3	57.3396E-12	818.889E-3	-8.59831E-3	57.0462E-12	813.580E-3	-16.8460E-3
1.89345E-3	57.2049E-12	826.120E-3	-2.08726E-3	56.4207E-12	825.741E-3	-20.9492E-3
1.88844E-3	56.8175E-12	830.138E-3	-17.5440E-3	55.8143E-12	845.533E-3	-22.0198E-3
1.88344E-3	56.9049E-12	842.984E-3	-34.8550E-3	55.9962E-12	862.945E-3	-17.0031E-3
1.87844E-3	56.6095E-12	845.218E-3	-21.7292E-3	55.8772E-12	870.115E-3	-19.0859E-3
1.87344E-3	56.1806E-12	855.139E-3	-1.33282E-3	55.4345E-12	863.566E-3	-15.5575E-3
1.86843E-3	55.7565E-12	889.797E-3	-7.46840E-3	54.9832E-12	862.847E-3	-2.20040E-3
1.86343E-3	55.3157E-12	907.160E-3	-29.0786E-3	54.9379E-12	871.603E-3	-6.87244E-3
1.85843E-3	55.2317E-12	888.850E-3	-38.8526E-3	54.6611E-12	873.894E-3	-13.9237E-3
1.85343E-3	54.8013E-12	871.142E-3	-26.5823E-3	54.4594E-12	877.988E-3	-3.69863E-3
1.84842E-3	54.4042E-12	869.865E-3	-2.26836E-3	53.9693E-12	887.672E-3	4.15157E-3
1.84342E-3	53.9413E-12	861.610E-3	11.2090E-3	53.7255E-12	895.043E-3	-4.89747E-3
1.83842E-3	54.0630E-12	859.073E-3	-138.995E-6	53.3683E-12	906.852E-3	-17.3799E-3
1.83342E-3	53.8916E-12	875.335E-3	-16.1886E-3	53.2162E-12	916.882E-3	-13.4606E-3
1.82841E-3	53.6092E-12	881.546E-3	-26.3124E-3	53.0483E-12	914.042E-3	-12.9120E-3
1.82341E-3	53.1972E-12	879.778E-3	-34.9980E-3	52.8858E-12	908.026E-3	-26.3154E-3
1.81841E-3	52.8971E-12	884.494E-3	-22.1034E-3	52.4747E-12	904.114E-3	-28.1106E-3
1.81341E-3	52.7038E-12	886.195E-3	-14.6566E-3	52.2286E-12	899.503E-3	-18.6416E-3
1.80840E-3	52.2035E-12	886.996E-3	-36.7599E-3	51.8894E-12	902.571E-3	-13.9498E-3
1.80340E-3	51.8079E-12	888.828E-3	-35.2178E-3	51.7271E-12	912.122E-3	-13.1654E-3
1.79840E-3	51.4944E-12	883.731E-3	-4.98959E-3	51.1486E-12	906.117E-3	-20.7820E-3
1.79340E-3	51.2551E-12	883.891E-3	2.45864E-3	51.0863E-12	897.373E-3	-35.4498E-3
1.78839E-3	50.5857E-12	900.080E-3	-10.3703E-3	50.5641E-12	914.069E-3	-35.0351E-3
1.78339E-3	50.2864E-12	910.247E-3	-31.4068E-3	50.1512E-12	931.577E-3	-24.9676E-3
1.77839E-3	50.0858E-12	904.481E-3	-50.3529E-3	50.0395E-12	938.041E-3	-12.7742E-3
1.77339E-3	49.7065E-12	911.756E-3	-39.0827E-3	49.8732E-12	941.432E-3	6.28861E-3
1.76838E-3	48.9781E-12	919.820E-3	-13.9606E-3	49.4005E-12	937.523E-3	14.3389E-3
1.76338E-3	48.7163E-12	912.206E-3	-7.22578E-3	48.9571E-12	934.625E-3	11.0828E-3
1.75838E-3	48.7834E-12	906.836E-3	-13.8297E-3	48.7826E-12	937.845E-3	-847.211E-6
1.75338E-3	48.5423E-12	907.558E-3	-13.5997E-3	48.7826E-12	949.042E-3	-15.6317E-3
1.74837E-3	48.1998E-12	915.285E-3	-16.7767E-3	48.6359E-12	955.278E-3	-17.8268E-3
1.74337E-3	47.7357E-12	935.736E-3	-26.2807E-3	47.9856E-12	953.399E-3	-19.9144E-3
1.73837E-3	47.7333E-12	956.555E-3	-25.9694E-3	47.8474E-12	966.310E-3	-22.6502E-3
1.73337E-3	47.4013E-12	949.778E-3	-23.8919E-3	48.1337E-12	980.978E-3	-16.5766E-3
1.72836E-3	46.9847E-12	933.529E-3	-13.3517E-3	47.7972E-12	983.385E-3	-13.9843E-3
1.72336E-3	46.4312E-12	930.258E-3	-1.78077E-3	47.1315E-12	989.144E-3	-17.1895E-3
1.71836E-3	46.2201E-12	936.704E-3	-9.98858E-3	46.7655E-12	986.194E-3	-14.9482E-3
1.71336E-3	45.8122E-12	961.722E-3	-24.5195E-3	46.6287E-12	973.410E-3	-10.7572E-3
1.70835E-3	45.1710E-12	980.154E-3	-27.0572E-3	46.3843E-12	966.735E-3	-10.4740E-3
1.70335E-3	44.7633E-12	962.901E-3	-26.4479E-3	45.4837E-12	971.763E-3	-13.7841E-3
1.69835E-3	44.6099E-12	957.791E-3	-27.7176E-3	45.0144E-12	990.609E-3	-16.9754E-3
1.69335E-3	44.2205E-12	977.801E-3	-11.9079E-3	44.8553E-12	1.00767E+0	-18.5751E-3
1.68834E-3	43.6200E-12	983.291E-3	3.09760E-3	44.3902E-12	1.01271E+0	-24.9250E-3
1.68334E-3	43.4105E-12	986.059E-3	-2.53480E-3	43.6684E-12	1.01393E+0	-24.1504E-3
1.67834E-3	43.1523E-12	987.125E-3	-9.73640E-3	42.8195E-12	1.01863E+0	-17.5990E-3
1.67334E-3	43.2086E-12	976.699E-3	-9.46809E-3	42.6111E-12	1.01755E+0	-22.3176E-3
1.66833E-3	43.0668E-12	977.625E-3	-6.06798E-3	42.4312E-12	1.01278E+0	-25.1344E-3
1.66333E-3	42.6020E-12	997.550E-3	-3.69856E-3	41.9393E-12	1.02042E+0	-19.0384E-3
1.65833E-3	42.5065E-12	1.01753E+0	-2.51572E-3	41.3249E-12	1.04392E+0	-17.8311E-3
1.65333E-3	42.3232E-12	1.02233E+0	-9.16013E-3	41.1424E-12	1.06167E+0	-19.9122E-3
1.64832E-3	42.0614E-12	1.02246E+0	-21.8734E-3	41.1780E-12	1.04907E+0	-17.8447E-3
1.64332E-3	41.6876E-12	1.02962E+0	-18.4767E-3	41.1020E-12	1.02066E+0	-18.1208E-3
1.63832E-3	41.3295E-12	1.03774E+0	-3.51609E-3	40.9111E-12	1.02294E+0	-23.3544E-3
1.63332E-3	40.9159E-12	1.05000E+0	-1.66652E-3	40.3998E-12	1.06129E+0	-33.9526E-3
1.62831E-3	40.5517E-12	1.05491E+0	-7.81621E-3	40.2654E-12	1.08594E+0	-40.6639E-3
1.62331E-3	40.1661E-12	1.04460E+0	-4.74511E-3	39.9468E-12	1.07918E+0	-37.8337E-3
1.61831E-3	39.5917E-12	1.05030E+0	-1.92075E-3	39.8312E-12	1.07496E+0	-34.1342E-3
1.61331E-3	38.9694E-12	1.06912E+0	-15.4752E-3	39.3086E-12	1.07608E+0	-29.9854E-3
1.60830E-3	38.6356E-12	1.07639E+0	-24.7304E-3	38.8642E-12	1.07245E+0	-24.5222E-3
1.60330E-3	38.3540E-12	1.07335E+0	-19.3508E-3	38.5376E-12	1.08470E+0	-18.3793E-3
1.59830E-3	37.9078E-12	1.06346E+0	-15.9546E-3	38.2349E-12	1.09768E+0	-16.7196E-3
1.59330E-3	37.4284E-12	1.06097E+0	-21.1943E-3	37.7125E-12	1.09821E+0	-22.6639E-3
1.58829E-3	37.2039E-12	1.07582E+0	-24.6854E-3	37.1785E-12	1.10390E+0	-22.3655E-3
1.58329E-3	37.1432E-12	1.08549E+0	-17.0385E-3	36.7657E-12	1.11166E+0	-14.6252E-3
1.57829E-3	37.0016E-12	1.08188E+0	-15.7618E-3	36.4781E-12	1.11845E+0	-11.7427E-3
1.57329E-3	36.6957E-12	1.08764E+0	-25.4984E-3	36.0915E-12	1.12815E+0	-15.6032E-3
1.56828E-3	36.2998E-12	1.10258E+0	-20.7536E-3	35.6121E-12	1.12956E+0	-24.2143E-3
1.56328E-3	36.0722E-12	1.11816E+0	-8.07486E-3	35.2240E-12	1.13076E+0	-25.8925E-3
1.55828E-3	35.9932E-12	1.13638E+0	-14.7624E-3	35.1159E-12	1.14633E+0	-18.2701E-3
1.55328E-3	35.4538E-12	1.14304E+0	-21.9245E-3	34.9614E-12	1.15706E+0	-17.5847E-3
1.54827E-3	34.8303E-12	1.13952E+0	-19.6505E-3	34.5549E-12	1.16172E+0	-25.4518E-3
1.54327E-3	34.6305E-12	1.14853E+0	-15.6265E-3	34.2519E-12	1.17116E+0	-21.8638E-3
1.53827E-3	34.1671E-12	1.15168E+0	-10.5744E-3	34.2146E-12	1.18018E+0	-10.1138E-3
1.53327E-3	33.7405E-12	1.14211E+0	-12.7213E-3	33.9633E-12	1.18587E+0	-6.73444E-3
1.52826E-3	33.1311E-12	1.14296E+0	-23.5289E-3	33.5428E-12	1.18726E+0	-11.6326E-3
1.52326E-3	32.6584E-12	1.14155E+0	-27.4340E-3	33.0411E-12	1.17216E+0	-16.2836E-3
1.51826E-3	31.9992E-12	1.13128E+0	-9.98914E-3	32.6818E-12	1.15756E+0	-12.5822E-3
1.51326E-3	31.6417E-12	1.13464E+0	6.57581E-3	32.0973E-12	1.16718E+0	-5.20997E-3
1.50825E-3	31.2493E-12	1.15349E+0	11.2003E-3	31.5461E-12	1.18114E+0	-4.64689E-3
1.50325E-3	30.7940E-12	1.15743E+0	14.9606E-3	31.1651E-12	1.18545E+0	-15.6795E-3
1.49825E-3	30.2891E-12	1.14578E+0	2.81416E-3	30.7756E-12	1.17733E+0	-21.9040E-3
1.49325E-3	29.8964E-12	1.14549E+0	-10.2704E-3	30.3525E-12	1.16532E+0	-8.97934E-3
1.48824E-3	29.6816E-12	1.14491E+0	-8.93243E-3	29.7697E-12	1.15466E+0	1.56372E-3
1.48324E-3	29.5643E-12	1.14085E+0	-26.4641E-3	29.3199E-12	1.14348E+0	5.41413E-3
1.47824E-3	29.0462E-12	1.15350E+0	-39.5507E-3	28.8151E-12	1.15008E+0	3.67053E-3
1.47324E-3	28.7472E-12	1.16875E+0	-18.5869E-3	28.3978E-12	1.16691E+0	-14.0841E-3
1.46823E-3	28.5046E-12	1.17169E+0	-5.00067E-3	28.0337E-12	1.17202E+0	-27.6756E-3
1.46323E-3	28.2278E-12	1.17568E+0	-9.13817E-3	27.7902E-12	1.16745E+0	-18.9370E-3
1.45823E-3	27.5765E-12	1.18169E+0	-2.00538E-3	27.2649E-12	1.16729E+0	-8.62337E-3
1.45323E-3	27.2109E-12	1.18324E+0	-1.00427E-3	26.8902E-12	1.17354E+0	-6.49472E-3
1.44822E-3	26.7761E-12	1.18593E+0	-19.2235E-3	26.4695E-12	1.17286E+0	1.42858E-3
1.44322E-3	26.4624E-12	1.19328E+0	-32.3932E-3	26.2774E-12	1.17029E+0	-6.32785E-3
1.43822E-3	25.9138E-12	1.19873E+0	-40.5455E-3	25.8526E-12	1.17104E+0	-24.9654E-3
1.43322E-3	25.5771E-12	1.20540E+0	-44.0138E-3	25.3484E-12	1.16734E+0	-27.3612E-3
1.42821E-3	25.2376E-12	1.20621E+0	-38.5989E-3	25.0580E-12	1.15560E+0	-29.7880E-3
1.42321E-3	24.9119E-12	1.19094E+0	-24.7446E-3	24.7717E-12	1.14352E+0	-35.7965E-3
1.41821E-3	24.3479E-12	1.18276E+0	-5.92759E-3	24.3267E-12	1.14558E+0	-31.6457E-3
1.41321E-3	23.8420E-12	1.18333E+0	-6.78127E-3	23.6559E-12	1.15345E+0	-35.6499E-3
1.40820E-3	23.5669E-12	1.17405E+0	-23.4500E-3	23.3112E-12	1.14498E+0	-39.7218E-3
1.40320E-3	23.2037E-12	1.15841E+0	-26.9498E-3	23.0078E-12	1.13035E+0	-16.1743E-3
1.39820E-3	22.8538E-12	1.15015E+0	-14.5528E-3	22.6584E-12	1.12506E+0	-2.66732E-3
1.39320E-3	22.4656E-12	1.15160E+0	-6.10321E-3	22.1521E-12	1.12309E+0	-23.0560E-3
1.38819E-3	22.2065E-12	1.15346E+0	-14.7223E-3	21.8377E-12	1.12233E+0	-36.2285E-3
1.38319E-3	21.6981E-12	1.15837E+0	-23.7008E-3	21.6323E-12	1.13202E+0	-26.5187E-3
1.37819E-3	21.3631E-12	1.15376E+0	-22.2805E-3	21.2118E-12	1.14595E+0	-16.3799E-3
1.37319E-3	21.0145E-12	1.13681E+0	-17.7989E-3	20.7999E-12	1.13303E+0	-8.04338E-3
1.36818E-3	20.7272E-12	1.12480E+0	-13.8771E-3	20.5517E-12	1.10049E+0	-2.18067E-3
1.36318E-3	20.1326E-12	1.11776E+0	-17.3792E-3	20.3583E-12	1.08610E+0	-9.15169E-3
1.35818E-3	19.6319E-12	1.11572E+0	-20.7517E-3	19.8583E-12	1.08550E+0	-7.84058E-3
1.35318E-3	19.3953E-12	1.11097E+0	-17.6701E-3	19.5935E-12	1.08130E+0	8.69209E-3
1.34817E-3	19.2093E-12	1.09793E+0	-13.7030E-3	19.2463E-12	1.06796E+0	12.4974E-3
1.34317E-3	18.6926E-12	1.08201E+0	-7.81871E-3	18.9256E-12	1.05064E+0	-3.35991E-3
1.33817E-3	18.2589E-12	1.07067E+0	-6.23555E-3	18.5017E-12	1.04594E+0	-16.2766E-3
1.33317E-3	18.1902E-12	1.06432E+0	-14.5724E-3	18.1291E-12	1.04551E+0	-13.0084E-3
1.32816E-3	17.9782E-12	1.05875E+0	-30.4369E-3	17.7934E-12	1.02492E+0	-8.86225E-3
1.32316E-3	17.3407E-12	1.05902E+0	-29.5760E-3	17.5028E-12	999.412E-3	-15.1378E-3
1.31816E-3	16.9807E-12	1.05176E+0	-2.77795E-3	16.9839E-12	996.058E-3	-24.0863E-3
1.31316E-3	16.7578E-12	1.03198E+0	7.54246E-3	16.5722E-12	988.307E-3	-28.9197E-3
1.30815E-3	16.5772E-12	1.01842E+0	-10.4020E-3	16.3093E-12	960.871E-3	-26.3931E-3
1.30315E-3	16.1680E-12	1.00833E+0	-20.7594E-3	16.0682E-12	944.015E-3	-18.9167E-3
1.29815E-3	15.7371E-12	993.033E-3	-18.3412E-3	15.6616E-12	942.759E-3	-16.9113E-3
1.29315E-3	15.5118E-12	988.265E-3	-13.4102E-3	15.2562E-12	936.718E-3	-18.9073E-3
1.28814E-3	15.2718E-12	981.380E-3	-8.70813E-3	15.0023E-12	916.083E-3	-25.4865E-3
1.28314E-3	14.8806E-12	957.185E-3	-19.8841E-3	14.7335E-12	882.886E-3	-31.2638E-3
1.27814E-3	14.4244E-12	949.592E-3	-29.5015E-3	14.3848E-12	863.841E-3	-21.7972E-3
1.27314E-3	14.1507E-12	952.675E-3	-10.1390E-3	13.9852E-12	861.559E-3	-15.2707E-3
1.26813E-3	13.8247E-12	938.817E-3	4.95468E-3	13.6808E-12	844.139E-3	-17.9485E-3
1.26313E-3	13.5286E-12	920.827E-3	-7.06025E-3	13.4502E-12	818.545E-3	-12.1741E-3
1.25813E-3	13.2642E-12	901.556E-3	-24.8168E-3	13.1657E-12	809.531E-3	-4.18375E-3
1.25313E-3	12.9641E-12	875.373E-3	-32.2056E-3	12.8388E-12	797.881E-3	-4.56676E-3
1.24812E-3	12.7033E-12	859.077E-3	-34.2141E-3	12.5577E-12	772.549E-3	-14.6263E-3
1.24312E-3	12.2990E-12	849.538E-3	-28.2234E-3	12.2463E-12	757.013E-3	-30.4601E-3
1.23812E-3	12.2629E-12	831.277E-3	-14.1613E-3	12.0337E-12	742.161E-3	-44.1249E-3
1.23312E-3	12.0432E-12	810.706E-3	-16.3379E-3	11.7683E-12	723.949E-3	-43.1423E-3
1.22811E-3	11.7356E-12	793.575E-3	-22.7272E-3	11.6005E-12	719.548E-3	-26.1942E-3
1.22311E-3	11.4619E-12	772.606E-3	-13.4724E-3	11.2326E-12	706.463E-3	-11.5370E-3
1.21811E-3	11.2873E-12	747.300E-3	-13.9739E-3	10.9574E-12	677.993E-3	-3.28378E-3
1.21311E-3	11.1639E-12	737.059E-3	-27.2029E-3	10.8772E-12	661.932E-3	-975.002E-6
1.20810E-3	10.7662E-12	738.394E-3	-25.6315E-3	10.7058E-12	649.618E-3	-4.77887E-3
1.20310E-3	10.4345E-12	730.530E-3	-12.7550E-3	10.3912E-12	626.294E-3	-3.28734E-3
1.19810E-3	10.2874E-12	712.470E-3	-4.52945E-3	10.1623E-12	607.458E-3	-4.43648E-3
1.19310E-3	10.1725E-12	685.231E-3	-2.29908E-3	10.0607E-12	605.398E-3	-15.3730E-3
1.18809E-3	9.77801E-12	665.611E-3	-7.77908E-3	9.90743E-12	600.534E-3	-16.2722E-3
1.18309E-3	9.47510E-12	661.626E-3	-22.4205E-3	9.67240E-12	581.000E-3	-2.16092E-3
1.17809E-3	9.36569E-12	641.169E-3	-32.4005E-3	9.34221E-12	550.593E-3	6.36379E-3
1.17309E-3	9.18377E-12	598.379E-3	-30.5951E-3	9.21601E-12	522.716E-3	4.36406E-3
1.16808E-3	8.97588E-12	562.577E-3	-31.7088E-3	9.10038E-12	508.435E-3	-5.11941E-3
1.16308E-3	8.71495E-12	547.313E-3	-28.4160E-3	8.88355E-12	494.831E-3	-26.4832E-3
1.15808E-3	8.58210E-12	540.613E-3	-17.0026E-3	8.56488E-12	475.283E-3	-34.9816E-3
1.15308E-3	8.44948E-12	525.473E-3	-15.8864E-3	8.39066E-12	463.173E-3	-23.3284E-3
1.14807E-3	8.32181E-12	505.799E-3	-15.3176E-3	8.24830E-12	462.867E-3	-16.1899E-3
1.14307E-3	8.09317E-12	496.393E-3	-12.7334E-3	8.05410E-12	454.468E-3	-16.7914E-3
1.13807E-3	7.98630E-12	494.606E-3	-17.4931E-3	7.96442E-12	432.170E-3	-14.0865E-3
1.13307E-3	7.87304E-12	485.692E-3	-15.7020E-3	7.75807E-12	406.227E-3	-6.45040E-3
1.12806E-3	7.68098E-12	459.789E-3	-7.89622E-3	7.66034E-12	377.772E-3	-6.69008E-3
1.12306E-3	7.61139E-12	432.765E-3	-4.51338E-3	7.46762E-12	359.406E-3	-17.3312E-3
1.11806E-3	7.47496E-12	419.360E-3	-2.45868E-3	7.42417E-12	366.167E-3	-19.3978E-3
1.11306E-3	7.20254E-12	412.407E-3	-7.44725E-3	7.26648E-12	360.381E-3	-13.1104E-3
1.10805E-3	7.07500E-12	406.555E-3	-19.2026E-3	7.12734E-12	331.361E-3	-12.2963E-3
1.10305E-3	7.02058E-12	392.640E-3	-19.6374E-3	7.04057E-12	319.826E-3	-13.0868E-3
1.09805E-3	6.91884E-12	370.984E-3	-4.78134E-3	6.94918E-12	312.822E-3	-18.3691E-3
1.09305E-3	6.68603E-12	355.639E-3	1.67823E-3	6.81394E-12	299.905E-3	-31.5796E-3
1.08804E-3	6.47164E-12	348.103E-3	-1.16750E-3	6.67720E-12	294.063E-3	-40.0074E-3
1.08304E-3	6.50592E-12	333.138E-3	-6.00642E-3	6.50786E-12	275.540E-3	-35.1459E-3
1.07804E-3	6.44721E-12	305.821E-3	-19.8693E-3	6.47804E-12	251.238E-3	-20.3221E-3
1.07304E-3	6.20490E-12	284.292E-3	-24.2622E-3	6.38353E-12	245.549E-3	-1.15507E-3
1.06803E-3	6.02396E-12	276.320E-3	-16.7842E-3	6.23529E-12	250.051E-3	9.63859E-3
1.06303E-3	6.10160E-12	272.730E-3	-11.1323E-3	6.05688E-12	254.739E-3	679.234E-6
1.05803E-3	6.09170E-12	273.300E-3	-12.6989E-3	6.02424E-12	254.077E-3	-14.1853E-3
1.05303E-3	5.91816E-12	268.638E-3	-21.5144E-3	6.01270E-12	239.944E-3	-13.2353E-3
1.04802E-3	5.83303E-12	248.497E-3	-27.4356E-3	5.84374E-12	210.270E-3	-991.734E-6
1.04302E-3	5.91659E-12	225.955E-3	-21.2181E-3	5.80124E-12	177.257E-3	504.569E-6
1.03802E-3	5.83960E-12	222.360E-3	-6.48097E-3	5.73037E-12	159.178E-3	-15.1517E-3
1.03302E-3	5.71469E-12	237.194E-3	-10.5285E-3	5.61346E-12	146.555E-3	-22.4901E-3
1.02801E-3	5.53324E-12	246.959E-3	-26.1722E-3	5.45929E-12	137.456E-3	-14.0099E-3
1.02301E-3	5.32376E-12	229.949E-3	-29.9495E-3	5.31848E-12	141.063E-3	-11.2535E-3
1.01801E-3	5.24563E-12	200.434E-3	-30.0997E-3	5.28619E-12	142.115E-3	-13.7525E-3
1.01301E-3	5.25825E-12	187.137E-3	-37.9696E-3	5.22962E-12	137.998E-3	-12.3247E-3
1.00800E-3	5.28639E-12	186.051E-3	-40.6467E-3	5.15954E-12	134.010E-3	-11.8362E-3
1.00300E-3	5.15355E-12	176.394E-3	-31.9538E-3	5.16169E-12	128.709E-3	-14.3527E-3
997.999E-6	5.03351E-12	157.407E-3	-27.1188E-3	5.07164E-12	126.852E-3	-17.7107E-3
992.997E-6	5.07681E-12	149.289E-3	-29.4239E-3	4.97390E-12	120.453E-3	-13.7847E-3
987.994E-6	5.05963E-12	152.569E-3	-35.2027E-3	4.94839E-12	110.657E-3	-6.79859E-3
982.991E-6	5.01512E-12	152.258E-3	-34.9884E-3	4.92563E-12	106.530E-3	-7.37029E-3
977.989E-6	4.91471E-12	142.448E-3	-28.8471E-3	4.82681E-12	101.464E-3	-8.96303E-3
972.986E-6	4.90572E-12	132.728E-3	-24.8059E-3	4.74532E-12	93.1184E-3	-14.9093E-3
967.984E-6	4.96672E-12	126.687E-3	-24.9961E-3	4.71840E-12	83.3759E-3	-30.2018E-3
962.981E-6	4.97830E-12	120.709E-3	-25.4873E-3	4.72199E-12	82.9460E-3	-40.3260E-3
957.979E-6	4.77793E-12	113.781E-3	-20.4377E-3	4.72941E-12	93.9476E-3	-34.9287E-3
952.976E-6	4.72771E-12	107.589E-3	-14.6999E-3	4.61664E-12	102.329E-3	-21.0320E-3
947.974E-6	4.79825E-12	105.123E-3	-11.6770E-3	4.58988E-12	104.177E-3	-20.1714E-3
942.971E-6	4.79444E-12	101.647E-3	-6.19839E-3	4.60036E-12	100.322E-3	-25.4888E-3
937.969E-6	4.70276E-12	94.9297E-3	-8.38178E-3	4.63661E-12	82.2626E-3	-20.7914E-3
932.966E-6	4.60068E-12	96.7280E-3	-14.5679E-3	4.59586E-12	68.6380E-3	-17.2527E-3
927.964E-6	4.61548E-12	95.2401E-3	-12.0853E-3	4.55968E-12	74.6364E-3	-21.8529E-3
922.961E-6	4.61859E-12	75.0238E-3	-14.8522E-3	4.59963E-12	70.4129E-3	-30.7211E-3
917.959E-6	4.51623E-12	65.1241E-3	-23.0983E-3	4.60737E-12	62.9435E-3	-32.0348E-3
912.956E-6	4.43831E-12	71.7128E-3	-20.3964E-3	4.54996E-12	67.2414E-3	-22.1070E-3
907.954E-6	4.41216E-12	74.2329E-3	-21.5957E-3	4.52656E-12	61.6383E-3	-8.83336E-3
902.951E-6	4.45869E-12	76.2514E-3	-32.3783E-3	4.45493E-12	60.1952E-3	-4.00242E-3
897.949E-6	4.44794E-12	72.9797E-3	-31.4896E-3	4.46010E-12	66.7995E-3	-16.6931E-3
892.946E-6	4.39598E-12	57.5780E-3	-20.2444E-3	4.47578E-12	58.7859E-3	-30.6223E-3
887.944E-6	4.38715E-12	58.8751E-3	-12.0385E-3	4.45038E-12	48.3829E-3	-25.9481E-3
882.941E-6	4.32252E-12	72.7149E-3	-17.8792E-3	4.33727E-12	53.7919E-3	-16.5601E-3
877.939E-6	4.39593E-12	63.5403E-3	-31.5581E-3	4.28515E-12	60.2007E-3	-9.72216E-3
872.936E-6	4.40919E-12	49.6851E-3	-43.3984E-3	4.31613E-12	58.5095E-3	-4.54381E-3
867.934E-6	4.36583E-12	47.0259E-3	-45.5383E-3	4.29339E-12	52.3220E-3	-10.2275E-3
862.931E-6	4.31088E-12	39.0369E-3	-36.8714E-3	4.22750E-12	39.2800E-3	-16.8944E-3
857.929E-6	4.30932E-12	33.4718E-3	-24.7266E-3	4.19278E-12	25.4579E-3	-13.5171E-3
852.926E-6	4.29414E-12	44.8256E-3	-17.0717E-3	4.24431E-12	22.9988E-3	-15.6389E-3
847.924E-6	4.28867E-12	52.0268E-3	-20.6676E-3	4.27597E-12	37.9658E-3	-17.9968E-3
842.921E-6	4.25768E-12	49.1656E-3	-26.7512E-3	4.21025E-12	50.9109E-3	-14.7212E-3
837.919E-6	4.19620E-12	60.8565E-3	-23.4097E-3	4.15506E-12	48.8049E-3	-24.2293E-3
832.916E-6	4.25669E-12	71.7084E-3	-15.4482E-3	4.10409E-12	40.8430E-3	-32.1846E-3
827.914E-6	4.22425E-12	63.9956E-3	-21.7825E-3	4.15735E-12	35.6130E-3	-33.1315E-3
822.911E-6	4.16308E-12	53.7306E-3	-25.8196E-3	4.21740E-12	26.3783E-3	-42.5430E-3
817.909E-6	4.08817E-12	43.3112E-3	-10.0252E-3	4.08907E-12	17.3963E-3	-45.9401E-3
812.906E-6	4.16867E-12	35.0775E-3	3.78411E-3	4.00527E-12	24.2213E-3	-31.3710E-3
807.904E-6	4.11408E-12	40.1221E-3	5.32803E-3	4.11347E-12	37.8339E-3	-25.6780E-3
802.901E-6	4.06179E-12	46.3790E-3	-5.15631E-3	4.17835E-12	48.6138E-3	-28.5972E-3
797.899E-6	4.13114E-12	43.3169E-3	-19.7354E-3	3.98704E-12	62.3866E-3	-23.3073E-3
792.896E-6	4.03710E-12	39.0379E-3	-23.4790E-3	3.96716E-12	63.3734E-3	-15.5459E-3
787.894E-6	4.04347E-12	32.2339E-3	-16.4059E-3	4.01806E-12	45.1804E-3	-11.4138E-3
782.891E-6	4.06339E-12	30.9821E-3	-10.8205E-3	4.02971E-12	37.7320E-3	-10.6289E-3
777.889E-6	4.06948E-12	53.5452E-3	-15.4370E-3	4.00034E-12	35.9835E-3	-11.5484E-3
772.886E-6	4.00182E-12	75.1727E-3	-18.7294E-3	4.03824E-12	23.9644E-3	-15.9541E-3
767.884E-6	3.99438E-12	67.1278E-3	-16.6004E-3	4.05927E-12	19.1519E-3	-14.4620E-3
762.881E-6	3.98524E-12	50.9934E-3	-17.9365E-3	3.97237E-12	30.4774E-3	-13.3876E-3
757.879E-6	3.95150E-12	50.6884E-3	-14.7853E-3	4.01245E-12	46.4161E-3	-21.6453E-3
752.876E-6	3.92716E-12	51.7281E-3	-8.05099E-3	4.03660E-12	51.7839E-3	-17.8371E-3
747.874E-6	3.92116E-12	38.9167E-3	-13.9751E-3	3.96793E-12	47.6597E-3	-10.3905E-3
742.871E-6	3.87522E-12	29.3613E-3	-23.0558E-3	3.89430E-12	45.9309E-3	-16.2199E-3
737.869E-6	3.90749E-12	32.9007E-3	-15.7278E-3	3.93649E-12	46.7719E-3	-22.4257E-3
732.866E-6	3.80058E-12	50.0764E-3	-8.16608E-3	3.88314E-12	44.8775E-3	-25.0289E-3
727.864E-6	3.83709E-12	58.5259E-3	-16.7483E-3	3.90023E-12	40.4075E-3	-29.4192E-3
722.861E-6	3.82141E-12	49.0934E-3	-24.9111E-3	3.78323E-12	43.6443E-3	-36.6443E-3
717.859E-6	3.81472E-12	46.0126E-3	-25.4005E-3	3.71904E-12	52.4198E-3	-33.7903E-3
712.856E-6	3.88147E-12	54.3273E-3	-26.8211E-3	3.78447E-12	52.4466E-3	-23.9492E-3
707.854E-6	3.74786E-12	62.8735E-3	-27.4980E-3	3.77142E-12	44.2453E-3	-22.1004E-3
702.851E-6	3.78998E-12	59.9481E-3	-22.1104E-3	3.65137E-12	40.0782E-3	-16.5781E-3
697.849E-6	3.74981E-12	46.5074E-3	-13.1546E-3	3.64107E-12	51.4400E-3	-11.6761E-3
692.846E-6	3.80303E-12	43.3070E-3	-8.88341E-3	3.72477E-12	63.7312E-3	-19.1294E-3
687.844E-6	3.72347E-12	53.3293E-3	-11.4196E-3	3.74177E-12	55.7981E-3	-25.1885E-3
682.841E-6	3.74100E-12	59.1811E-3	-18.9875E-3	3.63343E-12	47.0859E-3	-29.0008E-3
677.839E-6	3.65825E-12	55.6404E-3	-31.0076E-3	3.55034E-12	50.4451E-3	-25.1841E-3
672.836E-6	3.69133E-12	48.7694E-3	-33.0750E-3	3.72932E-12	56.7407E-3	-18.8733E-3
667.834E-6	3.64393E-12	52.6601E-3	-19.2581E-3	3.69364E-12	61.6697E-3	-27.0998E-3
662.831E-6	3.60126E-12	57.9444E-3	-6.67908E-3	3.63152E-12	58.9023E-3	-24.9131E-3
657.829E-6	3.58839E-12	53.4160E-3	-7.75880E-3	3.56899E-12	44.9081E-3	-2.39416E-3
652.826E-6	3.51696E-12	56.1545E-3	-21.5695E-3	3.54894E-12	42.3680E-3	-3.04684E-3
647.824E-6	3.58524E-12	66.4989E-3	-18.8713E-3	3.56089E-12	58.2718E-3	-19.7430E-3
642.821E-6	3.53791E-12	62.7654E-3	1.02668E-3	3.47571E-12	65.7250E-3	-11.9667E-3
637.819E-6	3.50097E-12	55.7009E-3	6.09790E-3	3.49149E-12	59.5024E-3	-421.300E-6
632.816E-6	3.46958E-12	63.5033E-3	-7.86631E-3	3.47234E-12	51.8994E-3	-12.1729E-3
627.814E-6	3.42156E-12	67.8181E-3	-26.8195E-3	3.37569E-12	60.2021E-3	-24.6484E-3
622.811E-6	3.42714E-12	61.4303E-3	-35.6992E-3	3.38275E-12	75.6641E-3	-25.6358E-3
617.809E-6	3.41760E-12	64.3344E-3	-30.4557E-3	3.37255E-12	82.3711E-3	-22.0673E-3
612.806E-6	3.35066E-12	82.2334E-3	-22.4540E-3	3.34771E-12	80.3940E-3	-17.0214E-3
607.804E-6	3.33390E-12	94.1822E-3	-24.6527E-3	3.26243E-12	73.4664E-3	-14.0560E-3
602.801E-6	3.36942E-12	86.1653E-3	-31.6574E-3	3.25397E-12	69.7679E-3	-10.0869E-3
597.799E-6	3.34331E-12	74.3637E-3	-26.2604E-3	3.34806E-12	73.4878E-3	-8.08347E-3
592.796E-6	3.24061E-12	76.2577E-3	-12.3256E-3	3.34686E-12	89.2541E-3	-9.42572E-3
587.794E-6	3.19827E-12	85.2754E-3	-11.3862E-3	3.13075E-12	108.317E-3	-6.65417E-3
582.791E-6	3.18538E-12	87.5452E-3	-18.8849E-3	3.20720E-12	113.038E-3	-3.79870E-3
577.789E-6	3.18554E-12	90.3630E-3	-25.3790E-3	3.22239E-12	97.0477E-3	-10.1969E-3
572.786E-6	3.15840E-12	96.9521E-3	-28.3011E-3	3.17485E-12	72.8185E-3	-25.3342E-3
567.784E-6	3.06528E-12	88.1123E-3	-23.5449E-3	3.08018E-12	64.5506E-3	-25.9834E-3
562.781E-6	3.00985E-12	71.0363E-3	-17.9476E-3	3.09759E-12	86.5711E-3	-6.93971E-3
557.779E-6	3.11927E-12	68.1349E-3	-14.8480E-3	3.09799E-12	114.172E-3	-3.55688E-3
552.776E-6	3.02294E-12	72.7923E-3	-13.2053E-3	3.02144E-12	108.617E-3	-22.0816E-3
547.774E-6	2.93610E-12	76.2351E-3	-14.5092E-3	3.01745E-12	87.9458E-3	-35.0656E-3
542.771E-6	2.95354E-12	84.6531E-3	-17.1253E-3	2.85586E-12	86.5648E-3	-28.0606E-3
537.769E-6	2.95992E-12	100.135E-3	-15.2708E-3	2.84635E-12	99.9494E-3	-12.5622E-3
532.766E-6	2.97387E-12	106.879E-3	-12.7809E-3	2.81852E-12	106.245E-3	-5.44288E-3
527.764E-6	2.89677E-12	99.9255E-3	-11.9790E-3	2.79998E-12	99.9604E-3	-10.3344E-3
522.761E-6	2.81072E-12	96.1791E-3	-9.74910E-3	2.78337E-12	94.4618E-3	-17.9852E-3
517.759E-6	2.78762E-12	101.896E-3	-12.7202E-3	2.68785E-12	99.8636E-3	-21.2950E-3
512.756E-6	2.78069E-12	107.362E-3	-21.1760E-3	2.67527E-12	115.552E-3	-19.9379E-3
507.754E-6	2.75853E-12	106.997E-3	-21.1365E-3	2.68908E-12	116.256E-3	-13.2131E-3
502.751E-6	2.63912E-12	107.095E-3	-15.9306E-3	2.69874E-12	101.839E-3	-11.1874E-3
497.749E-6	2.62782E-12	109.815E-3	-18.2504E-3	2.67104E-12	107.436E-3	-19.4493E-3
492.746E-6	2.54185E-12	110.627E-3	-16.5961E-3	2.54734E-12	121.385E-3	-26.9279E-3
487.744E-6	2.53311E-12	105.868E-3	-8.22913E-3	2.59971E-12	121.200E-3	-19.6665E-3
482.741E-6	2.51193E-12	111.848E-3	-6.85573E-3	2.58513E-12	117.377E-3	-7.10346E-3
477.739E-6	2.39933E-12	127.264E-3	-8.96336E-3	2.57277E-12	109.409E-3	-5.68179E-3
472.736E-6	2.33127E-12	129.180E-3	-16.2279E-3	2.42260E-12	98.8441E-3	-10.1690E-3
467.734E-6	2.43594E-12	118.213E-3	-29.1520E-3	2.37162E-12	104.995E-3	-16.5513E-3
462.731E-6	2.40812E-12	113.349E-3	-25.9497E-3	2.41515E-12	122.849E-3	-16.6824E-3
457.729E-6	2.23103E-12	119.919E-3	-13.7359E-3	2.36851E-12	128.734E-3	-14.3626E-3
452.726E-6	2.18762E-12	119.216E-3	-15.2830E-3	2.26955E-12	126.953E-3	-11.2571E-3
447.724E-6	2.22277E-12	115.985E-3	-24.4050E-3	2.19114E-12	128.941E-3	-1.07955E-3
442.721E-6	2.31064E-12	116.605E-3	-25.0031E-3	2.16317E-12	125.178E-3	-1.54837E-3
437.719E-6	2.11065E-12	115.115E-3	-10.2754E-3	2.20329E-12	119.457E-3	-13.8285E-3
432.716E-6	2.00941E-12	117.334E-3	10.1497E-3	2.06027E-12	113.463E-3	-17.6298E-3
427.714E-6	2.06341E-12	112.453E-3	14.2769E-3	2.00905E-12	107.551E-3	-12.9084E-3
422.711E-6	2.07739E-12	101.796E-3	-4.99972E-3	1.94257E-12	119.223E-3	-12.5744E-3
417.709E-6	2.00206E-12	110.882E-3	-21.5580E-3	1.99280E-12	139.395E-3	-17.0811E-3
412.706E-6	1.85887E-12	126.407E-3	-20.1942E-3	1.93044E-12	139.611E-3	-23.5675E-3
407.704E-6	1.83677E-12	122.675E-3	-13.6186E-3	1.87576E-12	129.557E-3	-16.3561E-3
402.701E-6	1.77154E-12	113.615E-3	-12.7119E-3	1.82004E-12	132.446E-3	-5.85374E-3
397.699E-6	1.85608E-12	112.976E-3	-11.8994E-3	1.77020E-12	139.489E-3	-11.7036E-3
392.696E-6	1.75101E-12	111.728E-3	-7.24472E-3	1.74060E-12	139.260E-3	-10.4041E-3
387.694E-6	1.69868E-12	107.948E-3	-10.0099E-3	1.71121E-12	134.974E-3	920.018E-6
382.691E-6	1.65565E-12	108.674E-3	-14.7831E-3	1.65511E-12	127.679E-3	7.14747E-3
377.689E-6	1.61631E-12	114.681E-3	-14.8568E-3	1.58342E-12	118.598E-3	3.57935E-3
372.686E-6	1.57047E-12	121.016E-3	-22.5878E-3	1.58135E-12	117.418E-3	-10.5718E-3
367.684E-6	1.50707E-12	115.790E-3	-19.3757E-3	1.55256E-12	120.419E-3	-18.0870E-3
362.681E-6	1.47372E-12	100.236E-3	130.606E-6	1.47435E-12	114.418E-3	-12.7285E-3
357.679E-6	1.44418E-12	100.294E-3	-487.645E-6	1.42078E-12	108.294E-3	-11.1594E-3
352.676E-6	1.50145E-12	119.845E-3	-10.9229E-3	1.38365E-12	102.692E-3	-9.15275E-3
347.674E-6	1.43630E-12	127.955E-3	-12.7489E-3	1.42091E-12	98.1213E-3	-10.2690E-3
342.671E-6	1.31998E-12	123.352E-3	-16.5080E-3	1.44694E-12	110.078E-3	-22.9534E-3
337.669E-6	1.29213E-12	117.249E-3	-17.4286E-3	1.27010E-12	116.126E-3	-28.4877E-3
332.666E-6	1.34343E-12	105.048E-3	-9.19324E-3	1.19350E-12	109.992E-3	-19.4368E-3
327.664E-6	1.25652E-12	105.793E-3	-8.09389E-3	1.31436E-12	111.803E-3	-8.76142E-3
322.661E-6	1.18817E-12	112.204E-3	-18.8910E-3	1.27345E-12	109.226E-3	-8.20173E-3
317.659E-6	1.11215E-12	97.5963E-3	-19.7890E-3	1.11497E-12	103.377E-3	-16.0456E-3
312.656E-6	1.12055E-12	76.1346E-3	-14.6570E-3	1.05385E-12	112.077E-3	-20.2541E-3
307.654E-6	1.14051E-12	85.8528E-3	-20.2521E-3	1.08682E-12	110.322E-3	-17.8909E-3
302.651E-6	1.06091E-12	106.696E-3	-20.1184E-3	1.16007E-12	87.2823E-3	-7.82861E-3
297.649E-6	997.251E-15	98.4298E-3	-14.6946E-3	979.786E-15	80.1921E-3	-4.75578E-3
292.646E-6	955.268E-15	84.2895E-3	-18.7978E-3	909.300E-15	98.3265E-3	-17.1373E-3
287.644E-6	962.540E-15	83.2791E-3	-19.2056E-3	935.972E-15	112.585E-3	-20.6356E-3
282.641E-6	929.284E-15	86.2409E-3	-11.1707E-3	949.295E-15	114.409E-3	-12.8807E-3
277.639E-6	932.912E-15	89.5469E-3	-9.17303E-3	902.560E-15	112.263E-3	-9.78041E-3
272.636E-6	869.976E-15	91.5195E-3	-11.9846E-3	827.713E-15	100.332E-3	-10.7191E-3
267.634E-6	790.700E-15	93.6264E-3	-14.2801E-3	797.754E-15	92.5435E-3	-10.8819E-3
262.631E-6	808.565E-15	89.2996E-3	-14.0035E-3	727.502E-15	96.8587E-3	-12.8134E-3
257.629E-6	818.183E-15	79.8342E-3	-4.86346E-3	729.446E-15	92.9093E-3	-21.1611E-3
252.626E-6	785.764E-15	87.6571E-3	-8.30484E-3	723.509E-15	78.1215E-3	-31.9421E-3
247.624E-6	641.512E-15	96.1409E-3	-28.4811E-3	694.552E-15	66.2460E-3	-33.1625E-3
242.621E-6	678.064E-15	86.1829E-3	-26.8258E-3	642.977E-15	65.6238E-3	-29.3430E-3
237.619E-6	722.846E-15	71.7772E-3	-11.0534E-3	633.613E-15	73.8158E-3	-25.7934E-3
232.616E-6	693.340E-15	63.7118E-3	-9.35502E-3	638.417E-15	80.4971E-3	-12.1122E-3
227.614E-6	558.435E-15	65.1034E-3	-13.4918E-3	617.953E-15	75.4571E-3	-5.05935E-3
222.611E-6	513.705E-15	76.5052E-3	-15.2092E-3	541.615E-15	70.5471E-3	-11.4959E-3
217.609E-6	560.501E-15	84.4037E-3	-20.9133E-3	453.036E-15	66.1535E-3	-19.0221E-3
212.606E-6	570.711E-15	69.8340E-3	-17.9430E-3	543.263E-15	58.1799E-3	-28.6461E-3
207.604E-6	454.666E-15	52.4539E-3	-10.0417E-3	522.851E-15	63.2210E-3	-24.7974E-3
202.601E-6	405.184E-15	55.5709E-3	-14.6140E-3	387.231E-15	75.6302E-3	-10.7792E-3
197.599E-6	443.758E-15	68.4211E-3	-18.0964E-3	380.168E-15	74.1177E-3	-12.1452E-3
192.596E-6	495.159E-15	69.4365E-3	-20.3930E-3	444.255E-15	62.7187E-3	-23.0937E-3
187.594E-6	453.384E-15	60.7802E-3	-31.4688E-3	429.520E-15	62.1658E-3	-28.2910E-3
182.591E-6	299.218E-15	63.4987E-3	-24.9274E-3	354.743E-15	61.1703E-3	-29.0993E-3
177.589E-6	352.528E-15	67.1016E-3	-9.92751E-3	293.638E-15	49.6348E-3	-16.0577E-3
172.586E-6	377.980E-15	58.8858E-3	-25.8287E-3	299.358E-15	46.4077E-3	-7.37835E-3
167.584E-6	307.580E-15	49.0685E-3	-39.9627E-3	343.015E-15	50.5304E-3	-24.4046E-3
162.581E-6	253.486E-15	37.8156E-3	-24.9753E-3	311.303E-15	49.0471E-3	-34.8939E-3
157.579E-6	238.715E-15	37.4698E-3	-10.9366E-3	264.498E-15	49.7413E-3	-28.8458E-3
152.576E-6	208.511E-15	54.6872E-3	-14.7516E-3	215.478E-15	49.2809E-3	-30.8022E-3
147.574E-6	233.841E-15	62.2886E-3	-19.6199E-3	281.649E-15	39.0250E-3	-33.9753E-3
142.571E-6	275.214E-15	52.8905E-3	-18.6094E-3	243.232E-15	28.4182E-3	-31.8097E-3
137.569E-6	170.452E-15	47.6685E-3	-16.4068E-3	221.364E-15	28.7944E-3	-33.8268E-3
132.566E-6	161.654E-15	45.9113E-3	-8.09134E-3	171.428E-15	37.9854E-3	-22.7334E-3
127.564E-6	134.258E-15	41.8603E-3	-7.30978E-3	158.698E-15	46.3108E-3	-742.074E-6
122.561E-6	179.755E-15	42.7827E-3	-21.0969E-3	147.363E-15	50.1526E-3	-966.989E-6
117.559E-6	163.354E-15	38.8638E-3	-25.6534E-3	187.873E-15	49.4606E-3	-6.99544E-3
112.556E-6	63.3349E-15	35.3245E-3	-23.8053E-3	108.082E-15	50.6556E-3	-3.37855E-3
107.554E-6	92.9632E-15	47.3964E-3	-23.2893E-3	51.9911E-15	59.1822E-3	-14.8842E-3
102.551E-6	109.634E-15	48.8211E-3	-15.8448E-3	47.5094E-15	62.6647E-3	-23.2367E-3
97.5488E-6	149.403E-15	27.7374E-3	-4.73655E-3	132.505E-15	51.0457E-3	-9.35394E-3
92.5463E-6	50.9884E-15	16.9970E-3	-1.04824E-3	154.731E-15	39.4542E-3	-9.22743E-3
87.5438E-6	3.03221E-15	26.0449E-3	-1.70056E-3	-699.645E-18	31.9431E-3	-18.2199E-3
82.5413E-6	97.0787E-15	29.0809E-3	-5.84208E-3	-20.3966E-15	28.3607E-3	-9.59799E-3
77.5388E-6	63.0385E-15	32.7014E-3	-18.0821E-3	79.6662E-15	43.6265E-3	-6.05071E-3
72.5363E-6	21.8921E-15	45.7176E-3	-25.3499E-3	89.4406E-15	46.8884E-3	-11.6978E-3
67.5338E-6	-46.7376E-15	43.7980E-3	-24.1869E-3	-38.2886E-15	29.7026E-3	-10.5020E-3
62.5313E-6	-41.2706E-15	34.3495E-3	-21.0026E-3	-89.2268E-15	24.9911E-3	-16.5097E-3
57.5288E-6	8.49050E-15	38.0809E-3	-17.2259E-3	16.2507E-15	36.2538E-3	-27.6850E-3
52.5263E-6	-53.9136E-15	39.5401E-3	-10.0951E-3	52.5579E-15	45.6125E-3	-18.4361E-3
47.5238E-6	-44.1044E-15	36.8095E-3	-7.75663E-3	-52.3354E-15	38.8726E-3	-8.30255E-3
42.5213E-6	-73.9244E-15	40.8660E-3	-15.6756E-3	-114.234E-15	28.4619E-3	-27.8995E-3
37.5188E-6	-58.9359E-15	30.9942E-3	-12.6338E-3	-84.5445E-15	24.3443E-3	-37.5449E-3
32.5163E-6	-64.2460E-15	16.2283E-3	-4.95102E-3	-45.8395E-15	37.4728E-3	-22.2494E-3
27.5138E-6	-103.291E-15	26.8672E-3	-11.9039E-3	-72.7386E-15	45.5832E-3	-16.9795E-3
22.5113E-6	-112.542E-15	42.9158E-3	-25.1748E-3	-154.325E-15	17.9032E-3	-16.1258E-3
17.5088E-6	-125.691E-15	38.0220E-3	-32.0388E-3	-147.672E-15	-6.70849E-3	-13.5985E-3
12.5063E-6	-152.616E-15	28.0945E-3	-20.7107E-3	-160.481E-15	7.19026E-3	-15.3261E-3
7.50375E-6	-99.6812E-15	28.6380E-3	-6.55063E-3	-157.577E-15	32.1001E-3	-23.3359E-3
2.50125E-6	-119.204E-15	30.2151E-3	-8.48229E-3	-153.514E-15	37.3300E-3	-28.3183E-3
-2.50125E-6	-227.463E-15	31.8485E-3	-21.7352E-3	-139.598E-15	26.2677E-3	-23.1224E-3
-7.50375E-6	-230.358E-15	28.7429E-3	-22.8613E-3	-234.211E-15	14.5284E-3	-20.6784E-3
-12.5063E-6	-130.426E-15	22.3800E-3	-7.31741E-3	-229.861E-15	17.8678E-3	-24.9350E-3
-17.5088E-6	-157.447E-15	33.0629E-3	-2.67348E-3	-206.379E-15	35.6611E-3	-27.8795E-3
-22.5113E-6	-256.393E-15	48.6597E-3	-7.81267E-3	-188.888E-15	46.4969E-3	-20.4719E-3
-27.5138E-6	-290.913E-15	43.4261E-3	-12.5288E-3	-280.807E-15	43.0661E-3	-10.8365E-3
-32.5163E-6	-265.723E-15	28.9431E-3	-26.6984E-3	-287.992E-15	34.3352E-3	-10.7124E-3
-37.5188E-6	-179.350E-15	22.8559E-3	-31.0213E-3	-191.687E-15	28.1902E-3	-14.4726E-3
-42.5213E-6	-241.074E-15	27.7067E-3	-18.7458E-3	-210.695E-15	34.3648E-3	-21.8010E-3
-47.5238E-6	-361.321E-15	33.3692E-3	-17.5396E-3	-301.516E-15	38.5777E-3	-25.7984E-3
-52.5263E-6	-314.019E-15	34.3692E-3	-24.3776E-3	-375.429E-15	26.8740E-3	-22.2118E-3
-57.5288E-6	-289.283E-15	30.4353E-3	-25.3719E-3	-298.647E-15	23.7974E-3	-27.5595E-3
-62.5313E-6	-336.253E-15	21.5636E-3	-22.7584E-3	-249.069E-15	35.8303E-3	-32.1564E-3
-67.5338E-6	-390.392E-15	26.0231E-3	-18.5919E-3	-339.802E-15	48.5591E-3	-21.2105E-3
-72.5363E-6	-354.041E-15	40.2112E-3	-18.9677E-3	-429.166E-15	53.6920E-3	-10.8545E-3
-77.5388E-6	-383.268E-15	53.5952E-3	-23.7134E-3	-363.353E-15	53.2602E-3	-18.9277E-3
-82.5413E-6	-407.638E-15	61.5313E-3	-20.1892E-3	-354.023E-15	49.0793E-3	-36.3059E-3
-87.5438E-6	-426.158E-15	47.2607E-3	-15.6799E-3	-392.493E-15	39.2208E-3	-45.6413E-3
-92.5463E-6	-418.163E-15	28.4957E-3	-19.8302E-3	-443.667E-15	41.0614E-3	-40.0146E-3
-97.5488E-6	-442.027E-15	32.6626E-3	-20.6326E-3	-466.424E-15	48.3676E-3	-25.2984E-3
-102.551E-6	-443.248E-15	41.4145E-3	-17.1098E-3	-491.082E-15	45.5288E-3	-19.0133E-3
-107.554E-6	-436.229E-15	32.8282E-3	-18.7863E-3	-503.943E-15	44.2226E-3	-24.1475E-3
-112.556E-6	-452.927E-15	34.9279E-3	-22.2710E-3	-513.299E-15	49.4233E-3	-23.5343E-3
-117.559E-6	-535.786E-15	55.8680E-3	-20.5378E-3	-540.617E-15	57.1629E-3	-12.6263E-3
-122.561E-6	-577.499E-15	61.7115E-3	-15.0943E-3	-574.404E-15	67.1750E-3	-9.81023E-3
-127.564E-6	-527.250E-15	51.6375E-3	-18.4254E-3	-598.129E-15	75.4006E-3	-23.5958E-3
-132.566E-6	-545.491E-15	46.8074E-3	-26.3771E-3	-576.767E-15	77.4257E-3	-32.0830E-3
-137.569E-6	-642.319E-15	47.5005E-3	-29.1627E-3	-618.184E-15	78.8995E-3	-28.5242E-3
-142.571E-6	-703.354E-15	49.4056E-3	-35.2764E-3	-700.555E-15	79.3658E-3	-27.2338E-3
-147.574E-6	-632.091E-15	57.0782E-3	-34.3161E-3	-703.921E-15	66.8232E-3	-23.4779E-3
-152.576E-6	-659.766E-15	69.0350E-3	-25.8761E-3	-655.441E-15	55.5388E-3	-16.9600E-3
-157.579E-6	-741.501E-15	76.9546E-3	-26.3324E-3	-626.537E-15	61.9746E-3	-23.9981E-3
-162.581E-6	-846.350E-15	67.5899E-3	-24.2997E-3	-784.574E-15	76.7855E-3	-31.1298E-3
-167.584E-6	-755.382E-15	46.2418E-3	-22.8772E-3	-852.393E-15	89.8370E-3	-20.8729E-3
-172.586E-6	-741.265E-15	50.9549E-3	-24.1091E-3	-783.676E-15	96.2106E-3	-12.8523E-3
-177.589E-6	-860.694E-15	76.5718E-3	-14.3348E-3	-761.886E-15	96.2990E-3	-16.1178E-3
-182.591E-6	-921.110E-15	81.8733E-3	-7.88545E-3	-921.206E-15	85.2232E-3	-24.2373E-3
-187.594E-6	-870.695E-15	72.3694E-3	-15.0097E-3	-953.859E-15	75.1062E-3	-29.0393E-3
-192.596E-6	-944.617E-15	73.7526E-3	-21.6128E-3	-930.309E-15	77.3113E-3	-14.8352E-3
-197.599E-6	-942.742E-15	86.4764E-3	-21.9547E-3	-905.964E-15	88.0337E-3	2.38284E-3
-202.601E-6	-1.00590E-12	102.140E-3	-29.2806E-3	-989.757E-15	102.554E-3	-5.70907E-3
-207.604E-6	-1.01198E-12	108.265E-3	-38.6138E-3	-1.09836E-12	105.966E-3	-25.3057E-3
-212.606E-6	-1.11000E-12	98.1722E-3	-34.1954E-3	-1.04983E-12	106.232E-3	-32.2995E-3
-217.609E-6	-1.06841E-12	96.5626E-3	-24.4665E-3	-1.08988E-12	117.645E-3	-26.9590E-3
-222.611E-6	-1.12376E-12	108.089E-3	-15.0881E-3	-1.14949E-12	122.806E-3	-28.2358E-3
-227.614E-6	-1.17965E-12	117.248E-3	-6.47662E-3	-1.17146E-12	120.200E-3	-31.6355E-3
-232.616E-6	-1.27995E-12	117.418E-3	-11.7845E-3	-1.20750E-12	129.285E-3	-25.7974E-3
-237.619E-6	-1.30603E-12	110.024E-3	-22.9279E-3	-1.32210E-12	142.608E-3	-25.9911E-3
-242.621E-6	-1.29158E-12	111.127E-3	-22.6838E-3	-1.34060E-12	148.216E-3	-23.8963E-3
-247.624E-6	-1.33459E-12	116.621E-3	-21.5194E-3	-1.34752E-12	152.295E-3	-14.1374E-3
-252.626E-6	-1.46774E-12	120.789E-3	-26.0197E-3	-1.37175E-12	151.679E-3	-13.2166E-3
-257.629E-6	-1.48574E-12	123.442E-3	-27.7423E-3	-1.46903E-12	145.316E-3	-16.0491E-3
-262.631E-6	-1.47364E-12	120.251E-3	-24.5048E-3	-1.52388E-12	151.392E-3	-15.9835E-3
-267.634E-6	-1.50269E-12	123.034E-3	-16.5287E-3	-1.55476E-12	165.039E-3	-12.0638E-3
-272.636E-6	-1.67752E-12	138.073E-3	-3.65717E-3	-1.61003E-12	166.681E-3	-4.98365E-3
-277.639E-6	-1.71691E-12	157.438E-3	-4.32431E-3	-1.72877E-12	166.221E-3	-6.58749E-3
-282.641E-6	-1.68985E-12	165.878E-3	-19.7344E-3	-1.84032E-12	168.671E-3	-20.5388E-3
-287.644E-6	-1.72713E-12	161.813E-3	-19.1820E-3	-1.79241E-12	164.886E-3	-31.8030E-3
-292.646E-6	-1.83558E-12	156.104E-3	-14.5505E-3	-1.76345E-12	168.493E-3	-25.9770E-3
-297.649E-6	-1.92623E-12	150.528E-3	-25.3215E-3	-1.99808E-12	175.233E-3	-17.4205E-3
-302.651E-6	-1.96450E-12	155.682E-3	-25.4210E-3	-2.02315E-12	157.717E-3	-17.1902E-3
-307.654E-6	-1.90629E-12	176.639E-3	-12.3693E-3	-2.03200E-12	145.632E-3	-11.9722E-3
-312.656E-6	-2.06359E-12	193.125E-3	-6.74312E-3	-1.99361E-12	159.220E-3	-3.89992E-3
-317.659E-6	-2.19157E-12	194.093E-3	-5.18390E-3	-2.16432E-12	169.605E-3	60.3986E-6
-322.661E-6	-2.23660E-12	188.306E-3	-7.36835E-3	-2.19082E-12	181.498E-3	-4.55453E-3
-327.664E-6	-2.26961E-12	190.523E-3	-16.7411E-3	-2.19241E-12	189.733E-3	-19.0652E-3
-332.666E-6	-2.36678E-12	196.007E-3	-26.1204E-3	-2.23885E-12	182.830E-3	-26.3565E-3
-337.669E-6	-2.38196E-12	189.243E-3	-28.5368E-3	-2.34690E-12	181.626E-3	-18.5834E-3
-342.671E-6	-2.50091E-12	181.278E-3	-26.8016E-3	-2.44810E-12	193.250E-3	-12.4523E-3
-347.674E-6	-2.59483E-12	190.004E-3	-21.3108E-3	-2.47206E-12	204.715E-3	-12.4401E-3
-352.676E-6	-2.61750E-12	203.808E-3	-19.0099E-3	-2.58447E-12	211.015E-3	-9.34318E-3
-357.679E-6	-2.65881E-12	206.444E-3	-23.1089E-3	-2.66197E-12	210.412E-3	-12.8783E-3
-362.681E-6	-2.69786E-12	208.972E-3	-20.9693E-3	-2.73086E-12	208.200E-3	-18.8550E-3
-367.684E-6	-2.84803E-12	212.386E-3	-19.0405E-3	-2.79020E-12	213.941E-3	-15.8318E-3
-372.686E-6	-2.94722E-12	198.987E-3	-26.0664E-3	-2.92594E-12	224.656E-3	-11.7663E-3
-377.689E-6	-2.87493E-12	190.327E-3	-31.1005E-3	-3.00305E-12	229.368E-3	-5.95901E-3
-382.691E-6	-2.92617E-12	200.360E-3	-31.9601E-3	-2.99272E-12	227.976E-3	-5.46763E-3
-387.694E-6	-3.06338E-12	207.090E-3	-40.8828E-3	-3.09139E-12	233.429E-3	-7.10897E-3
-392.696E-6	-3.18286E-12	208.424E-3	-43.0406E-3	-3.24729E-12	241.769E-3	-1.84317E-3
-397.699E-6	-3.12101E-12	202.896E-3	-26.5806E-3	-3.33276E-12	235.257E-3	4.57764E-3
-402.701E-6	-3.15063E-12	195.576E-3	-16.4653E-3	-3.22256E-12	222.122E-3	5.20262E-3
-407.704E-6	-3.36369E-12	201.490E-3	-23.7244E-3	-3.27858E-12	217.032E-3	-3.17024E-3
-412.706E-6	-3.45389E-12	215.401E-3	-24.3747E-3	-3.47465E-12	213.038E-3	-11.1215E-3
-417.709E-6	-3.40333E-12	216.311E-3	-21.7840E-3	-3.51640E-12	211.632E-3	-18.5367E-3
-422.711E-6	-3.53357E-12	211.766E-3	-26.4047E-3	-3.51042E-12	207.648E-3	-25.5730E-3
-427.714E-6	-3.64401E-12	222.816E-3	-16.1036E-3	-3.55329E-12	196.953E-3	-19.9067E-3
-432.716E-6	-3.80627E-12	235.154E-3	-9.72162E-3	-3.72307E-12	202.176E-3	-13.6538E-3
-437.719E-6	-3.75721E-12	237.240E-3	-24.0106E-3	-3.81535E-12	217.293E-3	-22.8265E-3
-442.721E-6	-3.79625E-12	231.014E-3	-29.0203E-3	-3.82461E-12	218.724E-3	-24.8680E-3
-447.724E-6	-3.93625E-12	223.998E-3	-18.7373E-3	-3.87668E-12	217.053E-3	-4.88304E-3
-452.726E-6	-4.04882E-12	225.513E-3	-12.2570E-3	-4.07459E-12	224.885E-3	10.5898E-3
-457.729E-6	-4.07318E-12	226.680E-3	-6.52392E-3	-4.15794E-12	223.631E-3	3.21971E-3
-462.731E-6	-4.13594E-12	220.427E-3	-5.29174E-3	-4.23631E-12	213.232E-3	-10.3195E-3
-467.734E-6	-4.26612E-12	217.254E-3	-6.11117E-3	-4.23057E-12	216.963E-3	-14.1926E-3
-472.736E-6	-4.35874E-12	218.590E-3	5.14371E-3	-4.37479E-12	220.705E-3	-7.50102E-3
-477.739E-6	-4.41515E-12	212.251E-3	2.75658E-3	-4.44373E-12	222.098E-3	-8.67234E-3
-482.741E-6	-4.50418E-12	203.323E-3	-15.5778E-3	-4.48210E-12	228.038E-3	-17.6416E-3
-487.744E-6	-4.64821E-12	211.031E-3	-22.0434E-3	-4.60404E-12	222.891E-3	-14.7527E-3
-492.746E-6	-4.72515E-12	225.413E-3	-19.1737E-3	-4.69363E-12	216.899E-3	-9.88118E-3
-497.749E-6	-4.74004E-12	229.773E-3	-19.9602E-3	-4.72201E-12	226.827E-3	-13.2662E-3
-502.751E-6	-4.92581E-12	236.004E-3	-16.6770E-3	-4.72885E-12	234.481E-3	-22.4714E-3
-507.754E-6	-5.01610E-12	244.573E-3	-11.1004E-3	-4.88159E-12	225.919E-3	-23.9382E-3
-512.756E-6	-4.95271E-12	240.609E-3	-14.9643E-3	-4.89329E-12	220.857E-3	-16.5210E-3
-517.759E-6	-5.06336E-12	233.142E-3	-11.5292E-3	-4.91862E-12	217.459E-3	-15.0771E-3
-522.761E-6	-5.27003E-12	225.707E-3	-278.732E-9	-4.99031E-12	206.607E-3	-12.3966E-3
-527.764E-6	-5.27477E-12	208.481E-3	-2.24574E-3	-5.15324E-12	204.189E-3	-3.68421E-3
-532.766E-6	-5.22353E-12	204.199E-3	-10.7492E-3	-5.28014E-12	200.895E-3	1.67433E-3
-537.769E-6	-5.31174E-12	217.402E-3	-16.3592E-3	-5.28643E-12	193.950E-3	-3.57161E-3
-542.771E-6	-5.37900E-12	217.421E-3	-26.3071E-3	-5.30902E-12	205.650E-3	-9.76911E-3
-547.774E-6	-5.44641E-12	209.248E-3	-25.8114E-3	-5.53575E-12	213.364E-3	-10.3145E-3
-552.776E-6	-5.40078E-12	218.211E-3	-15.4728E-3	-5.66445E-12	199.239E-3	-9.39168E-3
-557.779E-6	-5.48414E-12	225.726E-3	-18.5251E-3	-5.61348E-12	188.939E-3	-10.4463E-3
-562.781E-6	-5.64158E-12	216.032E-3	-31.6953E-3	-5.63222E-12	184.298E-3	-17.2669E-3
-567.784E-6	-5.78219E-12	202.189E-3	-33.3836E-3	-5.77135E-12	166.643E-3	-20.7632E-3
-572.786E-6	-5.82965E-12	193.424E-3	-19.5402E-3	-5.88703E-12	164.933E-3	-16.0345E-3
-577.789E-6	-5.86434E-12	187.766E-3	-4.80593E-3	-5.86214E-12	184.017E-3	-16.4524E-3
-582.791E-6	-6.00809E-12	178.526E-3	2.14284E-3	-5.85394E-12	180.415E-3	-26.0195E-3
-587.794E-6	-6.03178E-12	174.973E-3	-7.54003E-3	-5.95389E-12	164.944E-3	-27.4368E-3
-592.796E-6	-6.04033E-12	181.121E-3	-24.8398E-3	-6.01135E-12	161.912E-3	-20.8425E-3
-597.799E-6	-6.19705E-12	191.964E-3	-24.1453E-3	-6.00107E-12	156.663E-3	-15.0855E-3
-602.801E-6	-6.23540E-12	188.856E-3	-6.89985E-3	-6.06773E-12	147.581E-3	-17.1956E-3
-607.804E-6	-6.23796E-12	174.348E-3	-10.8584E-3	-6.09379E-12	143.027E-3	-23.7163E-3
-612.806E-6	-6.24134E-12	170.568E-3	-27.7722E-3	-6.15665E-12	140.316E-3	-27.6341E-3
-617.809E-6	-6.41032E-12	168.837E-3	-24.2522E-3	-6.22595E-12	140.297E-3	-30.2856E-3
-622.811E-6	-6.42449E-12	165.173E-3	-18.4034E-3	-6.36251E-12	139.714E-3	-31.5644E-3
-627.814E-6	-6.32202E-12	164.398E-3	-17.5248E-3	-6.40867E-12	142.757E-3	-33.6137E-3
-632.816E-6	-6.40621E-12	156.621E-3	-8.10182E-3	-6.36171E-12	142.448E-3	-28.7129E-3
-637.819E-6	-6.53749E-12	149.277E-3	-10.9458E-3	-6.40193E-12	129.082E-3	-21.6543E-3
-642.821E-6	-6.56240E-12	146.683E-3	-27.0547E-3	-6.61388E-12	114.902E-3	-20.7481E-3
-647.824E-6	-6.54741E-12	130.462E-3	-25.8787E-3	-6.64045E-12	112.801E-3	-17.6932E-3
-652.826E-6	-6.55955E-12	120.288E-3	-17.5660E-3	-6.55617E-12	122.337E-3	-25.2392E-3
-657.829E-6	-6.76759E-12	137.035E-3	-13.9843E-3	-6.57084E-12	133.512E-3	-35.6898E-3
-662.831E-6	-6.86450E-12	141.210E-3	-11.2490E-3	-6.74860E-12	135.099E-3	-28.4055E-3
-667.834E-6	-6.89242E-12	130.311E-3	-19.0195E-3	-6.73044E-12	132.337E-3	-27.4424E-3
-672.836E-6	-6.91440E-12	131.833E-3	-18.8045E-3	-6.71177E-12	133.578E-3	-36.4434E-3
-677.839E-6	-7.00454E-12	125.606E-3	2.99398E-3	-6.74690E-12	128.542E-3	-37.8108E-3
-682.841E-6	-7.08146E-12	106.509E-3	9.81194E-3	-6.86847E-12	122.360E-3	-34.6413E-3
-687.844E-6	-7.09891E-12	99.0013E-3	-12.8090E-3	-6.94708E-12	115.046E-3	-32.0870E-3
-692.846E-6	-7.12108E-12	98.4406E-3	-26.9392E-3	-6.95774E-12	98.7040E-3	-22.1324E-3
-697.849E-6	-7.15714E-12	99.3653E-3	-21.7876E-3	-6.98788E-12	97.9635E-3	-4.86018E-3
-702.851E-6	-7.18950E-12	108.936E-3	-19.3587E-3	-7.04008E-12	106.193E-3	2.14071E-3
-707.854E-6	-7.16659E-12	109.396E-3	-25.8838E-3	-7.18338E-12	87.6971E-3	-4.63627E-3
-712.856E-6	-7.30208E-12	97.5867E-3	-37.5898E-3	-7.26855E-12	74.9311E-3	-9.74239E-3
-717.859E-6	-7.24276E-12	86.2262E-3	-30.9960E-3	-7.20086E-12	86.2582E-3	-4.92629E-3
-722.861E-6	-7.24267E-12	80.6124E-3	-3.38393E-3	-7.20993E-12	84.4019E-3	-2.36651E-3
-727.864E-6	-7.18619E-12	86.2313E-3	9.96048E-3	-7.32547E-12	80.8464E-3	-2.67902E-3
-732.866E-6	-7.24416E-12	88.3784E-3	-1.21860E-3	-7.38133E-12	85.0480E-3	-900.199E-6
-737.869E-6	-7.36259E-12	87.3778E-3	-16.2283E-3	-7.30704E-12	85.3609E-3	-1.41934E-3
-742.871E-6	-7.29852E-12	85.0775E-3	-30.8321E-3	-7.38596E-12	86.5149E-3	-610.020E-6
-747.874E-6	-7.37189E-12	79.5256E-3	-38.5690E-3	-7.29036E-12	82.4410E-3	1.05725E-3
-752.876E-6	-7.51425E-12	91.9556E-3	-22.6063E-3	-7.37928E-12	73.1197E-3	1.22778E-3
-757.879E-6	-7.55784E-12	94.6535E-3	-5.49830E-3	-7.34884E-12	67.3234E-3	1.55184E-3
-762.881E-6	-7.50897E-12	71.6480E-3	-6.42354E-3	-7.36701E-12	72.6790E-3	-2.28497E-3
-767.884E-6	-7.57138E-12	60.1750E-3	-7.00394E-3	-7.40648E-12	75.4120E-3	-14.7456E-3
-772.886E-6	-7.63452E-12	70.2861E-3	-11.2177E-3	-7.44998E-12	68.8213E-3	-22.1892E-3
-777.889E-6	-7.69978E-12	87.2976E-3	-22.6130E-3	-7.62664E-12	73.8935E-3	-24.4069E-3
-782.891E-6	-7.71965E-12	90.0206E-3	-12.7650E-3	-7.52981E-12	74.6971E-3	-29.5251E-3
-787.894E-6	-7.62981E-12	73.4812E-3	-539.106E-6	-7.63048E-12	61.9503E-3	-19.0412E-3
-792.896E-6	-7.65381E-12	65.3184E-3	-14.5643E-3	-7.62954E-12	57.3529E-3	-8.33518E-3
-797.899E-6	-7.66468E-12	62.7341E-3	-20.4340E-3	-7.69149E-12	56.0657E-3	-16.4345E-3
-802.901E-6	-7.75148E-12	53.2335E-3	-8.48465E-3	-7.78693E-12	59.2644E-3	-19.6378E-3
-807.904E-6	-7.61186E-12	50.4626E-3	-791.399E-6	-7.86321E-12	69.4841E-3	-13.4563E-3
-812.906E-6	-7.65743E-12	58.0171E-3	-4.93098E-3	-7.74989E-12	64.7618E-3	-9.61821E-3
-817.909E-6	-7.71732E-12	60.0001E-3	-4.41827E-3	-7.79601E-12	47.7785E-3	-7.66253E-3
-822.911E-6	-7.63822E-12	51.5745E-3	3.75926E-3	-7.97097E-12	45.3637E-3	-12.2672E-3
-827.914E-6	-7.70041E-12	60.6299E-3	5.76302E-3	-7.82706E-12	47.2006E-3	-26.6791E-3
-832.916E-6	-7.75238E-12	77.2746E-3	5.50771E-3	-7.84704E-12	42.9808E-3	-34.7789E-3
-837.919E-6	-7.72673E-12	74.9317E-3	-11.2922E-3	-7.81687E-12	54.5764E-3	-18.1201E-3
-842.921E-6	-7.76483E-12	77.2845E-3	-35.7151E-3	-7.84855E-12	65.2243E-3	-6.97098E-3
-847.924E-6	-7.89201E-12	76.5073E-3	-32.5791E-3	-7.91135E-12	59.9206E-3	-19.2582E-3
-852.926E-6	-7.95561E-12	56.2511E-3	-15.1304E-3	-7.86118E-12	58.4144E-3	-22.0956E-3
-857.929E-6	-7.90121E-12	48.7995E-3	-10.7876E-3	-7.80554E-12	63.1173E-3	-23.7841E-3
-862.931E-6	-7.88734E-12	59.7182E-3	-3.74097E-3	-7.89590E-12	66.0005E-3	-35.2297E-3
-867.934E-6	-8.03175E-12	63.7459E-3	3.48180E-3	-7.99081E-12	65.5213E-3	-34.9929E-3
-872.936E-6	-8.10962E-12	60.6072E-3	-1.76092E-3	-7.99968E-12	61.5181E-3	-23.5474E-3
-877.939E-6	-8.04634E-12	59.0739E-3	2.15232E-3	-8.05040E-12	63.4986E-3	-13.2675E-3
-882.941E-6	-8.03018E-12	56.7198E-3	5.24154E-3	-8.13477E-12	73.0611E-3	-11.4904E-3
-887.944E-6	-8.10246E-12	60.2300E-3	-8.75201E-3	-8.11620E-12	70.4346E-3	-22.9602E-3
-892.946E-6	-8.08366E-12	64.5355E-3	-20.9958E-3	-8.21884E-12	52.1719E-3	-26.7227E-3
-897.949E-6	-8.16086E-12	59.7110E-3	-26.4681E-3	-8.27507E-12	47.3432E-3	-13.3382E-3
-902.951E-6	-8.12057E-12	58.4564E-3	-24.2505E-3	-8.19778E-12	63.5387E-3	-10.7707E-3
-907.954E-6	-8.11478E-12	66.3800E-3	-19.7941E-3	-8.22104E-12	67.7897E-3	-14.5160E-3
-912.956E-6	-8.21703E-12	68.1454E-3	-22.2188E-3	-8.25870E-12	61.4513E-3	-7.33250E-3
-917.959E-6	-8.25657E-12	67.4759E-3	-16.4853E-3	-8.29441E-12	66.3668E-3	-5.19438E-3
-922.961E-6	-8.29337E-12	78.9306E-3	-7.22887E-3	-8.19511E-12	73.3231E-3	-9.94869E-3
-927.964E-6	-8.28393E-12	84.4473E-3	-4.25565E-3	-8.14098E-12	78.0120E-3	-12.4667E-3
-932.966E-6	-8.41609E-12	74.8113E-3	-4.36253E-3	-8.25648E-12	88.3003E-3	-13.1486E-3
-937.969E-6	-8.38486E-12	71.2061E-3	-11.4700E-3	-8.28618E-12	96.6440E-3	-21.3700E-3
-942.971E-6	-8.41909E-12	73.1375E-3	-24.2059E-3	-8.23120E-12	97.6062E-3	-28.4006E-3
-947.974E-6	-8.50264E-12	69.5015E-3	-24.7843E-3	-8.28668E-12	103.112E-3	-24.2059E-3
-952.976E-6	-8.46986E-12	72.6906E-3	-9.60570E-3	-8.40317E-12	100.873E-3	-21.4193E-3
-957.979E-6	-8.44262E-12	89.9807E-3	1.23990E-3	-8.48820E-12	83.8402E-3	-15.1439E-3
-962.981E-6	-8.61082E-12	105.305E-3	-4.51104E-3	-8.47154E-12	83.1898E-3	-11.3637E-3
-967.984E-6	-8.62089E-12	103.651E-3	-15.6893E-3	-8.52996E-12	97.1805E-3	-25.4867E-3
-972.986E-6	-8.55815E-12	86.4822E-3	-10.5494E-3	-8.68406E-12	103.808E-3	-30.8653E-3
-977.989E-6	-8.53852E-12	79.7508E-3	734.985E-6	-8.72224E-12	102.819E-3	-14.0099E-3
-982.991E-6	-8.63005E-12	98.0432E-3	-1.52388E-3	-8.78381E-12	104.777E-3	-5.52801E-3
-987.994E-6	-8.69068E-12	113.604E-3	-7.50805E-3	-8.87195E-12	116.293E-3	-16.5876E-3
-992.997E-6	-8.66784E-12	114.939E-3	-14.3621E-3	-8.93144E-12	128.517E-3	-20.5561E-3
-997.999E-6	-8.65961E-12	112.981E-3	-14.5306E-3	-8.94075E-12	135.823E-3	-6.72915E-3
-1.00300E-3	-8.75118E-12	113.527E-3	-1.99812E-3	-8.94541E-12	143.765E-3	8.95396E-3
-1.00800E-3	-8.84440E-12	113.708E-3	7.60756E-3	-8.93392E-12	151.840E-3	12.6736E-3
-1.01301E-3	-8.90057E-12	114.753E-3	2.76704E-3	-8.93032E-12	150.772E-3	-5.40532E-3
-1.01801E-3	-8.90140E-12	121.342E-3	-6.31245E-3	-8.89912E-12	141.044E-3	-25.5342E-3
-1.02301E-3	-8.99358E-12	125.457E-3	-11.1263E-3	-8.89457E-12	142.371E-3	-15.7984E-3
-1.02801E-3	-9.14674E-12	133.097E-3	-17.4753E-3	-8.98441E-12	154.537E-3	-7.55343E-3
-1.03302E-3	-9.07913E-12	145.879E-3	-9.45744E-3	-9.08214E-12	160.525E-3	-25.1757E-3
-1.03802E-3	-9.04689E-12	146.886E-3	-2.65867E-3	-9.06044E-12	174.741E-3	-35.1621E-3
-1.04302E-3	-9.18071E-12	138.974E-3	-11.0418E-3	-9.06555E-12	192.660E-3	-28.8275E-3
-1.04802E-3	-9.28497E-12	147.412E-3	-11.5408E-3	-9.23168E-12	197.903E-3	-26.2551E-3
-1.05303E-3	-9.29645E-12	164.121E-3	2.79523E-3	-9.28511E-12	198.329E-3	-17.9774E-3
-1.05803E-3	-9.28866E-12	177.369E-3	17.8539E-3	-9.30388E-12	205.054E-3	-4.43785E-3
-1.06303E-3	-9.34680E-12	190.821E-3	10.1820E-3	-9.49186E-12	222.585E-3	-7.15044E-3
-1.06803E-3	-9.43721E-12	194.304E-3	-4.49097E-3	-9.49976E-12	238.619E-3	-11.4025E-3
-1.07304E-3	-9.55193E-12	184.977E-3	-3.32712E-3	-9.61000E-12	247.888E-3	-15.0173E-3
-1.07804E-3	-9.59006E-12	182.278E-3	-2.88437E-3	-9.67847E-12	250.738E-3	-24.3999E-3
-1.08304E-3	-9.72969E-12	193.543E-3	-8.43973E-3	-9.80841E-12	253.040E-3	-14.8410E-3
-1.08804E-3	-9.83393E-12	208.968E-3	-11.6457E-3	-9.87221E-12	269.194E-3	-1.69740E-3
-1.09305E-3	-9.93584E-12	228.828E-3	-17.9512E-3	-9.98754E-12	288.488E-3	-17.3957E-3
-1.09805E-3	-10.0982E-12	242.388E-3	-26.7516E-3	-10.0395E-12	299.118E-3	-30.5055E-3
-1.10305E-3	-10.2271E-12	245.248E-3	-26.5139E-3	-10.0959E-12	306.100E-3	-21.1092E-3
-1.10805E-3	-10.3415E-12	253.657E-3	-20.9988E-3	-10.2253E-12	310.351E-3	-16.6651E-3
-1.11306E-3	-10.4398E-12	271.283E-3	-14.2222E-3	-10.2814E-12	319.529E-3	-23.9139E-3
-1.11806E-3	-10.6333E-12	291.796E-3	-12.4784E-3	-10.3758E-12	340.082E-3	-24.2687E-3
-1.12306E-3	-10.7937E-12	312.438E-3	-13.0121E-3	-10.4995E-12	360.463E-3	-30.8108E-3
-1.12806E-3	-10.7703E-12	324.710E-3	-2.24485E-3	-10.7057E-12	371.350E-3	-41.2450E-3
-1.13307E-3	-10.7348E-12	327.641E-3	1.58533E-3	-10.7951E-12	386.626E-3	-27.2092E-3
-1.13807E-3	-10.9170E-12	344.852E-3	-8.20406E-3	-10.9548E-12	400.985E-3	-17.1418E-3
-1.14307E-3	-11.0524E-12	364.114E-3	-17.4174E-3	-11.0765E-12	400.455E-3	-25.4128E-3
-1.14807E-3	-10.9662E-12	357.701E-3	-25.1429E-3	-11.2408E-12	417.382E-3	-22.1034E-3
-1.15308E-3	-11.0377E-12	350.392E-3	-27.2410E-3	-11.3235E-12	443.432E-3	-21.6947E-3
-1.15808E-3	-11.2418E-12	358.741E-3	-25.4113E-3	-11.4689E-12	443.773E-3	-31.4109E-3
-1.16308E-3	-11.4913E-12	369.661E-3	-28.6342E-3	-11.6444E-12	445.936E-3	-22.2370E-3
-1.16808E-3	-11.5294E-12	388.279E-3	-31.2713E-3	-11.8594E-12	469.875E-3	-18.0405E-3
-1.17309E-3	-11.6137E-12	420.888E-3	-27.2525E-3	-11.9278E-12	489.506E-3	-28.0731E-3
-1.17809E-3	-11.7824E-12	440.738E-3	-20.9197E-3	-11.9586E-12	497.829E-3	-23.3521E-3
-1.18309E-3	-12.1587E-12	445.291E-3	-10.7788E-3	-12.1373E-12	513.609E-3	-13.6549E-3
-1.18809E-3	-12.3355E-12	465.534E-3	-7.58757E-3	-12.3225E-12	532.466E-3	-14.1758E-3
-1.19310E-3	-12.4183E-12	484.526E-3	-17.6642E-3	-12.4143E-12	548.810E-3	-19.0554E-3
-1.19810E-3	-12.7022E-12	492.654E-3	-23.0325E-3	-12.5548E-12	576.989E-3	-24.2674E-3
-1.20310E-3	-13.0117E-12	513.674E-3	-18.5162E-3	-12.6466E-12	605.095E-3	-26.6381E-3
-1.20810E-3	-13.1409E-12	548.905E-3	-7.50806E-3	-12.9816E-12	621.748E-3	-21.8694E-3
-1.21311E-3	-13.3385E-12	582.485E-3	-6.03523E-3	-13.2826E-12	639.678E-3	-18.4854E-3
-1.21811E-3	-13.5816E-12	596.416E-3	-16.4182E-3	-13.4023E-12	656.439E-3	-19.2780E-3
-1.22311E-3	-13.7298E-12	595.948E-3	-16.2594E-3	-13.6197E-12	667.356E-3	-14.0746E-3
-1.22811E-3	-13.7938E-12	602.429E-3	-9.66430E-3	-13.8711E-12	687.481E-3	-1.53632E-3
-1.23312E-3	-14.0226E-12	619.316E-3	-9.87261E-3	-14.1738E-12	713.157E-3	2.01293E-3
-1.23812E-3	-14.2105E-12	634.726E-3	-17.3444E-3	-14.3977E-12	733.119E-3	-1.86636E-3
-1.24312E-3	-14.2938E-12	649.256E-3	-28.0330E-3	-14.6256E-12	756.884E-3	538.165E-6
-1.24812E-3	-14.4942E-12	663.463E-3	-26.7203E-3	-14.7973E-12	771.052E-3	-850.420E-6
-1.25313E-3	-14.6824E-12	664.343E-3	-7.11596E-3	-15.0558E-12	772.354E-3	-14.2946E-3
-1.25813E-3	-15.0626E-12	667.241E-3	-1.49345E-3	-15.3061E-12	782.187E-3	-27.5484E-3
-1.26313E-3	-15.3208E-12	694.992E-3	-20.1118E-3	-15.5414E-12	798.870E-3	-24.3590E-3
-1.26813E-3	-15.5547E-12	728.621E-3	-25.2736E-3	-15.6574E-12	811.251E-3	-18.1490E-3
-1.27314E-3	-15.8451E-12	740.391E-3	-16.6417E-3	-15.9022E-12	826.078E-3	-18.5163E-3
-1.27814E-3	-16.3108E-12	752.514E-3	-15.6561E-3	-16.1370E-12	848.215E-3	-23.8055E-3
-1.28314E-3	-16.6153E-12	785.428E-3	-15.5668E-3	-16.3886E-12	872.130E-3	-28.6588E-3
-1.28814E-3	-16.9012E-12	809.954E-3	-15.5455E-3	-16.6734E-12	899.506E-3	-10.9565E-3
-1.29315E-3	-17.2738E-12	822.656E-3	-20.8830E-3	-16.8555E-12	921.497E-3	5.29409E-3
-1.29815E-3	-17.7073E-12	838.412E-3	-17.6433E-3	-17.3373E-12	932.727E-3	-2.95529E-3
-1.30315E-3	-18.0149E-12	849.725E-3	-11.9935E-3	-17.7960E-12	955.208E-3	-15.9313E-3
-1.30815E-3	-18.1759E-12	865.503E-3	-19.3158E-3	-18.1810E-12	981.424E-3	-22.4685E-3
-1.31316E-3	-18.5523E-12	892.930E-3	-24.5105E-3	-18.5948E-12	993.836E-3	-19.5175E-3
-1.31816E-3	-18.8583E-12	916.513E-3	-25.7724E-3	-18.9956E-12	1.00875E+0	-14.7704E-3
-1.32316E-3	-19.1284E-12	934.104E-3	-22.8877E-3	-19.3658E-12	1.01833E+0	-18.9772E-3
-1.32816E-3	-19.3777E-12	946.224E-3	-9.07753E-3	-19.6913E-12	1.02477E+0	-25.9721E-3
-1.33317E-3	-19.6271E-12	952.751E-3	-4.92664E-3	-19.9627E-12	1.03353E+0	-17.0762E-3
-1.33817E-3	-19.9934E-12	974.331E-3	-14.9527E-3	-20.1809E-12	1.04001E+0	1.12180E-3
-1.34317E-3	-20.2315E-12	1.00065E+0	-13.5828E-3	-20.4595E-12	1.05166E+0	-2.73089E-3
-1.34817E-3	-20.4206E-12	1.00524E+0	-1.22157E-3	-20.7341E-12	1.05939E+0	-20.5083E-3
-1.35318E-3	-20.7065E-12	1.00395E+0	657.706E-6	-20.8666E-12	1.07106E+0	-26.8845E-3
-1.35818E-3	-21.1958E-12	1.01185E+0	-5.37387E-3	-21.1484E-12	1.08591E+0	-21.7826E-3
-1.36318E-3	-21.4666E-12	1.02896E+0	-16.1600E-3	-21.4598E-12	1.08127E+0	-10.0256E-3
-1.36818E-3	-21.8929E-12	1.05506E+0	-23.9445E-3	-21.7760E-12	1.08432E+0	-8.40809E-3
-1.37319E-3	-22.4069E-12	1.07287E+0	-15.3398E-3	-22.0179E-12	1.10485E+0	-21.4609E-3
-1.37819E-3	-22.8616E-12	1.07613E+0	-18.9935E-3	-22.2920E-12	1.11343E+0	-27.1198E-3
-1.38319E-3	-23.1630E-12	1.08195E+0	-39.8215E-3	-22.7031E-12	1.12296E+0	-22.6388E-3
-1.38819E-3	-23.5828E-12	1.09813E+0	-30.1623E-3	-23.2681E-12	1.13894E+0	-21.5904E-3
-1.39320E-3	-23.8800E-12	1.11024E+0	-15.0725E-3	-23.6921E-12	1.15093E+0	-26.1259E-3
-1.39820E-3	-24.3159E-12	1.11603E+0	-31.3390E-3	-24.2809E-12	1.17110E+0	-27.6422E-3
-1.40320E-3	-24.5371E-12	1.12326E+0	-35.0356E-3	-24.6850E-12	1.19604E+0	-27.8166E-3
-1.40820E-3	-24.8118E-12	1.13403E+0	-20.0203E-3	-25.3065E-12	1.21112E+0	-29.1812E-3
-1.41321E-3	-25.2791E-12	1.15581E+0	-18.6918E-3	-25.8232E-12	1.22239E+0	-18.3551E-3
-1.41821E-3	-25.6035E-12	1.17002E+0	-22.3668E-3	-26.3251E-12	1.22990E+0	-7.00599E-3
-1.42321E-3	-25.8531E-12	1.16375E+0	-15.6547E-3	-26.7191E-12	1.22202E+0	-11.0370E-3
-1.42821E-3	-26.1005E-12	1.15808E+0	-3.74823E-3	-27.2037E-12	1.21268E+0	-25.1199E-3
-1.43322E-3	-26.6040E-12	1.16747E+0	717.093E-6	-27.4028E-12	1.21346E+0	-30.7780E-3
-1.43822E-3	-27.0350E-12	1.17867E+0	-7.35014E-3	-27.5800E-12	1.21316E+0	-19.2883E-3
-1.44322E-3	-27.3967E-12	1.17829E+0	-18.4088E-3	-27.9647E-12	1.20884E+0	-15.7637E-3
-1.44822E-3	-27.7867E-12	1.18209E+0	-22.7034E-3	-28.2476E-12	1.20502E+0	-26.6474E-3
-1.45323E-3	-28.3400E-12	1.18800E+0	-22.2596E-3	-28.4181E-12	1.19526E+0	-32.7752E-3
-1.45823E-3	-28.8953E-12	1.18206E+0	-11.6032E-3	-28.7494E-12	1.19574E+0	-21.5503E-3
-1.46323E-3	-29.2349E-12	1.18803E+0	-5.12592E-3	-29.2004E-12	1.20709E+0	-10.8059E-3
-1.46823E-3	-29.7464E-12	1.20487E+0	-22.7317E-3	-29.4611E-12	1.19505E+0	-17.5818E-3
-1.47324E-3	-30.2009E-12	1.20892E+0	-40.1764E-3	-29.8104E-12	1.18352E+0	-16.3747E-3
-1.47824E-3	-30.3931E-12	1.21821E+0	-29.7530E-3	-30.2334E-12	1.19788E+0	-7.94018E-3
-1.48324E-3	-30.8311E-12	1.22381E+0	-4.21409E-3	-30.8274E-12	1.20751E+0	-14.1709E-3
-1.48824E-3	-31.2961E-12	1.20569E+0	1.55077E-3	-31.2718E-12	1.21623E+0	-19.7105E-3
-1.49325E-3	-31.7311E-12	1.19451E+0	-13.1196E-3	-31.6819E-12	1.23122E+0	-15.8310E-3
-1.49825E-3	-31.9956E-12	1.20490E+0	-19.0659E-3	-32.3580E-12	1.22879E+0	-7.40898E-3
-1.50325E-3	-32.2868E-12	1.22701E+0	-7.03066E-3	-32.8424E-12	1.22276E+0	6.63278E-3
-1.50825E-3	-32.7836E-12	1.23822E+0	-3.09828E-3	-33.2058E-12	1.22057E+0	15.6071E-3
-1.51326E-3	-33.4621E-12	1.22639E+0	-14.5096E-3	-33.4925E-12	1.20454E+0	5.09054E-3
-1.51826E-3	-33.8785E-12	1.22049E+0	-16.0987E-3	-34.0312E-12	1.18220E+0	-5.11537E-3
-1.52326E-3	-34.1802E-12	1.22180E+0	-11.2783E-3	-34.2539E-12	1.17320E+0	852.949E-6
-1.52826E-3	-34.7477E-12	1.21036E+0	-6.05134E-3	-34.5291E-12	1.17227E+0	-2.02673E-3
-1.53327E-3	-35.4368E-12	1.20502E+0	1.33551E-3	-34.8903E-12	1.17699E+0	-21.7280E-3
-1.53827E-3	-35.9951E-12	1.22008E+0	-4.09201E-3	-35.2171E-12	1.19226E+0	-27.9214E-3
-1.54327E-3	-36.2744E-12	1.23771E+0	-12.2814E-3	-35.5114E-12	1.19782E+0	-22.3684E-3
-1.54827E-3	-36.7468E-12	1.23621E+0	-18.0900E-3	-35.8421E-12	1.19146E+0	-25.4432E-3
-1.55328E-3	-37.2321E-12	1.21563E+0	-34.6870E-3	-36.2949E-12	1.19349E+0	-33.7679E-3
-1.55828E-3	-37.6640E-12	1.20587E+0	-40.9984E-3	-36.7872E-12	1.19671E+0	-48.6538E-3
-1.56328E-3	-37.8700E-12	1.21275E+0	-30.0550E-3	-37.4137E-12	1.18131E+0	-55.0920E-3
-1.56828E-3	-38.2855E-12	1.21924E+0	-19.9714E-3	-37.9455E-12	1.16804E+0	-38.5737E-3
-1.57329E-3	-38.4213E-12	1.22216E+0	-4.52461E-3	-38.4142E-12	1.16890E+0	-20.7760E-3
-1.57829E-3	-38.6231E-12	1.21653E+0	9.31201E-3	-38.7805E-12	1.16450E+0	-20.3136E-3
-1.58329E-3	-38.9139E-12	1.20877E+0	-6.40788E-3	-39.3389E-12	1.16051E+0	-9.79231E-3
-1.58829E-3	-39.2891E-12	1.20627E+0	-26.6525E-3	-39.7485E-12	1.15438E+0	6.16269E-3
-1.59330E-3	-39.4358E-12	1.19677E+0	-19.1692E-3	-40.0673E-12	1.14069E+0	3.44138E-3
-1.59830E-3	-39.8578E-12	1.17309E+0	-12.9498E-3	-40.3997E-12	1.14862E+0	4.41751E-3
-1.60330E-3	-40.2167E-12	1.15891E+0	-18.2982E-3	-40.9054E-12	1.16296E+0	4.46631E-3
-1.60830E-3	-40.6713E-12	1.15590E+0	-12.6501E-3	-41.1137E-12	1.14899E+0	-13.3422E-3
-1.61331E-3	-41.0870E-12	1.14905E+0	-7.98117E-3	-41.2840E-12	1.13121E+0	-19.1954E-3
-1.61831E-3	-41.6623E-12	1.14289E+0	-17.4732E-3	-41.6850E-12	1.13296E+0	-3.83843E-3
-1.62331E-3	-42.1166E-12	1.13504E+0	-18.7064E-3	-41.9161E-12	1.13714E+0	6.80361E-3
-1.62831E-3	-42.7382E-12	1.12980E+0	-11.2685E-3	-42.2228E-12	1.13323E+0	2.70645E-3
-1.63332E-3	-43.1690E-12	1.12853E+0	-8.75807E-3	-42.6634E-12	1.12932E+0	-6.98628E-3
-1.63832E-3	-43.5839E-12	1.13289E+0	-12.2132E-3	-42.9641E-12	1.12011E+0	-12.2245E-3
-1.64332E-3	-43.9018E-12	1.13959E+0	-24.0401E-3	-43.5327E-12	1.09593E+0	-16.7736E-3
-1.64832E-3	-44.2052E-12	1.14116E+0	-25.2938E-3	-43.9308E-12	1.07475E+0	-23.2507E-3
-1.65333E-3	-44.4874E-12	1.12523E+0	-4.21638E-3	-44.3151E-12	1.06309E+0	-35.1796E-3
-1.65833E-3	-44.7077E-12	1.09914E+0	3.61387E-3	-44.9106E-12	1.04632E+0	-34.0949E-3
-1.66333E-3	-44.6307E-12	1.09327E+0	-12.7088E-3	-45.5854E-12	1.05087E+0	-14.2335E-3
-1.66833E-3	-44.8613E-12	1.08685E+0	-15.9078E-3	-45.7513E-12	1.07515E+0	-2.85266E-3
-1.67334E-3	-45.0960E-12	1.06490E+0	-5.76733E-3	-46.1124E-12	1.06883E+0	-486.092E-6
-1.67834E-3	-45.3188E-12	1.05197E+0	-3.92183E-3	-46.7001E-12	1.04684E+0	4.43427E-3
-1.68334E-3	-45.7549E-12	1.05556E+0	-3.04232E-3	-46.9963E-12	1.04010E+0	5.62598E-3
-1.68834E-3	-45.9994E-12	1.05623E+0	345.198E-6	-46.8660E-12	1.04027E+0	3.85766E-3
-1.69335E-3	-46.2707E-12	1.04578E+0	-3.35202E-3	-46.9423E-12	1.04273E+0	-1.23821E-3
-1.69835E-3	-47.0620E-12	1.03507E+0	-8.05216E-3	-47.4287E-12	1.03384E+0	-5.87204E-3
-1.70335E-3	-47.6351E-12	1.02532E+0	-5.39385E-3	-47.6714E-12	1.00382E+0	-7.62213E-3
-1.70835E-3	-48.1655E-12	1.02365E+0	-5.66142E-3	-47.5736E-12	989.589E-3	-16.3537E-3
-1.71336E-3	-48.6894E-12	1.03338E+0	-9.14247E-3	-47.9034E-12	1.01005E+0	-20.8855E-3
-1.71836E-3	-49.3069E-12	1.03411E+0	-6.21089E-3	-48.3982E-12	1.02007E+0	-13.8255E-3
-1.72336E-3	-49.8684E-12	1.02471E+0	-5.80996E-3	-48.9070E-12	1.00998E+0	-10.3752E-3
-1.72836E-3	-50.4401E-12	1.02748E+0	-9.46403E-3	-49.0258E-12	1.00563E+0	-22.5096E-3
-1.73337E-3	-50.6643E-12	1.03622E+0	-16.0865E-3	-49.8072E-12	1.00009E+0	-31.5594E-3
-1.73837E-3	-50.6424E-12	1.03702E+0	-21.0455E-3	-50.0951E-12	992.259E-3	-28.0295E-3
-1.74337E-3	-50.8821E-12	1.03544E+0	-10.3250E-3	-50.8364E-12	984.078E-3	-28.4053E-3
-1.74837E-3	-50.9696E-12	1.03282E+0	-6.36478E-3	-51.0409E-12	969.355E-3	-34.7364E-3
-1.75338E-3	-51.2769E-12	1.01291E+0	-26.1388E-3	-51.6841E-12	971.960E-3	-29.3043E-3
-1.75838E-3	-51.2223E-12	982.194E-3	-33.7200E-3	-52.0850E-12	990.376E-3	-15.2568E-3
-1.76338E-3	-51.3515E-12	962.555E-3	-17.3004E-3	-52.6868E-12	990.136E-3	-12.2897E-3
-1.76838E-3	-51.3963E-12	951.307E-3	-5.72599E-3	-52.7328E-12	975.571E-3	-11.9197E-3
-1.77339E-3	-51.8645E-12	951.707E-3	-5.65128E-3	-53.0707E-12	972.970E-3	-6.13540E-3
-1.77839E-3	-52.1552E-12	964.766E-3	-18.7124E-3	-53.0003E-12	968.123E-3	-13.2508E-3
-1.78339E-3	-52.4252E-12	971.141E-3	-37.5777E-3	-53.1138E-12	944.138E-3	-25.5838E-3
-1.78839E-3	-52.7924E-12	965.535E-3	-32.1960E-3	-53.2208E-12	927.005E-3	-16.2277E-3
-1.79340E-3	-53.3441E-12	958.854E-3	-6.18726E-3	-53.1370E-12	929.168E-3	-6.40563E-3
-1.79840E-3	-54.1036E-12	954.877E-3	1.33426E-6	-53.1098E-12	933.052E-3	-15.1300E-3
-1.80340E-3	-54.7484E-12	944.796E-3	-22.4140E-3	-53.2127E-12	924.028E-3	-29.1246E-3
-1.80840E-3	-55.2472E-12	936.056E-3	-25.3737E-3	-53.7792E-12	911.254E-3	-38.3925E-3
-1.81341E-3	-55.6807E-12	926.877E-3	-10.7565E-3	-54.2951E-12	911.648E-3	-32.2524E-3
-1.81841E-3	-56.1880E-12	929.151E-3	-12.7185E-3	-54.7058E-12	920.619E-3	-21.1000E-3
-1.82341E-3	-56.8392E-12	954.001E-3	-8.88538E-3	-55.1408E-12	924.528E-3	-20.1646E-3
-1.82841E-3	-56.8465E-12	956.724E-3	-1.25729E-3	-55.8847E-12	920.573E-3	-17.8941E-3
-1.83342E-3	-56.9262E-12	940.497E-3	-7.26641E-3	-56.4770E-12	923.816E-3	-11.1934E-3
-1.83842E-3	-56.7772E-12	936.390E-3	-9.28898E-3	-57.0069E-12	925.448E-3	-9.68548E-3
-1.84342E-3	-56.9678E-12	929.328E-3	136.126E-6	-57.4061E-12	915.532E-3	-8.84062E-3
-1.84842E-3	-56.8923E-12	918.358E-3	-7.32314E-3	-57.7002E-12	909.576E-3	-11.9917E-3
-1.85343E-3	-56.9327E-12	920.961E-3	-17.5352E-3	-58.4347E-12	902.726E-3	-22.9983E-3
-1.85843E-3	-56.5846E-12	918.946E-3	-7.57427E-3	-58.4878E-12	888.988E-3	-24.4754E-3
-1.86343E-3	-57.0292E-12	897.591E-3	-6.01547E-3	-58.5096E-12	874.949E-3	-19.5017E-3
-1.86843E-3	-57.2659E-12	887.110E-3	-14.8124E-3	-58.3429E-12	871.869E-3	-24.7215E-3
-1.87344E-3	-57.7753E-12	890.475E-3	-17.3245E-3	-58.6258E-12	870.250E-3	-25.3492E-3
-1.87844E-3	-58.1606E-12	879.642E-3	-13.6990E-3	-58.9222E-12	866.318E-3	-21.1125E-3
-1.88344E-3	-58.7501E-12	861.512E-3	-11.7851E-3	-58.9869E-12	871.718E-3	-15.4785E-3
-1.88844E-3	-59.4692E-12	862.846E-3	-16.3717E-3	-58.7239E-12	875.398E-3	-4.31412E-3
-1.89345E-3	-59.8967E-12	875.237E-3	-18.2615E-3	-58.9348E-12	863.831E-3	-6.81484E-3
-1.89845E-3	-60.3190E-12	887.083E-3	-20.5220E-3	-59.3389E-12	846.505E-3	-21.0160E-3
-1.90345E-3	-60.6605E-12	898.319E-3	-28.1305E-3	-59.7630E-12	840.583E-3	-31.3792E-3
-1.90845E-3	-61.4189E-12	885.424E-3	-25.8003E-3	-59.8620E-12	843.648E-3	-35.2980E-3
-1.91346E-3	-61.9340E-12	855.236E-3	-19.5818E-3	-60.1676E-12	853.410E-3	-29.0164E-3
-1.91846E-3	-62.0612E-12	848.375E-3	-17.1886E-3	-60.6878E-12	868.327E-3	-22.8488E-3
-1.92346E-3	-62.1884E-12	854.392E-3	-14.7413E-3	-61.6260E-12	877.401E-3	-26.5830E-3
-1.92846E-3	-62.3623E-12	851.570E-3	-11.8229E-3	-62.0689E-12	876.593E-3	-18.0743E-3
-1.93347E-3	-62.6420E-12	851.084E-3	-15.0210E-3	-62.1316E-12	861.939E-3	815.046E-6
-1.93847E-3	-62.7012E-12	854.570E-3	-33.4006E-3	-62.5698E-12	850.277E-3	8.25470E-3
-1.94347E-3	-62.8936E-12	866.216E-3	-45.3072E-3	-63.0745E-12	849.816E-3	13.9449E-3
-1.94847E-3	-63.1158E-12	876.920E-3	-37.7080E-3	-63.2647E-12	834.129E-3	13.2197E-3
-1.95348E-3	-63.5655E-12	866.923E-3	-31.7188E-3	-63.2569E-12	816.228E-3	-1.53005E-3
-1.95848E-3	-63.7226E-12	858.682E-3	-35.7680E-3	-63.0573E-12	816.761E-3	-3.44050E-3
-1.96348E-3	-64.3795E-12	859.110E-3	-31.1082E-3	-63.5346E-12	815.915E-3	14.7487E-3
-1.96848E-3	-64.5420E-12	852.416E-3	-8.83610E-3	-63.7247E-12	810.835E-3	16.9362E-3
-1.97349E-3	-65.2000E-12	845.206E-3	461.505E-6	-64.0129E-12	812.990E-3	-3.97818E-3
-1.97849E-3	-65.3140E-12	844.962E-3	-16.4048E-3	-63.8681E-12	823.934E-3	-9.78804E-3
-1.98349E-3	-65.8222E-12	840.429E-3	-27.6920E-3	-64.3658E-12	830.714E-3	-548.680E-6
-1.98849E-3	-66.2664E-12	829.388E-3	-25.9996E-3	-65.0501E-12	821.370E-3	-4.06574E-3
-1.99350E-3	-66.2703E-12	832.647E-3	-18.5947E-3	-65.7494E-12	817.000E-3	-21.0579E-3
-1.99850E-3	-66.4394E-12	834.337E-3	-12.5687E-3	-65.7440E-12	822.158E-3	-31.6677E-3
-2.00350E-3	-66.4393E-12	822.071E-3	-17.8613E-3	-66.1421E-12	827.008E-3	-27.9635E-3
-2.00850E-3	-66.4544E-12	834.775E-3	-22.8734E-3	-67.2332E-12	834.890E-3	-18.8274E-3
-2.01351E-3	-66.4709E-12	850.443E-3	-18.6171E-3	-67.4445E-12	833.539E-3	-11.7764E-3
-2.01851E-3	-66.7045E-12	832.648E-3	-19.3598E-3	-67.5488E-12	821.045E-3	-5.27244E-3
-2.02351E-3	-66.5368E-12	820.971E-3	-20.1755E-3	-67.9775E-12	804.757E-3	-6.41580E-3
-2.02851E-3	-66.5916E-12	821.506E-3	-19.3937E-3	-68.6667E-12	793.046E-3	-14.0521E-3
-2.03352E-3	-66.6102E-12	816.592E-3	-30.8954E-3	-68.6529E-12	796.303E-3	-15.6382E-3
-2.03852E-3	-66.8289E-12	826.107E-3	-28.2013E-3	-68.5594E-12	818.710E-3	-14.3904E-3
-2.04352E-3	-67.3254E-12	837.358E-3	-10.2739E-3	-68.5944E-12	836.846E-3	-15.4359E-3
-2.04852E-3	-67.9415E-12	819.302E-3	-10.9076E-3	-69.1425E-12	824.196E-3	-13.2590E-3
-2.05353E-3	-68.3628E-12	798.773E-3	-12.0528E-3	-68.9498E-12	802.487E-3	-2.64885E-3
-2.05853E-3	-69.1696E-12	803.506E-3	-338.877E-6	-69.0099E-12	792.427E-3	3.74534E-3
-2.06353E-3	-69.7328E-12	819.714E-3	-1.08670E-3	-69.1533E-12	796.805E-3	-4.94231E-3
-2.06853E-3	-70.4702E-12	841.413E-3	-674.988E-6	-69.8416E-12	809.034E-3	-16.8777E-3
-2.07354E-3	-70.6193E-12	846.979E-3	7.99733E-3	-70.1626E-12	814.306E-3	-25.1699E-3
-2.07854E-3	-70.8401E-12	824.121E-3	-3.76507E-3	-70.2485E-12	810.400E-3	-25.4109E-3
-2.08354E-3	-70.8347E-12	807.502E-3	-13.0138E-3	-70.5472E-12	804.399E-3	-18.5426E-3
-2.08854E-3	-70.6368E-12	804.291E-3	2.09140E-3	-70.8368E-12	796.227E-3	-17.6739E-3
-2.09355E-3	-70.6699E-12	803.825E-3	12.5227E-3	-71.3069E-12	782.952E-3	-22.8145E-3
-2.09855E-3	-70.4785E-12	805.797E-3	7.92375E-3	-71.8479E-12	779.109E-3	-25.5694E-3
-2.10355E-3	-70.3742E-12	803.638E-3	3.85083E-3	-72.2808E-12	788.382E-3	-19.3787E-3
-2.10855E-3	-70.0771E-12	802.908E-3	7.20533E-3	-72.2212E-12	795.872E-3	-18.3300E-3
-2.11356E-3	-70.7534E-12	790.343E-3	11.4198E-3	-72.1904E-12	791.787E-3	-27.0930E-3
-2.11856E-3	-71.2134E-12	764.136E-3	2.14913E-3	-72.3770E-12	777.752E-3	-33.5780E-3
-2.12356E-3	-71.7851E-12	757.856E-3	-14.7341E-3	-72.5642E-12	768.305E-3	-30.2284E-3
-2.12856E-3	-72.0273E-12	777.956E-3	-27.2923E-3	-72.3618E-12	764.333E-3	-23.0682E-3
-2.13357E-3	-72.9800E-12	791.262E-3	-24.8590E-3	-72.3436E-12	758.616E-3	-21.7473E-3
-2.13857E-3	-73.7966E-12	781.217E-3	-14.3389E-3	-72.4088E-12	761.696E-3	-11.6570E-3
-2.14357E-3	-74.5837E-12	779.561E-3	-18.5595E-3	-72.7869E-12	769.124E-3	1.04667E-3
-2.14857E-3	-75.1361E-12	798.281E-3	-24.6128E-3	-72.7019E-12	769.309E-3	-4.98493E-3
-2.15358E-3	-76.2187E-12	811.672E-3	-20.4060E-3	-72.5982E-12	769.107E-3	-8.73297E-3
-2.15858E-3	-76.7698E-12	821.814E-3	-17.7417E-3	-73.0799E-12	759.478E-3	-9.63871E-3
-2.16358E-3	-77.3635E-12	831.075E-3	-22.6192E-3	-74.3052E-12	748.721E-3	-17.6439E-3
-2.16858E-3	-77.1163E-12	810.618E-3	-21.2081E-3	-74.7789E-12	761.821E-3	-16.3826E-3
-2.17359E-3	-77.1328E-12	787.889E-3	-9.06788E-3	-74.5742E-12	777.534E-3	-17.6935E-3
-2.17859E-3	-76.8602E-12	796.292E-3	-2.91834E-3	-75.0602E-12	773.081E-3	-28.0082E-3
-2.18359E-3	-76.8199E-12	804.236E-3	-3.67147E-3	-75.8159E-12	766.740E-3	-29.9317E-3
-2.18859E-3	-76.4278E-12	790.075E-3	-5.28025E-3	-76.4853E-12	768.842E-3	-20.2664E-3
-2.19360E-3	-76.1353E-12	773.437E-3	1.90268E-3	-76.1989E-12	772.846E-3	-9.93892E-3
-2.19860E-3	-75.6283E-12	766.294E-3	21.9991E-3	-76.2696E-12	781.347E-3	-4.13752E-3
-2.20360E-3	-75.8286E-12	773.746E-3	26.5282E-3	-76.7710E-12	777.114E-3	725.158E-6
-2.20860E-3	-76.0024E-12	791.477E-3	-201.172E-6	-77.3316E-12	749.271E-3	-809.675E-6
-2.21361E-3	-76.3744E-12	786.037E-3	-25.4582E-3	-77.4455E-12	731.001E-3	-13.1435E-3
-2.21861E-3	-76.3737E-12	769.594E-3	-32.2007E-3	-76.9625E-12	736.244E-3	-19.4743E-3
-2.22361E-3	-77.2420E-12	777.297E-3	-37.7314E-3	-77.1069E-12	750.247E-3	-20.2131E-3
-2.22861E-3	-78.1236E-12	774.691E-3	-39.6226E-3	-77.2354E-12	759.997E-3	-22.3222E-3
-2.23362E-3	-79.3861E-12	749.983E-3	-34.4921E-3	-77.9528E-12	766.487E-3	-23.7697E-3
-2.23862E-3	-79.7289E-12	749.127E-3	-32.8497E-3	-77.6231E-12	772.211E-3	-24.4610E-3
-2.24362E-3	-80.1608E-12	774.383E-3	-30.8146E-3	-77.9953E-12	765.094E-3	-23.3501E-3
-2.24862E-3	-80.6756E-12	782.490E-3	-18.3367E-3	-78.8769E-12	752.501E-3	-22.1762E-3
-2.25363E-3	-81.2653E-12	773.037E-3	-14.1210E-3	-79.8158E-12	747.052E-3	-21.8738E-3
-2.25863E-3	-81.3309E-12	789.658E-3	-18.7593E-3	-80.1949E-12	750.434E-3	-14.5914E-3
-2.26363E-3	-80.8049E-12	802.726E-3	-16.9588E-3	-80.4705E-12	764.118E-3	-13.7126E-3
-2.26863E-3	-80.5936E-12	779.477E-3	-26.2062E-3	-80.5285E-12	778.905E-3	-27.2288E-3
-2.27364E-3	-80.2521E-12	758.192E-3	-38.3405E-3	-81.2915E-12	784.537E-3	-34.1199E-3
-2.27864E-3	-80.2462E-12	746.735E-3	-21.8083E-3	-82.0360E-12	780.740E-3	-31.2771E-3
-2.28364E-3	-79.5845E-12	741.744E-3	-4.02729E-3	-82.2553E-12	773.886E-3	-27.3049E-3
-2.28864E-3	-79.2793E-12	742.623E-3	-17.0463E-3	-82.0374E-12	769.646E-3	-22.4914E-3
-2.29365E-3	-79.9235E-12	726.580E-3	-32.0406E-3	-82.1540E-12	759.831E-3	-11.9502E-3
-2.29865E-3	-80.1975E-12	710.789E-3	-45.0791E-3	-82.5890E-12	746.075E-3	-11.6596E-3
-2.30365E-3	-80.2913E-12	717.275E-3	-49.8814E-3	-82.6062E-12	741.558E-3	-23.9288E-3
-2.30865E-3	-80.4454E-12	725.760E-3	-29.6519E-3	-81.8403E-12	740.728E-3	-23.0097E-3
-2.31366E-3	-81.2800E-12	732.405E-3	-11.0026E-3	-81.4068E-12	734.814E-3	-15.6808E-3
-2.31866E-3	-82.4288E-12	743.571E-3	-9.66481E-3	-81.6467E-12	724.127E-3	-12.8708E-3
-2.32366E-3	-82.7239E-12	748.418E-3	-5.10064E-3	-82.2410E-12	720.238E-3	-1.50161E-3
-2.32866E-3	-82.8598E-12	739.392E-3	5.15267E-3	-82.2404E-12	730.974E-3	-4.37818E-3
-2.33367E-3	-83.1178E-12	732.663E-3	-7.21536E-3	-82.3902E-12	751.446E-3	-23.1487E-3
-2.33867E-3	-83.8572E-12	732.932E-3	-27.5263E-3	-82.5723E-12	769.541E-3	-31.9401E-3
-2.34367E-3	-84.3792E-12	727.401E-3	-20.8067E-3	-83.6530E-12	762.450E-3	-31.1770E-3
-2.34867E-3	-84.3755E-12	735.023E-3	-7.25210E-3	-84.1853E-12	741.643E-3	-23.8085E-3
-2.35368E-3	-83.9914E-12	754.856E-3	-20.6137E-3	-84.8570E-12	730.584E-3	-12.4831E-3
-2.35868E-3	-84.2028E-12	756.628E-3	-40.9630E-3	-85.0024E-12	726.325E-3	-4.36794E-3
-2.36368E-3	-84.4103E-12	753.235E-3	-42.2847E-3	-85.3555E-12	735.004E-3	-14.3283E-3
-2.36868E-3	-84.7233E-12	748.933E-3	-27.0716E-3	-85.5911E-12	742.389E-3	-28.5266E-3
-2.37369E-3	-84.2640E-12	730.448E-3	-16.4125E-3	-85.9348E-12	738.061E-3	-14.7481E-3
-2.37869E-3	-84.6617E-12	726.482E-3	-20.9561E-3	-86.0969E-12	732.709E-3	-1.90125E-3
-2.38369E-3	-85.2831E-12	744.185E-3	-13.8756E-3	-85.7803E-12	729.637E-3	-21.2917E-3
-2.38869E-3	-85.6604E-12	744.933E-3	-1.58164E-3	-85.9751E-12	730.526E-3	-29.6187E-3
-2.39370E-3	-85.8281E-12	735.879E-3	-2.52333E-3	-86.0226E-12	727.573E-3	-7.88471E-3
-2.39870E-3	-86.2252E-12	738.648E-3	2.38657E-3	-86.2093E-12	718.076E-3	3.48878E-3
-2.40370E-3	-87.0999E-12	736.890E-3	9.22642E-3	-85.8584E-12	716.426E-3	-9.60350E-3
-2.40870E-3	-87.7223E-12	734.549E-3	3.25470E-3	-85.6415E-12	716.554E-3	-29.2289E-3
-2.41371E-3	-88.3604E-12	739.654E-3	-10.4881E-3	-85.9838E-12	712.784E-3	-35.3751E-3
-2.41871E-3	-88.6896E-12	747.196E-3	-18.4990E-3	-86.4357E-12	716.299E-3	-28.3465E-3
-2.42371E-3	-89.1078E-12	758.635E-3	-13.9305E-3	-86.6423E-12	726.604E-3	-22.1266E-3
-2.42871E-3	-88.9506E-12	767.616E-3	-531.284E-6	-87.1876E-12	735.365E-3	-22.7469E-3
-2.43372E-3	-88.8094E-12	756.663E-3	4.89665E-3	-87.9105E-12	735.081E-3	-30.8512E-3
-2.43872E-3	-88.1374E-12	733.900E-3	-6.23288E-3	-88.1606E-12	729.194E-3	-36.6743E-3
-2.44372E-3	-87.9080E-12	734.190E-3	-7.17418E-3	-88.5564E-12	729.211E-3	-36.3672E-3
-2.44872E-3	-87.7698E-12	746.283E-3	9.09431E-3	-88.9743E-12	727.916E-3	-31.3210E-3
-2.45373E-3	-87.6014E-12	739.229E-3	11.8439E-3	-89.5927E-12	719.757E-3	-26.8541E-3
-2.45873E-3	-87.3559E-12	732.668E-3	462.647E-6	-89.7248E-12	710.387E-3	-28.4460E-3
-2.46373E-3	-88.0123E-12	736.886E-3	1.32105E-3	-89.9064E-12	709.684E-3	-22.8576E-3
-2.46873E-3	-88.6931E-12	727.147E-3	2.44330E-3	-90.4653E-12	716.809E-3	-12.0150E-3
-2.47374E-3	-88.8540E-12	709.408E-3	-1.70116E-3	-90.8786E-12	716.721E-3	-8.00307E-3
-2.47874E-3	-89.1785E-12	702.793E-3	-4.26916E-3	-90.6050E-12	712.548E-3	-8.06960E-3
-2.48374E-3	-90.0098E-12	696.069E-3	-20.2851E-3	-89.8955E-12	710.682E-3	-10.7187E-3
-2.48874E-3	-91.3856E-12	689.280E-3	-36.9676E-3	-90.7865E-12	707.611E-3	-14.1093E-3
-2.49375E-3	-91.4071E-12	692.454E-3	-25.8170E-3	-90.9939E-12	698.795E-3	-12.2966E-3
-2.49875E-3	-92.1894E-12	700.733E-3	-8.00382E-3	-91.2229E-12	702.700E-3	-10.3001E-3
-2.50375E-3	-92.6166E-12	726.479E-3	-1.95166E-3	-90.9992E-12	723.056E-3	-13.4011E-3
-2.50875E-3	-93.1160E-12	760.512E-3	-1.81685E-3	-91.0002E-12	727.070E-3	-15.6266E-3
-2.51376E-3	-92.7145E-12	770.415E-3	-21.2874E-3	-91.6675E-12	715.639E-3	-10.0086E-3
-2.51876E-3	-92.4829E-12	767.207E-3	-44.9899E-3	-92.1598E-12	715.076E-3	-10.1219E-3
-2.52376E-3	-92.0201E-12	754.308E-3	-44.9313E-3	-92.2330E-12	717.444E-3	-26.9307E-3
-2.52876E-3	-91.7917E-12	728.696E-3	-39.1825E-3	-91.8665E-12	705.912E-3	-34.9729E-3
-2.53377E-3	-91.8092E-12	720.928E-3	-41.1151E-3	-92.4515E-12	688.762E-3	-37.5644E-3
-2.53877E-3	-91.8846E-12	717.008E-3	-29.6776E-3	-92.9355E-12	693.083E-3	-44.6178E-3
-2.54377E-3	-91.9171E-12	702.157E-3	-6.80990E-3	-92.8868E-12	711.323E-3	-36.3986E-3
-2.54877E-3	-91.6584E-12	702.043E-3	4.68019E-3	-92.8776E-12	716.617E-3	-33.1414E-3
-2.55378E-3	-92.3935E-12	709.346E-3	-3.47535E-3	-93.2335E-12	715.470E-3	-40.1982E-3
-2.55878E-3	-93.2979E-12	695.830E-3	-19.2703E-3	-93.1688E-12	716.458E-3	-33.7312E-3
-2.56378E-3	-94.1956E-12	674.922E-3	-38.5893E-3	-93.6718E-12	717.804E-3	-28.9176E-3
-2.56878E-3	-94.5360E-12	690.475E-3	-52.1740E-3	-93.8701E-12	708.892E-3	-29.6192E-3
-2.57379E-3	-95.4512E-12	712.303E-3	-32.9878E-3	-94.6315E-12	695.408E-3	-18.8184E-3
-2.57879E-3	-96.8555E-12	705.067E-3	43.9893E-6	-94.1530E-12	701.704E-3	-24.3319E-3
-2.58379E-3	-97.8220E-12	707.499E-3	11.1678E-3	-94.7053E-12	704.467E-3	-26.9138E-3
-2.58879E-3	-98.1140E-12	719.729E-3	-386.649E-6	-94.5679E-12	699.254E-3	-11.7202E-3
-2.59380E-3	-98.0719E-12	721.172E-3	-14.1735E-3	-95.5406E-12	712.659E-3	-20.6290E-3
-2.59880E-3	-98.0982E-12	721.449E-3	936.741E-6	-95.9159E-12	725.109E-3	-17.0213E-3
-2.60380E-3	-98.1535E-12	710.412E-3	29.7501E-3	-96.0261E-12	721.453E-3	12.2651E-3
-2.60880E-3	-97.6583E-12	707.018E-3	23.1486E-3	-96.6220E-12	707.370E-3	9.66171E-3
-2.61381E-3	-97.1781E-12	731.410E-3	-8.87484E-3	-97.7424E-12	705.359E-3	-28.8738E-3
-2.61881E-3	-96.5855E-12	740.231E-3	-13.8072E-3	-98.4037E-12	714.365E-3	-51.6249E-3
-2.62381E-3	-96.3451E-12	724.906E-3	1.18888E-3	-98.0334E-12	715.145E-3	-42.4077E-3
-2.62881E-3	-96.2157E-12	713.257E-3	-6.04425E-3	-98.4067E-12	726.464E-3	-25.8517E-3
-2.63382E-3	-96.7100E-12	695.689E-3	-19.4499E-3	-98.4503E-12	734.482E-3	-17.7031E-3
-2.63882E-3	-96.8124E-12	675.647E-3	-22.2999E-3	-98.6185E-12	724.082E-3	-21.5137E-3
-2.64382E-3	-96.9295E-12	689.755E-3	-22.0302E-3	-98.5156E-12	715.572E-3	-24.9495E-3
-2.64882E-3	-97.7006E-12	722.616E-3	-7.46470E-3	-98.2494E-12	712.655E-3	-24.4741E-3
-2.65383E-3	-98.4529E-12	731.019E-3	-3.06159E-3	-98.0413E-12	712.563E-3	-24.7011E-3
-2.65883E-3	-99.4085E-12	724.626E-3	-24.8915E-3	-98.8761E-12	703.118E-3	-27.2441E-3
-2.66383E-3	-99.9639E-12	719.749E-3	-31.4978E-3	-99.4677E-12	695.543E-3	-24.8579E-3
-2.66883E-3	-100.431E-12	717.067E-3	-25.4158E-3	-99.7147E-12	707.057E-3	-12.5174E-3
-2.67384E-3	-101.087E-12	721.175E-3	-25.6483E-3	-99.5248E-12	719.693E-3	-4.52304E-3
-2.67884E-3	-101.729E-12	726.296E-3	-22.8691E-3	-99.8803E-12	725.508E-3	1.52623E-3
-2.68384E-3	-101.744E-12	735.229E-3	-19.2306E-3	-100.907E-12	729.517E-3	4.39173E-3
-2.68884E-3	-101.247E-12	748.882E-3	-22.3802E-3	-101.262E-12	731.687E-3	-8.99741E-3
-2.69385E-3	-100.779E-12	739.452E-3	-22.5971E-3	-101.281E-12	733.638E-3	-22.5507E-3
-2.69885E-3	-100.845E-12	727.164E-3	-14.5231E-3	-102.032E-12	732.082E-3	-16.9651E-3
-2.70385E-3	-100.513E-12	726.462E-3	-22.7397E-3	-102.617E-12	717.038E-3	-9.75565E-3
-2.70885E-3	-99.6668E-12	718.358E-3	-38.6399E-3	-102.677E-12	698.209E-3	-20.2313E-3
-2.71386E-3	-99.5611E-12	699.439E-3	-42.4590E-3	-102.172E-12	706.926E-3	-34.4283E-3
-2.71886E-3	-99.7810E-12	685.374E-3	-41.8330E-3	-102.134E-12	727.772E-3	-38.1585E-3
-2.72386E-3	-99.8504E-12	698.316E-3	-29.1773E-3	-102.405E-12	717.263E-3	-28.8399E-3
-2.72886E-3	-100.031E-12	704.870E-3	-14.8681E-3	-101.909E-12	695.023E-3	-11.9872E-3
-2.73387E-3	-101.005E-12	702.274E-3	-26.9635E-3	-101.415E-12	694.404E-3	-15.3872E-3
-2.73887E-3	-102.129E-12	708.820E-3	-39.1623E-3	-101.687E-12	697.860E-3	-30.9333E-3
-2.74387E-3	-102.974E-12	701.311E-3	-22.8994E-3	-101.701E-12	688.866E-3	-24.1954E-3
-2.74887E-3	-103.392E-12	689.060E-3	-13.3431E-3	-101.984E-12	692.608E-3	-12.7904E-3
-2.75388E-3	-104.710E-12	696.680E-3	-20.5033E-3	-101.933E-12	692.610E-3	-9.57123E-3
-2.75888E-3	-105.991E-12	700.562E-3	-11.4348E-3	-102.458E-12	677.180E-3	-9.36775E-3
-2.76388E-3	-106.221E-12	688.960E-3	-7.69391E-3	-102.838E-12	692.775E-3	-16.7651E-3
-2.76888E-3	-106.057E-12	684.299E-3	-19.2657E-3	-102.949E-12	722.553E-3	-16.1051E-3
-2.77389E-3	-106.318E-12	688.583E-3	-14.8717E-3	-102.873E-12	722.029E-3	873.623E-6
-2.77889E-3	-106.409E-12	697.383E-3	-2.61554E-3	-103.741E-12	718.842E-3	11.8519E-3
-2.78389E-3	-106.672E-12	713.303E-3	-3.19986E-3	-104.819E-12	706.282E-3	4.55381E-3
-2.78889E-3	-105.781E-12	729.388E-3	-11.6896E-3	-104.180E-12	678.805E-3	-15.7180E-3
-2.79390E-3	-105.284E-12	721.081E-3	-20.2328E-3	-104.449E-12	684.238E-3	-27.2950E-3
-2.79890E-3	-105.170E-12	698.347E-3	-27.7411E-3	-104.855E-12	693.682E-3	-25.8909E-3
-2.80390E-3	-105.190E-12	694.957E-3	-21.7096E-3	-105.575E-12	674.358E-3	-34.9792E-3
-2.80890E-3	-105.120E-12	689.498E-3	-15.6533E-3	-104.482E-12	657.908E-3	-25.8822E-3
-2.81391E-3	-104.951E-12	676.480E-3	-23.5484E-3	-105.130E-12	656.784E-3	-5.96755E-3
-2.81891E-3	-105.051E-12	675.716E-3	-19.0986E-3	-105.718E-12	664.194E-3	-13.1760E-3
-2.82391E-3	-105.988E-12	662.093E-3	-3.09631E-3	-106.027E-12	691.417E-3	-22.8185E-3
-2.82891E-3	-107.543E-12	663.155E-3	-3.58512E-3	-105.796E-12	711.149E-3	-32.4772E-3
-2.83392E-3	-108.503E-12	690.403E-3	-18.1328E-3	-105.839E-12	709.938E-3	-28.2736E-3
-2.83892E-3	-108.437E-12	698.649E-3	-28.3486E-3	-106.316E-12	718.318E-3	-5.32847E-3
-2.84392E-3	-108.252E-12	704.370E-3	-20.4824E-3	-107.048E-12	715.089E-3	3.69237E-3
-2.84892E-3	-109.479E-12	719.115E-3	5.36517E-3	-107.480E-12	696.893E-3	2.50202E-3
-2.85393E-3	-110.093E-12	717.466E-3	16.6865E-3	-107.577E-12	695.312E-3	-929.975E-6
-2.85893E-3	-109.514E-12	703.742E-3	13.9508E-3	-108.511E-12	700.584E-3	-8.82057E-3
-2.86393E-3	-109.184E-12	699.472E-3	14.6594E-3	-109.591E-12	696.216E-3	-17.4217E-3
-2.86893E-3	-109.182E-12	701.824E-3	4.26497E-3	-109.966E-12	691.968E-3	-17.0843E-3
-2.87394E-3	-109.148E-12	707.327E-3	-12.5308E-3	-110.412E-12	697.772E-3	-22.7703E-3
-2.87894E-3	-108.436E-12	713.416E-3	-11.6865E-3	-110.250E-12	701.030E-3	-37.4089E-3
-2.88394E-3	-107.750E-12	702.639E-3	4.91672E-3	-111.608E-12	702.752E-3	-36.6575E-3
-2.88894E-3	-107.592E-12	687.593E-3	-136.326E-6	-111.478E-12	716.488E-3	-32.7353E-3
-2.89395E-3	-108.004E-12	689.666E-3	-14.0857E-3	-111.534E-12	725.486E-3	-25.3318E-3
-2.89895E-3	-108.260E-12	688.984E-3	-7.54287E-3	-110.762E-12	711.587E-3	1.17213E-3
-2.90395E-3	-108.117E-12	684.775E-3	10.8476E-3	-111.244E-12	707.532E-3	9.56900E-3
-2.90895E-3	-108.262E-12	696.228E-3	23.6538E-3	-111.771E-12	716.997E-3	-17.5824E-3
-2.91396E-3	-109.286E-12	693.506E-3	15.7719E-3	-112.039E-12	712.181E-3	-34.4986E-3
-2.91896E-3	-110.213E-12	677.370E-3	-375.898E-6	-111.898E-12	720.352E-3	-31.9998E-3
-2.92396E-3	-110.483E-12	688.991E-3	-10.5457E-3	-111.397E-12	730.657E-3	-21.8644E-3
-2.92896E-3	-111.529E-12	704.266E-3	-11.6142E-3	-111.897E-12	709.213E-3	-2.83659E-3
-2.93397E-3	-111.995E-12	691.518E-3	-6.06145E-3	-112.394E-12	702.300E-3	7.29538E-3
-2.93897E-3	-112.143E-12	685.152E-3	-16.8105E-3	-112.527E-12	722.487E-3	-7.90787E-3
-2.94397E-3	-111.775E-12	687.023E-3	-37.7977E-3	-112.468E-12	709.236E-3	-28.3729E-3
-2.94897E-3	-112.400E-12	682.929E-3	-35.6797E-3	-112.614E-12	678.977E-3	-31.9800E-3
-2.95398E-3	-112.828E-12	703.898E-3	-22.2618E-3	-113.000E-12	680.929E-3	-22.3345E-3
-2.95898E-3	-112.465E-12	720.157E-3	-12.9076E-3	-112.992E-12	694.033E-3	-17.1356E-3
-2.96398E-3	-111.727E-12	692.898E-3	-12.2736E-3	-113.417E-12	704.821E-3	-33.2403E-3
-2.96898E-3	-112.145E-12	667.209E-3	-24.4710E-3	-113.533E-12	711.938E-3	-50.9650E-3
-2.97399E-3	-112.355E-12	652.146E-3	-24.3386E-3	-113.506E-12	696.078E-3	-39.5848E-3
-2.97899E-3	-112.722E-12	635.536E-3	-13.8410E-3	-113.226E-12	680.588E-3	-24.0588E-3
-2.98399E-3	-113.719E-12	657.453E-3	-16.3512E-3	-113.433E-12	676.426E-3	-34.4418E-3
-2.98899E-3	-114.358E-12	705.183E-3	-13.5141E-3	-113.498E-12	667.124E-3	-30.9066E-3
-2.99400E-3	-114.998E-12	731.653E-3	-7.77543E-3	-113.486E-12	668.943E-3	-10.9720E-3
-2.99900E-3	-115.745E-12	728.119E-3	-7.75198E-3	-113.795E-12	690.724E-3	-20.9587E-3
-3.00400E-3	-116.305E-12	722.903E-3	-6.90423E-3	-113.976E-12	710.605E-3	-29.8085E-3
-3.00900E-3	-117.566E-12	730.618E-3	-11.2736E-3	-114.339E-12	704.534E-3	-6.25786E-3
-3.01401E-3	-118.096E-12	720.626E-3	-24.0880E-3	-114.593E-12	689.888E-3	97.4992E-6
-3.01901E-3	-118.228E-12	706.828E-3	-28.0619E-3	-115.101E-12	684.999E-3	-17.5492E-3
-3.02401E-3	-118.304E-12	712.746E-3	-31.1102E-3	-114.693E-12	686.808E-3	-18.2432E-3
-3.02901E-3	-118.729E-12	721.463E-3	-52.8414E-3	-115.427E-12	679.066E-3	-19.6161E-3
-3.03402E-3	-118.596E-12	723.086E-3	-51.4118E-3	-116.337E-12	660.537E-3	-22.0470E-3
-3.03902E-3	-117.685E-12	714.599E-3	-11.3836E-3	-116.326E-12	652.946E-3	-12.8653E-3
-3.04402E-3	-116.908E-12	688.350E-3	13.5949E-3	-117.012E-12	662.291E-3	-19.3800E-3
-3.04902E-3	-116.919E-12	670.133E-3	-466.972E-6	-117.433E-12	677.855E-3	-42.5370E-3
-3.05403E-3	-116.530E-12	675.162E-3	-19.9024E-3	-117.913E-12	685.764E-3	-54.0396E-3
-3.05903E-3	-116.041E-12	672.914E-3	-31.8990E-3	-117.798E-12	689.006E-3	-32.0163E-3
-3.06403E-3	-115.931E-12	661.615E-3	-42.2776E-3	-118.000E-12	687.848E-3	-12.6627E-3
-3.06903E-3	-116.097E-12	666.095E-3	-46.2615E-3	-118.657E-12	689.028E-3	-6.40697E-3
-3.07404E-3	-116.402E-12	673.249E-3	-43.6208E-3	-118.734E-12	707.984E-3	4.08311E-3
-3.07904E-3	-117.094E-12	673.348E-3	-28.5542E-3	-118.694E-12	708.110E-3	-13.0201E-3
-3.08404E-3	-118.481E-12	684.410E-3	-9.45446E-3	-118.232E-12	684.519E-3	-22.4201E-3
-3.08904E-3	-119.730E-12	682.965E-3	-2.31321E-3	-119.327E-12	690.584E-3	-14.4019E-3
-3.09405E-3	-120.801E-12	667.282E-3	-3.83316E-3	-119.721E-12	702.388E-3	-28.5057E-3
-3.09905E-3	-121.159E-12	677.762E-3	-5.61798E-3	-119.566E-12	687.605E-3	-31.9840E-3
-3.10405E-3	-121.919E-12	691.253E-3	-2.94102E-3	-119.820E-12	686.975E-3	-15.8311E-3
-3.10905E-3	-122.228E-12	688.618E-3	-19.7261E-3	-120.226E-12	702.432E-3	-15.9811E-3
-3.11406E-3	-122.656E-12	693.803E-3	-58.2872E-3	-120.262E-12	704.544E-3	-19.8665E-3
-3.11906E-3	-121.830E-12	692.528E-3	-66.8156E-3	-120.461E-12	709.419E-3	-7.37104E-3
-3.12406E-3	-121.572E-12	693.574E-3	-41.3081E-3	-121.080E-12	707.515E-3	-3.05804E-3
-3.12906E-3	-120.751E-12	705.047E-3	-24.3916E-3	-121.112E-12	689.472E-3	-3.84366E-3
-3.13407E-3	-120.680E-12	697.181E-3	-24.0858E-3	-120.817E-12	684.405E-3	-1.09229E-3
-3.13907E-3	-119.589E-12	686.514E-3	-34.9432E-3	-121.042E-12	685.634E-3	807.137E-6
-3.14407E-3	-119.124E-12	689.354E-3	-43.7075E-3	-121.478E-12	681.320E-3	-9.61920E-3
-3.14907E-3	-118.967E-12	692.047E-3	-38.4574E-3	-121.461E-12	688.922E-3	-23.2708E-3
-3.15408E-3	-118.782E-12	669.924E-3	-26.5955E-3	-121.401E-12	696.663E-3	-23.2177E-3
-3.15908E-3	-119.788E-12	647.365E-3	-14.4785E-3	-120.897E-12	688.636E-3	-27.0676E-3
-3.16408E-3	-120.105E-12	658.548E-3	-15.0583E-3	-120.701E-12	688.937E-3	-34.8185E-3
-3.16908E-3	-120.801E-12	670.928E-3	-17.5220E-3	-120.970E-12	697.988E-3	-33.5543E-3
-3.17409E-3	-121.442E-12	672.690E-3	-12.4147E-3	-120.817E-12	680.635E-3	-22.5348E-3
-3.17909E-3	-123.586E-12	670.317E-3	-13.3058E-3	-121.565E-12	655.746E-3	-5.90492E-3
-3.18409E-3	-125.040E-12	668.290E-3	-20.9684E-3	-121.719E-12	666.316E-3	-14.2242E-3
-3.18909E-3	-125.733E-12	679.672E-3	-27.4975E-3	-121.930E-12	676.711E-3	-42.2277E-3
-3.19410E-3	-126.472E-12	688.840E-3	-24.8487E-3	-122.004E-12	667.252E-3	-41.0527E-3
-3.19910E-3	-127.322E-12	678.010E-3	-18.9949E-3	-122.804E-12	665.245E-3	-17.1917E-3
-3.20410E-3	-127.522E-12	675.325E-3	-27.1103E-3	-123.442E-12	663.108E-3	-14.4392E-3
-3.20910E-3	-126.642E-12	687.813E-3	-30.3404E-3	-123.440E-12	667.197E-3	-26.5739E-3
-3.21411E-3	-126.109E-12	685.423E-3	-20.0982E-3	-123.082E-12	686.921E-3	-34.9040E-3
-3.21911E-3	-125.964E-12	682.135E-3	-23.6618E-3	-123.770E-12	692.976E-3	-44.1572E-3
-3.22411E-3	-125.284E-12	697.579E-3	-43.6064E-3	-124.754E-12	687.190E-3	-27.1089E-3
-3.22911E-3	-124.179E-12	709.554E-3	-51.3646E-3	-124.530E-12	694.068E-3	-10.7013E-3
-3.23412E-3	-124.232E-12	703.091E-3	-42.7822E-3	-124.447E-12	685.665E-3	-22.0591E-3
-3.23912E-3	-124.310E-12	700.655E-3	-23.3346E-3	-125.001E-12	652.722E-3	-18.4355E-3
-3.24412E-3	-124.361E-12	695.061E-3	-8.77156E-3	-125.896E-12	655.989E-3	-9.08924E-3
-3.24912E-3	-124.487E-12	680.711E-3	-19.7370E-3	-126.247E-12	691.343E-3	-20.4853E-3
-3.25413E-3	-124.597E-12	686.161E-3	-27.2846E-3	-126.425E-12	692.145E-3	-27.3274E-3
-3.25913E-3	-126.012E-12	678.953E-3	-27.0303E-3	-127.008E-12	676.737E-3	-17.0888E-3
-3.26413E-3	-126.829E-12	656.942E-3	-27.6361E-3	-127.641E-12	685.706E-3	-9.43708E-3
-3.26913E-3	-127.667E-12	649.089E-3	-26.6297E-3	-128.062E-12	685.590E-3	343.130E-6
-3.27414E-3	-127.879E-12	637.717E-3	-26.7538E-3	-127.947E-12	677.373E-3	-2.08397E-3
-3.27914E-3	-128.714E-12	637.872E-3	-16.1083E-3	-128.410E-12	680.052E-3	-35.8077E-3
-3.28414E-3	-128.973E-12	656.692E-3	-8.02502E-3	-129.174E-12	663.656E-3	-49.0931E-3
-3.28914E-3	-129.490E-12	659.939E-3	-18.4650E-3	-129.424E-12	655.369E-3	-24.9923E-3
-3.29415E-3	-129.409E-12	653.907E-3	-33.2469E-3	-129.033E-12	677.723E-3	-15.1667E-3
-3.29915E-3	-128.710E-12	679.116E-3	-37.2315E-3	-128.724E-12	680.164E-3	-13.7789E-3
-3.30415E-3	-127.891E-12	696.312E-3	-27.9656E-3	-129.220E-12	666.899E-3	6.28101E-3
-3.30915E-3	-128.088E-12	660.620E-3	-17.8746E-3	-129.724E-12	680.119E-3	16.8400E-3
-3.31416E-3	-128.196E-12	639.055E-3	-27.6846E-3	-129.976E-12	706.831E-3	-593.515E-6
-3.31916E-3	-127.715E-12	649.125E-3	-38.3052E-3	-129.538E-12	730.757E-3	-17.7646E-3
-3.32416E-3	-127.331E-12	644.935E-3	-25.3433E-3	-129.713E-12	737.671E-3	-28.7203E-3
-3.32916E-3	-128.190E-12	646.445E-3	-13.8502E-3	-130.480E-12	714.496E-3	-40.4166E-3
-3.33417E-3	-129.401E-12	672.881E-3	-29.9658E-3	-131.127E-12	686.922E-3	-16.5417E-3
-3.33917E-3	-129.577E-12	682.761E-3	-37.6193E-3	-131.246E-12	686.092E-3	12.9016E-3
-3.34417E-3	-130.511E-12	675.095E-3	-27.1971E-3	-130.825E-12	680.831E-3	-5.81566E-3
-3.34917E-3	-131.850E-12	681.298E-3	-18.2511E-3	-130.967E-12	658.455E-3	-11.6707E-3
-3.35418E-3	-133.023E-12	685.195E-3	-18.0369E-3	-130.994E-12	666.541E-3	14.1497E-3
-3.35918E-3	-133.276E-12	679.049E-3	-22.1344E-3	-131.556E-12	675.560E-3	2.62324E-3
-3.36418E-3	-133.642E-12	689.540E-3	3.96899E-3	-131.383E-12	671.396E-3	-26.1537E-3
-3.36918E-3	-134.589E-12	710.624E-3	23.7675E-3	-130.674E-12	688.396E-3	-41.1784E-3
-3.37419E-3	-134.704E-12	711.903E-3	4.68456E-3	-130.424E-12	685.712E-3	-48.6336E-3
-3.37919E-3	-134.100E-12	705.769E-3	-14.8818E-3	-130.838E-12	645.226E-3	-27.9905E-3
-3.38419E-3	-133.517E-12	700.300E-3	-6.22600E-3	-131.303E-12	632.262E-3	-1.44546E-3
-3.38919E-3	-133.193E-12	699.133E-3	6.95108E-3	-130.252E-12	650.247E-3	-16.2380E-3
-3.39420E-3	-133.165E-12	710.484E-3	-6.80572E-3	-130.106E-12	654.635E-3	-31.9296E-3
-3.39920E-3	-132.636E-12	709.559E-3	-26.5362E-3	-130.655E-12	661.647E-3	-20.2116E-3
-3.40420E-3	-132.590E-12	685.148E-3	-28.7287E-3	-131.157E-12	669.795E-3	-17.6251E-3
-3.40920E-3	-132.915E-12	673.257E-3	-11.9800E-3	-131.095E-12	663.263E-3	-26.6150E-3
-3.41421E-3	-133.506E-12	675.209E-3	4.39663E-3	-131.368E-12	675.551E-3	-33.8355E-3
-3.41921E-3	-134.448E-12	664.972E-3	-19.6163E-3	-131.933E-12	704.514E-3	-27.8301E-3
-3.42421E-3	-134.680E-12	668.449E-3	-56.2482E-3	-132.470E-12	711.988E-3	-14.1490E-3
-3.42921E-3	-134.984E-12	687.983E-3	-53.1166E-3	-133.373E-12	696.817E-3	4.10795E-3
-3.43422E-3	-136.337E-12	691.398E-3	-30.4809E-3	-133.731E-12	691.894E-3	13.2274E-3
-3.43922E-3	-137.459E-12	683.450E-3	-12.7774E-3	-134.418E-12	686.797E-3	-1.88454E-3
-3.44422E-3	-138.186E-12	691.274E-3	-6.58152E-3	-134.316E-12	662.064E-3	-22.1967E-3
-3.44922E-3	-138.344E-12	718.924E-3	-22.3472E-3	-135.324E-12	672.071E-3	-46.4337E-3
-3.45423E-3	-138.224E-12	733.333E-3	-33.2301E-3	-135.433E-12	699.301E-3	-45.3937E-3
-3.45923E-3	-138.470E-12	715.151E-3	-14.3484E-3	-135.950E-12	690.633E-3	-2.46228E-3
-3.46423E-3	-137.989E-12	692.314E-3	-4.49188E-3	-135.612E-12	674.171E-3	13.2087E-3
-3.46923E-3	-136.940E-12	688.128E-3	-3.58597E-3	-135.853E-12	670.285E-3	-1.19316E-3
-3.47424E-3	-136.121E-12	671.961E-3	3.39666E-3	-136.710E-12	662.822E-3	-393.973E-6
-3.47924E-3	-135.337E-12	638.507E-3	-2.98542E-3	-135.908E-12	658.349E-3	-8.69295E-3
-3.48424E-3	-135.214E-12	637.452E-3	-10.6170E-3	-135.964E-12	663.299E-3	-18.7692E-3
-3.48924E-3	-134.589E-12	657.356E-3	-11.1924E-3	-136.459E-12	659.328E-3	-1.41618E-3
-3.49425E-3	-134.310E-12	647.265E-3	-15.2179E-3	-137.580E-12	663.178E-3	4.98932E-3
-3.49925E-3	-134.189E-12	625.946E-3	-30.4431E-3	-137.273E-12	667.847E-3	-16.9694E-3
-3.50425E-3	-135.094E-12	633.711E-3	-41.5993E-3	-137.488E-12	647.976E-3	-15.8213E-3
-3.50925E-3	-136.075E-12	660.271E-3	-35.4408E-3	-138.124E-12	639.708E-3	-5.71436E-3
-3.51426E-3	-136.682E-12	673.617E-3	-35.6719E-3	-139.566E-12	650.255E-3	-25.1659E-3
-3.51926E-3	-137.118E-12	660.687E-3	-34.4103E-3	-139.156E-12	659.110E-3	-32.0430E-3
-3.52426E-3	-138.326E-12	648.649E-3	-25.1900E-3	-139.043E-12	679.789E-3	-11.0161E-3
-3.52926E-3	-139.927E-12	650.802E-3	-30.8018E-3	-140.342E-12	715.802E-3	-9.95262E-3
-3.53427E-3	-141.138E-12	656.455E-3	-24.3781E-3	-141.041E-12	735.021E-3	-28.2285E-3
-3.53927E-3	-140.608E-12	654.041E-3	-15.4840E-3	-140.482E-12	726.938E-3	-27.2251E-3
-3.54427E-3	-141.093E-12	652.510E-3	-25.0948E-3	-139.459E-12	712.978E-3	-34.0131E-3
-3.54927E-3	-141.164E-12	655.684E-3	-16.7671E-3	-140.381E-12	693.972E-3	-51.4493E-3
-3.55428E-3	-141.155E-12	652.624E-3	5.14154E-3	-140.898E-12	697.048E-3	-39.7603E-3
-3.55928E-3	-140.268E-12	669.882E-3	16.3613E-3	-140.769E-12	712.503E-3	-33.6931E-3
-3.56428E-3	-139.791E-12	701.568E-3	14.3863E-3	-139.421E-12	698.382E-3	-35.2862E-3
-3.56928E-3	-139.208E-12	695.776E-3	6.57290E-3	-139.413E-12	681.379E-3	-15.2900E-3
-3.57429E-3	-139.782E-12	671.955E-3	-4.79198E-3	-140.791E-12	669.446E-3	-22.0994E-3
-3.57929E-3	-139.627E-12	674.362E-3	-20.6310E-3	-141.135E-12	655.287E-3	-37.1474E-3
-3.58429E-3	-139.738E-12	678.813E-3	-37.2927E-3	-140.660E-12	665.715E-3	-20.2811E-3
-3.58929E-3	-139.855E-12	666.115E-3	-54.5070E-3	-138.869E-12	666.108E-3	-16.7292E-3
-3.59430E-3	-140.751E-12	653.697E-3	-50.5504E-3	-140.033E-12	619.008E-3	-24.5531E-3
-3.59930E-3	-142.383E-12	650.156E-3	-8.83845E-3	-141.457E-12	591.471E-3	-25.1663E-3
-3.60430E-3	-143.470E-12	655.273E-3	8.54503E-3	-141.479E-12	623.133E-3	-37.3936E-3
-3.60930E-3	-143.474E-12	664.150E-3	-32.5151E-3	-140.008E-12	656.701E-3	-38.5660E-3
-3.61431E-3	-144.115E-12	656.394E-3	-60.7753E-3	-141.033E-12	660.225E-3	-19.4899E-3
-3.61931E-3	-145.321E-12	642.551E-3	-48.5334E-3	-142.761E-12	655.457E-3	-10.8930E-3
-3.62431E-3	-146.060E-12	659.287E-3	-29.3438E-3	-142.086E-12	656.221E-3	-24.4500E-3
-3.62931E-3	-145.722E-12	699.580E-3	-19.0201E-3	-141.891E-12	663.506E-3	-15.2027E-3
-3.63432E-3	-145.082E-12	728.159E-3	-1.70396E-3	-142.263E-12	672.064E-3	11.6725E-3
-3.63932E-3	-145.054E-12	729.340E-3	13.8575E-3	-143.285E-12	664.734E-3	4.00846E-3
-3.64432E-3	-144.866E-12	706.994E-3	10.2460E-3	-143.268E-12	670.261E-3	-13.7168E-3
-3.64932E-3	-143.430E-12	675.147E-3	-4.96853E-3	-143.629E-12	706.393E-3	-23.1517E-3
-3.65433E-3	-142.605E-12	660.106E-3	-8.38906E-3	-144.084E-12	718.660E-3	-35.6153E-3
-3.65933E-3	-142.517E-12	669.521E-3	10.6504E-3	-144.667E-12	693.813E-3	-33.5359E-3
-3.66433E-3	-143.169E-12	667.857E-3	9.10989E-3	-145.064E-12	689.039E-3	-14.0348E-3
-3.66933E-3	-143.280E-12	644.954E-3	-9.63173E-3	-145.281E-12	707.382E-3	-5.98860E-3
-3.67434E-3	-143.290E-12	640.701E-3	-8.70098E-3	-145.983E-12	704.590E-3	-6.71116E-3
-3.67934E-3	-143.851E-12	650.126E-3	-160.724E-6	-146.572E-12	705.545E-3	7.21307E-3
-3.68434E-3	-145.207E-12	646.040E-3	-6.40587E-3	-147.240E-12	712.009E-3	10.2607E-3
-3.68934E-3	-146.035E-12	641.706E-3	-11.8185E-3	-147.412E-12	681.332E-3	-13.3420E-3
-3.69435E-3	-146.902E-12	645.238E-3	-5.81154E-3	-147.620E-12	661.117E-3	-17.8933E-3
-3.69935E-3	-147.265E-12	656.220E-3	-3.37715E-3	-147.844E-12	670.743E-3	-29.3561E-3
-3.70435E-3	-148.348E-12	680.026E-3	-10.5494E-3	-148.157E-12	665.271E-3	-49.5373E-3
-3.70935E-3	-149.133E-12	700.401E-3	-14.6762E-3	-148.590E-12	664.095E-3	-37.1085E-3
-3.71436E-3	-149.213E-12	696.175E-3	-11.5271E-3	-148.731E-12	683.374E-3	-20.9183E-3
-3.71936E-3	-149.124E-12	683.038E-3	-13.8177E-3	-148.587E-12	673.199E-3	-9.97913E-3
-3.72436E-3	-147.933E-12	673.688E-3	-18.0157E-3	-148.414E-12	654.520E-3	2.46829E-3
-3.72936E-3	-148.668E-12	678.450E-3	-25.4790E-3	-148.502E-12	677.666E-3	2.55527E-3
-3.73437E-3	-147.631E-12	700.751E-3	-27.9172E-3	-148.161E-12	689.249E-3	3.70726E-3
-3.73937E-3	-147.039E-12	709.274E-3	-14.6617E-3	-148.530E-12	676.185E-3	19.6445E-3
-3.74437E-3	-145.951E-12	703.406E-3	-9.03741E-3	-149.157E-12	690.885E-3	10.0649E-3
-3.74937E-3	-146.461E-12	700.589E-3	-17.2198E-3	-149.934E-12	713.867E-3	-25.4625E-3
-3.75438E-3	-146.987E-12	683.846E-3	-21.1097E-3	-148.745E-12	717.868E-3	-36.9619E-3
-3.75938E-3	-147.336E-12	657.363E-3	-23.6698E-3	-149.342E-12	710.316E-3	-33.9714E-3
-3.76438E-3	-148.531E-12	664.478E-3	-33.8856E-3	-149.845E-12	685.782E-3	-23.5796E-3
-3.76938E-3	-149.728E-12	683.885E-3	-29.2832E-3	-150.549E-12	666.568E-3	1.90358E-3
-3.77439E-3	-150.959E-12	682.326E-3	-14.5803E-3	-150.215E-12	663.170E-3	6.64445E-3
-3.77939E-3	-151.285E-12	693.394E-3	-8.89836E-3	-150.884E-12	652.632E-3	-15.7124E-3
-3.78439E-3	-152.518E-12	708.259E-3	5.48053E-3	-151.441E-12	647.069E-3	-9.53020E-3
-3.78939E-3	-153.450E-12	688.654E-3	20.4002E-3	-151.372E-12	671.602E-3	6.39459E-3
-3.79440E-3	-154.074E-12	665.836E-3	4.88471E-3	-150.798E-12	688.403E-3	-22.5917E-3
-3.79940E-3	-154.009E-12	676.166E-3	-17.3491E-3	-150.659E-12	669.017E-3	-38.8244E-3
-3.80440E-3	-154.140E-12	699.531E-3	-3.89461E-3	-150.683E-12	657.786E-3	-13.7158E-3
-3.80940E-3	-154.484E-12	714.651E-3	4.73111E-3	-150.540E-12	657.188E-3	-2.91276E-3
-3.81441E-3	-154.182E-12	718.491E-3	-27.7892E-3	-150.374E-12	650.658E-3	-5.33375E-3
-3.81941E-3	-153.530E-12	691.502E-3	-52.8869E-3	-150.100E-12	664.120E-3	-932.861E-6
-3.82441E-3	-152.126E-12	671.682E-3	-38.9592E-3	-149.518E-12	676.549E-3	-22.6503E-3
-3.82941E-3	-151.765E-12	679.356E-3	-16.0708E-3	-149.752E-12	667.101E-3	-47.3302E-3
-3.83442E-3	-151.702E-12	672.975E-3	-13.3806E-3	-150.522E-12	679.101E-3	-48.9020E-3
-3.83942E-3	-152.210E-12	666.932E-3	-27.1034E-3	-150.818E-12	691.925E-3	-63.0005E-3
-3.84442E-3	-151.903E-12	663.672E-3	-39.4030E-3	-151.352E-12	661.361E-3	-56.7908E-3
-3.84942E-3	-152.476E-12	637.993E-3	-25.2471E-3	-151.243E-12	639.693E-3	1.15687E-3
-3.85443E-3	-152.989E-12	628.588E-3	-4.95694E-3	-152.658E-12	660.109E-3	39.9388E-3
-3.85943E-3	-154.656E-12	662.712E-3	-11.9618E-3	-153.218E-12	664.924E-3	23.6599E-3
-3.86443E-3	-155.588E-12	688.961E-3	-13.4769E-3	-153.856E-12	646.852E-3	8.01169E-3
-3.86943E-3	-155.995E-12	677.770E-3	-9.96444E-3	-153.510E-12	653.352E-3	-1.60992E-3
-3.87444E-3	-156.668E-12	680.420E-3	-14.3993E-3	-154.765E-12	668.301E-3	-18.0101E-3
-3.87944E-3	-157.287E-12	723.398E-3	-1.32128E-3	-155.282E-12	672.855E-3	-13.0999E-3
-3.88444E-3	-158.204E-12	729.151E-3	11.9279E-3	-156.027E-12	673.965E-3	-15.9106E-3
-3.88944E-3	-157.364E-12	669.353E-3	-2.41738E-3	-156.068E-12	663.567E-3	-36.4188E-3
-3.89445E-3	-156.782E-12	632.186E-3	-15.2139E-3	-156.372E-12	658.995E-3	-38.7487E-3
-3.89945E-3	-155.870E-12	642.059E-3	15.5812E-3	-156.797E-12	675.527E-3	-39.2805E-3
-3.90445E-3	-155.913E-12	648.823E-3	42.5809E-3	-156.562E-12	692.128E-3	-46.5038E-3
-3.90945E-3	-154.579E-12	664.388E-3	30.7343E-3	-156.623E-12	685.895E-3	-42.0205E-3
-3.91446E-3	-154.319E-12	678.002E-3	18.4687E-3	-156.371E-12	671.048E-3	-28.2405E-3
-3.91946E-3	-153.678E-12	653.395E-3	2.42263E-3	-156.853E-12	661.761E-3	-33.0608E-3
-3.92446E-3	-152.944E-12	636.831E-3	-12.8957E-3	-157.374E-12	658.500E-3	-47.4460E-3
-3.92946E-3	-153.808E-12	651.196E-3	-5.62628E-3	-157.769E-12	663.948E-3	-51.9180E-3
-3.93447E-3	-154.401E-12	659.777E-3	-13.8594E-3	-158.194E-12	662.235E-3	-45.3858E-3
-3.93947E-3	-155.624E-12	655.756E-3	-24.9028E-3	-158.400E-12	654.712E-3	-7.88591E-3
-3.94447E-3	-155.775E-12	652.263E-3	-12.5029E-3	-159.361E-12	670.496E-3	23.3630E-3
-3.94947E-3	-157.073E-12	653.618E-3	-15.2121E-3	-159.373E-12	695.804E-3	6.64851E-3
-3.95448E-3	-158.415E-12	669.165E-3	-21.9917E-3	-159.281E-12	681.003E-3	-8.57199E-3
-3.95948E-3	-159.403E-12	688.066E-3	-15.3533E-3	-159.760E-12	667.769E-3	533.247E-6
-3.96448E-3	-159.298E-12	687.792E-3	-23.3078E-3	-160.158E-12	680.680E-3	-11.4975E-3
-3.96948E-3	-158.949E-12	668.910E-3	-37.2821E-3	-159.475E-12	651.071E-3	-28.3805E-3
-3.97449E-3	-159.693E-12	631.983E-3	-26.6514E-3	-158.784E-12	634.673E-3	-6.91320E-3
-3.97949E-3	-159.272E-12	611.666E-3	-17.3530E-3	-159.188E-12	682.451E-3	16.5446E-3
-3.98449E-3	-159.385E-12	635.584E-3	-25.9440E-3	-159.271E-12	706.838E-3	19.6282E-3
-3.98949E-3	-158.836E-12	668.980E-3	-40.7958E-3	-159.028E-12	705.767E-3	21.9548E-3
-3.99450E-3	-158.788E-12	675.814E-3	-46.2918E-3	-158.298E-12	694.370E-3	702.925E-6
-3.99950E-3	-157.978E-12	673.169E-3	-25.9707E-3	-158.794E-12	658.246E-3	-26.9741E-3
-4.00450E-3	-158.004E-12	669.372E-3	8.94966E-3	-158.937E-12	652.810E-3	-17.1756E-3
-4.00950E-3	-158.548E-12	647.470E-3	19.7317E-3	-158.698E-12	671.551E-3	2.97113E-3
-4.01451E-3	-158.615E-12	624.078E-3	-7.65607E-3	-158.098E-12	674.604E-3	6.68024E-3
-4.01951E-3	-159.385E-12	627.447E-3	-34.4906E-3	-158.100E-12	681.828E-3	5.24778E-3
-4.02451E-3	-161.180E-12	652.608E-3	-45.2582E-3	-159.282E-12	672.846E-3	-6.29028E-3
-4.02951E-3	-162.117E-12	677.261E-3	-34.9744E-3	-159.519E-12	655.991E-3	-16.2527E-3
-4.03452E-3	-162.303E-12	691.785E-3	2.79102E-3	-159.107E-12	680.127E-3	9.20112E-3
-4.03952E-3	-163.391E-12	673.418E-3	7.23375E-3	-158.362E-12	706.798E-3	33.4488E-3
-4.04452E-3	-164.847E-12	633.064E-3	-32.2199E-3	-160.001E-12	683.698E-3	4.18011E-3
-4.04952E-3	-165.086E-12	618.280E-3	-40.3133E-3	-160.871E-12	645.036E-3	-40.5912E-3
-4.05453E-3	-165.012E-12	637.005E-3	-26.4287E-3	-160.966E-12	643.523E-3	-50.5149E-3
-4.05953E-3	-164.901E-12	671.058E-3	-34.1025E-3	-160.517E-12	654.535E-3	-35.9807E-3
-4.06453E-3	-164.796E-12	692.350E-3	-52.5621E-3	-160.825E-12	654.336E-3	-19.1064E-3
-4.06953E-3	-163.844E-12	671.644E-3	-65.1730E-3	-162.240E-12	668.698E-3	-1.64400E-3
-4.07454E-3	-163.025E-12	642.837E-3	-51.5294E-3	-162.097E-12	675.179E-3	-3.22945E-3
-4.07954E-3	-162.826E-12	656.257E-3	-15.7858E-3	-162.064E-12	661.846E-3	-17.5933E-3
-4.08454E-3	-162.417E-12	695.690E-3	3.15499E-3	-161.623E-12	675.194E-3	-20.6838E-3
-4.08954E-3	-161.973E-12	708.873E-3	419.764E-6	-162.756E-12	683.431E-3	-25.5271E-3
-4.09455E-3	-161.741E-12	673.735E-3	4.05807E-3	-162.857E-12	646.820E-3	-6.53232E-3
-4.09955E-3	-161.837E-12	627.964E-3	17.5644E-3	-163.979E-12	641.955E-3	29.5580E-3
-4.10455E-3	-162.855E-12	623.563E-3	13.4518E-3	-164.513E-12	669.698E-3	11.8151E-3
-4.10955E-3	-163.688E-12	662.929E-3	-11.7651E-3	-165.054E-12	664.545E-3	-21.8092E-3
-4.11456E-3	-164.896E-12	691.331E-3	-31.7619E-3	-165.290E-12	661.303E-3	-29.2281E-3
-4.11956E-3	-166.025E-12	679.235E-3	-29.5406E-3	-166.373E-12	666.263E-3	-41.4122E-3
-4.12456E-3	-166.775E-12	648.905E-3	-20.2926E-3	-168.130E-12	655.091E-3	-39.2812E-3
-4.12956E-3	-167.486E-12	630.028E-3	-21.5297E-3	-168.018E-12	665.645E-3	-15.9761E-3
-4.13457E-3	-167.872E-12	638.663E-3	-19.6727E-3	-167.523E-12	687.306E-3	-9.00391E-3
-4.13957E-3	-168.583E-12	664.979E-3	-11.5181E-3	-167.437E-12	676.912E-3	-10.1210E-3
-4.14457E-3	-168.382E-12	678.283E-3	-5.91453E-3	-168.726E-12	658.243E-3	2.22573E-3
-4.14957E-3	-167.650E-12	672.989E-3	6.56823E-3	-168.904E-12	651.372E-3	-18.2347E-3
-4.15458E-3	-167.259E-12	679.024E-3	11.1565E-3	-168.185E-12	642.775E-3	-50.1331E-3
-4.15958E-3	-166.267E-12	675.506E-3	-7.55331E-3	-167.509E-12	639.790E-3	-25.2433E-3
-4.16458E-3	-166.252E-12	655.196E-3	-32.2700E-3	-167.660E-12	662.599E-3	-3.20185E-3
-4.16958E-3	-166.275E-12	654.605E-3	-65.4005E-3	-168.279E-12	671.301E-3	-29.9813E-3
-4.17459E-3	-165.476E-12	665.573E-3	-58.1141E-3	-168.230E-12	649.457E-3	-42.8935E-3
-4.17959E-3	-165.392E-12	671.354E-3	-3.46797E-3	-167.587E-12	650.032E-3	-13.1538E-3
-4.18459E-3	-165.440E-12	669.478E-3	846.409E-6	-168.171E-12	681.344E-3	650.251E-6
-4.18959E-3	-166.643E-12	666.964E-3	-17.4477E-3	-169.022E-12	686.384E-3	-11.3662E-3
-4.19460E-3	-166.980E-12	668.555E-3	-2.40230E-3	-169.697E-12	662.222E-3	-14.9840E-3
-4.19960E-3	-168.409E-12	667.667E-3	-7.87755E-3	-169.983E-12	647.754E-3	-17.6828E-3
-4.20460E-3	-169.635E-12	657.588E-3	-24.6796E-3	-169.863E-12	640.777E-3	-14.2313E-3
-4.20960E-3	-170.441E-12	650.168E-3	-3.11861E-3	-170.081E-12	651.535E-3	5.05854E-3
-4.21461E-3	-170.476E-12	658.711E-3	7.81063E-3	-171.547E-12	660.115E-3	3.92857E-3
-4.21961E-3	-171.334E-12	667.968E-3	-17.8320E-3	-171.946E-12	646.748E-3	-22.6991E-3
-4.22461E-3	-172.135E-12	667.535E-3	-32.2503E-3	-171.509E-12	652.889E-3	-31.8492E-3
-4.22961E-3	-171.372E-12	679.144E-3	-30.9068E-3	-170.779E-12	659.394E-3	-31.7317E-3
-4.23462E-3	-170.640E-12	702.973E-3	-34.2248E-3	-170.826E-12	654.767E-3	-24.4446E-3
-4.23962E-3	-170.044E-12	705.425E-3	-28.5376E-3	-171.368E-12	659.301E-3	-15.6993E-3
-4.24462E-3	-170.120E-12	698.098E-3	-11.1351E-3	-170.449E-12	664.523E-3	-19.8484E-3
-4.24962E-3	-169.775E-12	704.464E-3	11.5113E-3	-169.776E-12	679.647E-3	-5.78541E-3
-4.25463E-3	-168.570E-12	695.446E-3	29.3989E-3	-168.978E-12	685.455E-3	14.1691E-3
-4.25963E-3	-168.751E-12	656.345E-3	17.7394E-3	-170.514E-12	668.756E-3	12.3727E-3
-4.26463E-3	-168.527E-12	635.238E-3	-14.1644E-3	-171.070E-12	643.597E-3	1.85810E-3
-4.26963E-3	-169.101E-12	651.049E-3	-26.4713E-3	-170.627E-12	643.101E-3	6.76665E-3
-4.27464E-3	-169.085E-12	673.437E-3	-7.08049E-3	-171.430E-12	675.194E-3	11.3088E-3
-4.27964E-3	-170.221E-12	684.807E-3	21.3712E-3	-172.639E-12	702.543E-3	-2.03003E-3
-4.28464E-3	-170.967E-12	686.431E-3	22.5877E-3	-173.526E-12	707.278E-3	-8.78646E-3
-4.28964E-3	-173.360E-12	693.114E-3	1.92689E-3	-173.858E-12	703.613E-3	-10.0477E-3
-4.29465E-3	-173.537E-12	697.132E-3	-14.2854E-3	-174.302E-12	690.422E-3	-23.2879E-3
-4.29965E-3	-173.846E-12	683.525E-3	-31.5848E-3	-175.441E-12	672.862E-3	-26.1841E-3
-4.30465E-3	-174.092E-12	668.006E-3	-40.9021E-3	-176.410E-12	674.457E-3	-15.4876E-3
-4.30965E-3	-175.265E-12	674.380E-3	-30.4468E-3	-176.665E-12	662.253E-3	-7.21469E-3
-4.31466E-3	-175.234E-12	694.909E-3	-18.2616E-3	-176.944E-12	636.702E-3	10.4882E-3
-4.31966E-3	-174.847E-12	707.793E-3	-18.5223E-3	-176.850E-12	632.185E-3	10.1424E-3
-4.32466E-3	-174.692E-12	693.012E-3	-5.57763E-3	-176.348E-12	636.613E-3	-32.3854E-3
-4.32966E-3	-174.311E-12	655.721E-3	19.0685E-3	-175.807E-12	652.267E-3	-49.4426E-3
-4.33467E-3	-174.212E-12	642.325E-3	1.97497E-3	-175.727E-12	692.220E-3	-25.8353E-3
-4.33967E-3	-172.983E-12	680.250E-3	-34.2688E-3	-175.629E-12	698.139E-3	-32.7436E-3
-4.34467E-3	-172.056E-12	715.819E-3	-40.6949E-3	-175.203E-12	661.127E-3	-55.0895E-3
-4.34967E-3	-173.414E-12	686.591E-3	-39.5388E-3	-175.662E-12	659.034E-3	-55.9314E-3
-4.35468E-3	-174.175E-12	642.415E-3	-40.2309E-3	-176.221E-12	685.702E-3	-55.6352E-3
-4.35968E-3	-173.595E-12	652.597E-3	-39.4480E-3	-176.540E-12	694.699E-3	-52.4905E-3
-4.36468E-3	-173.647E-12	674.279E-3	-49.1075E-3	-176.489E-12	689.536E-3	-34.9651E-3
-4.36968E-3	-175.765E-12	663.187E-3	-61.8734E-3	-177.359E-12	668.977E-3	-36.9616E-3
-4.37469E-3	-177.357E-12	634.597E-3	-48.9300E-3	-178.340E-12	644.071E-3	-59.1035E-3
-4.37969E-3	-178.179E-12	616.017E-3	-20.0012E-3	-178.702E-12	653.719E-3	-39.5113E-3
-4.38469E-3	-177.925E-12	631.041E-3	-11.7705E-3	-178.343E-12	684.853E-3	6.32047E-3
-4.38969E-3	-178.893E-12	657.945E-3	-22.4184E-3	-178.626E-12	671.700E-3	11.6383E-3
-4.39470E-3	-180.745E-12	665.800E-3	-44.1883E-3	-178.384E-12	634.633E-3	-17.4927E-3
-4.39970E-3	-181.055E-12	677.802E-3	-55.9125E-3	-178.554E-12	637.265E-3	-43.8287E-3
-4.40470E-3	-180.432E-12	701.353E-3	-19.8028E-3	-178.230E-12	638.079E-3	-48.2009E-3
-4.40970E-3	-178.536E-12	694.622E-3	22.3434E-3	-177.091E-12	619.260E-3	-14.5537E-3
-4.41471E-3	-178.857E-12	680.512E-3	10.9741E-3	-176.325E-12	634.651E-3	9.79647E-3
-4.41971E-3	-178.767E-12	683.993E-3	-21.3309E-3	-176.281E-12	667.903E-3	-27.7490E-3
-4.42471E-3	-178.965E-12	686.064E-3	-9.95850E-3	-175.784E-12	667.934E-3	-57.9879E-3
-4.42971E-3	-177.231E-12	673.293E-3	21.9208E-3	-174.443E-12	654.505E-3	-39.5495E-3
-4.43472E-3	-177.529E-12	653.698E-3	17.7498E-3	-175.326E-12	636.657E-3	-17.2260E-3
-4.43972E-3	-177.630E-12	640.829E-3	4.43136E-3	-176.103E-12	623.224E-3	-3.01945E-3
-4.44472E-3	-179.256E-12	630.346E-3	-7.73017E-3	-176.988E-12	635.580E-3	-4.96105E-3
-4.44972E-3	-179.100E-12	627.677E-3	-25.5337E-3	-176.642E-12	635.670E-3	-23.3294E-3
-4.45473E-3	-178.962E-12	640.535E-3	-31.2170E-3	-177.757E-12	642.343E-3	-17.9154E-3
-4.45973E-3	-179.860E-12	668.250E-3	-32.6519E-3	-179.027E-12	683.132E-3	-21.3883E-3
-4.46473E-3	-182.890E-12	687.802E-3	-27.7367E-3	-180.061E-12	701.593E-3	-54.8123E-3
-4.46973E-3	-182.841E-12	676.922E-3	-13.9652E-3	-180.234E-12	677.697E-3	-49.1793E-3
-4.47474E-3	-183.267E-12	649.970E-3	-19.9110E-3	-180.805E-12	690.085E-3	-10.7446E-3
-4.47974E-3	-183.094E-12	638.069E-3	-22.7051E-3	-181.259E-12	731.332E-3	6.10794E-3
-4.48474E-3	-184.240E-12	658.019E-3	-9.34503E-3	-181.756E-12	713.252E-3	-782.402E-6
-4.48974E-3	-183.402E-12	682.854E-3	-14.1214E-3	-181.836E-12	678.655E-3	981.480E-6
-4.49475E-3	-182.871E-12	669.203E-3	-25.1097E-3	-181.656E-12	663.149E-3	-8.43732E-3
-4.49975E-3	-181.849E-12	646.427E-3	-16.0209E-3	-181.807E-12	632.434E-3	-30.5635E-3
-4.50475E-3	-181.445E-12	658.066E-3	9.87578E-3	-182.680E-12	647.944E-3	-25.4840E-3
-4.50975E-3	-179.852E-12	671.161E-3	8.45811E-3	-181.960E-12	693.680E-3	-15.9947E-3
-4.51476E-3	-179.446E-12	660.189E-3	-14.3772E-3	-182.987E-12	678.869E-3	-23.3248E-3
-4.51976E-3	-179.247E-12	663.521E-3	-27.4606E-3	-182.886E-12	658.455E-3	-20.7670E-3
-4.52476E-3	-179.344E-12	676.129E-3	-44.0392E-3	-183.459E-12	673.373E-3	-13.3213E-3
-4.52976E-3	-178.872E-12	676.160E-3	-46.3476E-3	-183.985E-12	674.753E-3	5.68017E-3
-4.53477E-3	-179.930E-12	681.427E-3	-29.0009E-3	-185.108E-12	663.665E-3	23.9342E-3
-4.53977E-3	-180.619E-12	672.744E-3	-17.7760E-3	-185.644E-12	668.627E-3	-1.32983E-3
-4.54477E-3	-180.916E-12	646.409E-3	-16.0037E-3	-186.228E-12	677.312E-3	-16.4852E-3
-4.54977E-3	-181.640E-12	633.223E-3	-22.8320E-3	-186.964E-12	671.701E-3	9.62711E-3
-4.55478E-3	-183.132E-12	636.855E-3	-29.1871E-3	-188.241E-12	677.123E-3	19.8063E-3
-4.55978E-3	-183.804E-12	640.820E-3	-16.4521E-3	-188.308E-12	679.610E-3	3.96040E-3
-4.56478E-3	-184.622E-12	658.216E-3	1.14903E-3	-188.274E-12	661.081E-3	-8.67296E-3
-4.56978E-3	-184.861E-12	675.550E-3	-5.08973E-3	-188.446E-12	656.533E-3	-31.0122E-3
-4.57479E-3	-185.388E-12	661.582E-3	-18.8834E-3	-189.251E-12	655.530E-3	-50.7134E-3
-4.57979E-3	-185.114E-12	653.992E-3	-12.9929E-3	-188.548E-12	665.621E-3	-36.7814E-3
-4.58479E-3	-184.983E-12	658.733E-3	-6.14178E-3	-188.295E-12	699.693E-3	1.21526E-3
-4.58979E-3	-184.486E-12	671.549E-3	-23.5759E-3	-187.417E-12	716.621E-3	14.4910E-3
-4.59480E-3	-184.829E-12	687.425E-3	-44.8642E-3	-187.249E-12	708.969E-3	-5.26221E-3
-4.59980E-3	-184.672E-12	672.183E-3	-40.3226E-3	-186.341E-12	707.609E-3	-14.2599E-3
-4.60480E-3	-184.367E-12	654.977E-3	-10.2603E-3	-186.351E-12	704.498E-3	-23.0453E-3
-4.60980E-3	-184.989E-12	666.075E-3	6.82383E-3	-186.113E-12	689.332E-3	-35.1839E-3
-4.61481E-3	-185.780E-12	679.863E-3	14.9872E-3	-185.940E-12	681.167E-3	-43.6936E-3
-4.61981E-3	-186.162E-12	682.594E-3	14.6791E-3	-186.387E-12	676.261E-3	-71.5940E-3
-4.62481E-3	-186.419E-12	677.074E-3	-13.4576E-3	-187.204E-12	655.095E-3	-89.9009E-3
-4.62981E-3	-187.421E-12	666.952E-3	-27.6334E-3	-187.741E-12	643.550E-3	-68.2785E-3
-4.63482E-3	-188.600E-12	665.739E-3	-12.9791E-3	-187.182E-12	649.612E-3	-34.8327E-3
-4.63982E-3	-189.708E-12	678.732E-3	3.71474E-3	-187.622E-12	628.314E-3	-22.8184E-3
-4.64482E-3	-190.462E-12	689.202E-3	1.39268E-3	-188.199E-12	621.766E-3	-24.2241E-3
-4.64982E-3	-190.559E-12	682.918E-3	-19.3883E-3	-189.079E-12	655.914E-3	-30.1832E-3
-4.65483E-3	-191.440E-12	672.532E-3	-23.4536E-3	-188.911E-12	669.883E-3	-34.3964E-3
-4.65983E-3	-191.552E-12	657.863E-3	-3.34099E-3	-188.647E-12	661.173E-3	-16.3656E-3
-4.66483E-3	-191.303E-12	648.894E-3	8.27508E-3	-189.700E-12	658.062E-3	-5.80690E-3
-4.66983E-3	-190.146E-12	672.513E-3	1.86948E-3	-189.550E-12	649.188E-3	-19.4433E-3
-4.67484E-3	-190.365E-12	689.741E-3	-17.7531E-3	-189.076E-12	644.982E-3	-32.4678E-3
-4.67984E-3	-190.363E-12	657.855E-3	-51.2504E-3	-188.637E-12	657.424E-3	-44.1157E-3
-4.68484E-3	-189.937E-12	643.346E-3	-54.5792E-3	-188.597E-12	672.313E-3	-61.4158E-3
-4.68984E-3	-188.910E-12	667.583E-3	-18.4531E-3	-189.213E-12	685.962E-3	-58.6001E-3
-4.69485E-3	-188.169E-12	664.498E-3	-731.237E-6	-189.504E-12	677.189E-3	-27.0938E-3
-4.69985E-3	-189.618E-12	644.267E-3	1.50517E-3	-190.672E-12	643.636E-3	-11.2416E-3
-4.70485E-3	-190.128E-12	630.895E-3	-3.05074E-3	-190.566E-12	634.432E-3	-7.12964E-3
-4.70985E-3	-190.242E-12	639.506E-3	-14.8096E-3	-191.678E-12	650.389E-3	2.98960E-3
-4.71486E-3	-190.028E-12	660.603E-3	5.26549E-3	-191.824E-12	659.092E-3	4.46036E-3
-4.71986E-3	-192.554E-12	662.736E-3	25.3855E-3	-193.291E-12	672.106E-3	-7.84020E-3
-4.72486E-3	-193.064E-12	674.243E-3	14.5537E-3	-193.472E-12	679.094E-3	-26.7086E-3
-4.72986E-3	-193.234E-12	677.962E-3	12.5051E-3	-194.669E-12	662.743E-3	-26.9171E-3
-4.73487E-3	-193.320E-12	664.349E-3	25.4771E-3	-194.791E-12	649.364E-3	11.5863E-3
-4.73987E-3	-193.435E-12	683.160E-3	35.0456E-3	-195.456E-12	663.035E-3	39.9978E-3
-4.74487E-3	-194.238E-12	697.212E-3	34.2494E-3	-195.138E-12	670.807E-3	2.28541E-3
-4.74988E-3	-194.536E-12	690.389E-3	24.7676E-3	-195.707E-12	658.786E-3	-45.1827E-3
-4.75488E-3	-194.383E-12	680.498E-3	16.5751E-3	-194.741E-12	668.773E-3	-64.0774E-3
-4.75988E-3	-192.253E-12	653.337E-3	14.4047E-3	-194.493E-12	689.790E-3	-76.5231E-3
-4.76488E-3	-192.366E-12	640.814E-3	6.72124E-3	-194.246E-12	687.480E-3	-66.1539E-3
-4.76988E-3	-192.564E-12	648.922E-3	-13.8696E-3	-193.766E-12	669.844E-3	-55.7887E-3
-4.77489E-3	-192.114E-12	664.225E-3	-20.1418E-3	-193.774E-12	653.671E-3	-60.4365E-3
-4.77989E-3	-191.128E-12	650.580E-3	-7.75262E-3	-194.905E-12	655.116E-3	-37.1266E-3
-4.78489E-3	-191.101E-12	621.425E-3	-5.70934E-3	-193.992E-12	657.142E-3	-4.04129E-3
-4.78989E-3	-192.975E-12	634.295E-3	-9.85003E-3	-194.078E-12	642.804E-3	-5.83732E-3
-4.79490E-3	-194.456E-12	662.803E-3	-30.2652E-3	-193.901E-12	628.431E-3	-13.6912E-3
-4.79990E-3	-194.810E-12	671.455E-3	-64.0193E-3	-195.351E-12	633.244E-3	-12.5396E-3
-4.80490E-3	-194.558E-12	659.196E-3	-68.0856E-3	-195.908E-12	642.737E-3	-31.2170E-3
-4.80990E-3	-196.035E-12	655.465E-3	-39.6671E-3	-196.517E-12	650.805E-3	-34.5140E-3
-4.81491E-3	-197.007E-12	662.220E-3	-25.5368E-3	-196.708E-12	669.474E-3	14.6559E-3
-4.81991E-3	-198.288E-12	661.771E-3	-44.9709E-3	-197.752E-12	689.368E-3	41.9709E-3
-4.82491E-3	-197.442E-12	678.328E-3	-42.3041E-3	-197.123E-12	702.664E-3	13.8102E-3
-4.82991E-3	-199.246E-12	692.153E-3	-16.7530E-3	-197.088E-12	704.085E-3	-25.0359E-3
-4.83492E-3	-198.914E-12	683.392E-3	-21.3094E-3	-197.679E-12	675.218E-3	-46.9695E-3
-4.83992E-3	-199.772E-12	672.828E-3	-31.4374E-3	-198.600E-12	631.644E-3	-47.2405E-3
-4.84492E-3	-198.511E-12	674.618E-3	-5.33962E-3	-197.300E-12	620.118E-3	-34.9624E-3
-4.84992E-3	-198.953E-12	681.919E-3	8.99498E-3	-195.640E-12	643.024E-3	-20.1244E-3
-4.85493E-3	-198.096E-12	669.665E-3	-3.83336E-3	-194.905E-12	657.915E-3	-11.2949E-3
-4.85993E-3	-198.360E-12	653.910E-3	-5.44660E-3	-195.789E-12	649.845E-3	-10.5159E-3
-4.86493E-3	-197.067E-12	661.841E-3	-7.58048E-3	-195.167E-12	662.308E-3	-22.0293E-3
-4.86993E-3	-197.653E-12	661.274E-3	-16.5029E-3	-194.411E-12	686.266E-3	-25.5633E-3
-4.87494E-3	-196.681E-12	636.827E-3	-9.66487E-3	-194.864E-12	696.380E-3	-13.4507E-3
-4.87994E-3	-197.609E-12	647.393E-3	3.68880E-3	-196.762E-12	709.211E-3	-14.2005E-3
-4.88494E-3	-197.368E-12	677.739E-3	-9.69160E-3	-197.199E-12	703.440E-3	-24.4961E-3
-4.88995E-3	-198.989E-12	673.180E-3	-33.4784E-3	-198.057E-12	680.723E-3	-23.2377E-3
-4.89495E-3	-199.354E-12	661.556E-3	-53.4251E-3	-198.943E-12	667.824E-3	-9.29360E-3
-4.89995E-3	-200.597E-12	680.618E-3	-82.5039E-3	-200.291E-12	661.336E-3	-7.55542E-3
-4.90495E-3	-200.490E-12	705.642E-3	-88.1094E-3	-201.532E-12	676.684E-3	-32.9437E-3
-4.90995E-3	-201.633E-12	673.219E-3	-49.9421E-3	-201.530E-12	708.197E-3	-41.0403E-3
-4.91496E-3	-201.337E-12	626.481E-3	-17.8978E-3	-201.792E-12	709.057E-3	-35.0729E-3
-4.91996E-3	-201.291E-12	628.214E-3	-18.8317E-3	-202.754E-12	673.237E-3	-38.9416E-3
-4.92496E-3	-201.475E-12	648.191E-3	-30.5480E-3	-202.880E-12	655.105E-3	-29.0554E-3
-4.92996E-3	-201.674E-12	667.178E-3	-41.5542E-3	-203.287E-12	671.241E-3	-16.1267E-3
-4.93497E-3	-201.196E-12	674.823E-3	-51.3423E-3	-203.012E-12	694.162E-3	-2.94377E-3
-4.93997E-3	-200.331E-12	671.162E-3	-53.9479E-3	-203.074E-12	698.579E-3	5.08216E-3
-4.94497E-3	-199.282E-12	686.257E-3	-49.9196E-3	-202.457E-12	685.820E-3	-544.189E-6
-4.94997E-3	-199.621E-12	691.370E-3	-34.7802E-3	-202.864E-12	698.742E-3	-17.3660E-3
-4.95498E-3	-200.326E-12	661.392E-3	-13.0058E-3	-202.663E-12	706.636E-3	-41.8808E-3
-4.95998E-3	-200.464E-12	648.067E-3	-17.2277E-3	-202.025E-12	686.816E-3	-26.0599E-3
-4.96498E-3	-200.852E-12	637.501E-3	-21.2924E-3	-202.361E-12	681.311E-3	23.7992E-3
-4.96998E-3	-200.730E-12	643.374E-3	-5.41590E-3	-204.176E-12	666.428E-3	41.7888E-3
-4.97499E-3	-202.587E-12	683.655E-3	-15.7516E-3	-205.695E-12	640.243E-3	11.5781E-3
-4.97999E-3	-202.035E-12	700.042E-3	-19.1530E-3	-205.031E-12	626.225E-3	-12.1327E-3
-4.98499E-3	-203.601E-12	691.798E-3	5.35466E-3	-205.192E-12	623.679E-3	8.93577E-3
-4.98999E-3	-204.697E-12	672.155E-3	-3.44198E-3	-206.211E-12	636.164E-3	25.9732E-3
-4.99500E-3	-205.667E-12	641.185E-3	-25.0885E-3	-207.219E-12	640.231E-3	24.2823E-3
-5.00000E-3	-206.023E-12	621.389E-3	-5.78129E-3	-206.163E-12	627.019E-3	20.3047E-3
