Experiment	bias spectroscopy	
Date	19.01.2016 22:08:26	
User		
X (m)	50.4036E-9	
Y (m)	257.914E-9	
Z (m)	-132.651E-9	
Z offset (m)	0E+0	
Settling time (s)	200E-6	
Integration time (s)	5E-3	
Z-Ctrl hold	TRUE	
Final Z (m)	N/A	
Filter type	None	
Order		
Cutoff frq		
Comment01	MnPc/Pb(111)	
Comment02	dz =00pm	
Comment03	7 Sweeps	
Comment04	MagField =0.T	
Comment05	Divider 1:10	
Comment06	Setpoint:5mV,200 pA	
Comment07	Lockin: 50uVrms,5ms,5mV	
Comment08	Gain:9; 912Hz modulation	
Comment09	T=1.06K	
Bias>Bias (V)	5E-3	
Bias>Calibration (V/V)	81.475E-3	
Bias>Offset (V)	1.046E-3	
Bias Spectroscopy>Sweep Start (V)	5E-3	
Bias Spectroscopy>Sweep End (V)	-5E-3	
Bias Spectroscopy>Num Pixel	2000	
Bias Spectroscopy>Z Avg time (s)	500E-3	
Bias Spectroscopy>Z offset (m)	0E+0	
Bias Spectroscopy>1st Settling time (s)	500E-3	
Bias Spectroscopy>Settling time (s)	200E-6	
Bias Spectroscopy>Integration time (s)	5E-3	
Bias Spectroscopy>End Settling time (s)	500E-3	
Bias Spectroscopy>Z control time (s)	500E-3	
Bias Spectroscopy>Max Slew rate (V/s)	Inf	
Bias Spectroscopy>backward sweep	TRUE	
Bias Spectroscopy>Z-controller hold	TRUE	
Bias Spectroscopy>Number of sweeps	7	
Bias Spectroscopy>Channels	Current (A);X% LockIn (V);Y% LockIn (V)	
Bias Spectroscopy>Reset Bias	TRUE	
Bias Spectroscopy>Record final Z	FALSE	
Bias Spectroscopy>Lock-In run	FALSE	
Bias Spectroscopy>Sweep mode	Linear	
Bias Spectroscopy>MultiLine Settings : Segment Start (V), Segment End (V), Settling (s), Integration (s), Steps (xn)	100E-3,3.3E-3,100E-6,10E-3,2500;3.3E-3,-3.3E-3,100E-6,10E-3,10;-3.3E-3,-100E-3,100E-6,10E-3,2500	
Current>Current (A)	200.171E-12	
Current>Calibration (A/V)	999.99900E-12	
Current>Offset (A)	-455.429E-15	
Current>Gain	LN 10^9	
Z-Controller>Z (m)	-132.65E-9	
Z-Controller>Controller name	log Current	
Z-Controller>Controller status	ON	
Z-Controller>Setpoint	200E-12	
Z-Controller>Setpoint unit	A	
Z-Controller>P gain	2.96994E-12	
Z-Controller>I gain	67.0321E-9	
Z-Controller>Time const (s)	44.3062E-6	
Z-Controller>TipLift (m)	0E+0	
Z-Controller>Switch off delay (s)	50E-3	
Current (A)	200.075E-12	
Z (m)	-132.65E-9	

[DATA]
Bias calc (V)	Current (A)	X% LockIn (V)	Y% LockIn (V)	Current [bwd] (A)	X% LockIn [bwd] (V)	Y% LockIn [bwd] (V)
5.00000E-3	201.494E-12	690.750E-3	-54.7528E-3	202.834E-12	657.120E-3	-46.6483E-3
4.99500E-3	199.542E-12	681.694E-3	-56.8608E-3	202.492E-12	669.454E-3	-36.8683E-3
4.98999E-3	199.026E-12	656.005E-3	-49.0068E-3	202.318E-12	681.711E-3	-33.3375E-3
4.98499E-3	197.775E-12	680.009E-3	-24.0956E-3	201.337E-12	682.446E-3	-48.6782E-3
4.97999E-3	197.597E-12	736.656E-3	-17.2666E-3	200.256E-12	659.890E-3	-51.8267E-3
4.97499E-3	196.171E-12	740.673E-3	-26.1807E-3	198.220E-12	630.979E-3	-35.9086E-3
4.96998E-3	196.735E-12	696.635E-3	-962.638E-6	198.176E-12	625.852E-3	-6.74567E-3
4.96498E-3	196.134E-12	681.479E-3	16.4871E-3	197.481E-12	641.780E-3	29.2683E-3
4.95998E-3	195.802E-12	700.093E-3	-6.27917E-3	197.422E-12	680.001E-3	41.2610E-3
4.95498E-3	196.335E-12	678.908E-3	-37.6612E-3	196.036E-12	693.396E-3	3.76493E-3
4.94997E-3	197.002E-12	615.809E-3	-56.6946E-3	197.052E-12	675.558E-3	-5.84752E-3
4.94497E-3	197.871E-12	621.819E-3	-47.4236E-3	196.262E-12	677.947E-3	32.2641E-3
4.93997E-3	198.001E-12	671.826E-3	-36.2546E-3	196.319E-12	675.171E-3	44.9235E-3
4.93497E-3	199.415E-12	676.036E-3	-26.1755E-3	196.622E-12	671.197E-3	14.0855E-3
4.92996E-3	198.795E-12	664.950E-3	-9.39640E-3	196.890E-12	668.772E-3	-43.1113E-3
4.92496E-3	198.782E-12	664.740E-3	-17.1318E-3	196.790E-12	642.940E-3	-58.3938E-3
4.91996E-3	197.275E-12	661.984E-3	-45.4806E-3	198.408E-12	628.126E-3	-19.4280E-3
4.91496E-3	197.200E-12	659.451E-3	-40.9404E-3	199.197E-12	636.659E-3	-3.87196E-3
4.90995E-3	196.892E-12	678.238E-3	-2.01979E-3	199.512E-12	649.297E-3	-15.6856E-3
4.90495E-3	195.990E-12	694.746E-3	17.5670E-3	198.820E-12	660.068E-3	-15.0457E-3
4.89995E-3	195.895E-12	699.088E-3	13.8103E-3	200.650E-12	665.279E-3	13.5491E-3
4.89495E-3	195.487E-12	703.568E-3	-2.69749E-3	198.959E-12	669.812E-3	30.8879E-3
4.88995E-3	196.226E-12	686.454E-3	-29.9005E-3	197.409E-12	661.134E-3	19.4267E-3
4.88494E-3	194.958E-12	672.885E-3	-39.1370E-3	195.861E-12	629.386E-3	14.2651E-3
4.87994E-3	194.899E-12	689.662E-3	-34.9011E-3	195.967E-12	620.938E-3	10.1884E-3
4.87494E-3	194.550E-12	695.305E-3	-31.9583E-3	195.386E-12	656.690E-3	13.1112E-3
4.86993E-3	194.815E-12	675.122E-3	-19.1025E-3	194.387E-12	663.241E-3	22.5566E-3
4.86493E-3	194.116E-12	656.962E-3	-33.1614E-3	193.465E-12	623.732E-3	9.87681E-3
4.85993E-3	194.882E-12	661.889E-3	-52.9991E-3	193.313E-12	606.255E-3	-3.04003E-3
4.85493E-3	194.805E-12	673.588E-3	-43.2929E-3	193.184E-12	617.150E-3	-1.65810E-3
4.84992E-3	194.089E-12	680.209E-3	-30.4211E-3	191.977E-12	638.509E-3	4.67039E-3
4.84492E-3	195.589E-12	683.265E-3	-21.6541E-3	192.833E-12	691.899E-3	9.58406E-3
4.83992E-3	194.665E-12	670.718E-3	-24.8356E-3	193.123E-12	722.342E-3	14.0254E-3
4.83492E-3	194.215E-12	666.554E-3	-25.9496E-3	193.026E-12	675.778E-3	12.0378E-3
4.82991E-3	193.573E-12	679.865E-3	-19.2506E-3	193.292E-12	646.955E-3	-16.5838E-3
4.82491E-3	194.004E-12	697.300E-3	-16.3891E-3	194.174E-12	669.574E-3	-45.9301E-3
4.81991E-3	193.569E-12	698.344E-3	-8.61342E-3	194.092E-12	686.379E-3	-37.1897E-3
4.81491E-3	192.161E-12	671.892E-3	1.26964E-3	193.297E-12	700.708E-3	-719.229E-6
4.80990E-3	191.697E-12	647.212E-3	19.4134E-3	193.396E-12	715.742E-3	9.66018E-3
4.80490E-3	191.747E-12	670.074E-3	38.7250E-3	194.417E-12	717.731E-3	-17.8648E-3
4.79990E-3	190.940E-12	711.526E-3	20.3483E-3	192.612E-12	715.172E-3	-28.6325E-3
4.79490E-3	190.267E-12	707.579E-3	6.07634E-3	192.768E-12	717.728E-3	-23.5225E-3
4.78989E-3	191.035E-12	686.397E-3	20.6100E-3	190.892E-12	720.665E-3	-16.6537E-3
4.78489E-3	192.170E-12	681.481E-3	17.5825E-3	190.563E-12	698.723E-3	-2.87766E-3
4.77989E-3	190.891E-12	678.766E-3	861.817E-6	189.326E-12	651.535E-3	-6.43683E-3
4.77489E-3	191.314E-12	668.758E-3	-26.9919E-3	189.491E-12	626.060E-3	5.82439E-3
4.76988E-3	191.285E-12	662.000E-3	-64.3081E-3	189.321E-12	641.518E-3	20.3541E-3
4.76488E-3	191.687E-12	668.515E-3	-61.1053E-3	189.710E-12	645.048E-3	-21.7950E-3
4.75988E-3	190.521E-12	685.049E-3	-30.6459E-3	189.538E-12	631.155E-3	-53.8183E-3
4.75488E-3	191.385E-12	681.865E-3	-10.6006E-3	189.289E-12	648.173E-3	-25.1843E-3
4.74988E-3	191.563E-12	688.556E-3	919.380E-6	190.371E-12	675.125E-3	-4.88135E-3
4.74487E-3	190.127E-12	716.833E-3	-14.4397E-3	189.640E-12	667.615E-3	-15.9798E-3
4.73987E-3	190.491E-12	700.130E-3	-42.5223E-3	189.658E-12	677.965E-3	-27.3364E-3
4.73487E-3	190.254E-12	679.568E-3	-39.6504E-3	190.249E-12	710.853E-3	-10.8994E-3
4.72986E-3	190.277E-12	693.532E-3	-12.2912E-3	190.570E-12	716.490E-3	24.1551E-3
4.72486E-3	188.500E-12	709.506E-3	-5.95591E-6	189.732E-12	726.454E-3	20.2530E-3
4.71986E-3	189.071E-12	714.020E-3	-9.54389E-3	188.806E-12	712.231E-3	-5.63800E-3
4.71486E-3	188.778E-12	693.219E-3	-20.1642E-3	189.123E-12	656.639E-3	-12.3587E-3
4.70985E-3	189.209E-12	656.934E-3	-24.7372E-3	188.356E-12	651.348E-3	-18.8103E-3
4.70485E-3	188.790E-12	632.158E-3	-25.2724E-3	186.972E-12	695.456E-3	-6.92493E-3
4.69985E-3	189.164E-12	642.962E-3	-28.6888E-3	186.725E-12	705.307E-3	22.9325E-3
4.69485E-3	189.267E-12	680.763E-3	-30.5991E-3	186.990E-12	693.183E-3	15.5868E-3
4.68984E-3	189.190E-12	694.448E-3	-24.0971E-3	187.145E-12	708.211E-3	-13.4444E-3
4.68484E-3	189.664E-12	682.439E-3	-16.2830E-3	185.888E-12	707.567E-3	-29.0681E-3
4.67984E-3	188.467E-12	682.604E-3	-14.5065E-3	185.909E-12	685.722E-3	-26.6643E-3
4.67484E-3	188.060E-12	694.974E-3	-12.6453E-3	185.962E-12	675.892E-3	-2.56698E-3
4.66983E-3	186.366E-12	691.288E-3	-22.7223E-3	185.895E-12	673.828E-3	10.4779E-3
4.66483E-3	184.835E-12	668.305E-3	-42.2731E-3	185.546E-12	675.251E-3	7.96579E-3
4.65983E-3	183.926E-12	651.063E-3	-43.0434E-3	185.549E-12	655.053E-3	-4.97591E-3
4.65483E-3	183.322E-12	629.062E-3	-35.1686E-3	185.537E-12	646.005E-3	-21.9812E-3
4.64982E-3	182.376E-12	630.571E-3	-28.2122E-3	184.731E-12	666.931E-3	-7.00134E-3
4.64482E-3	181.690E-12	669.856E-3	-46.8417E-3	185.691E-12	689.886E-3	13.6405E-3
4.63982E-3	182.687E-12	685.274E-3	-81.7458E-3	185.060E-12	710.765E-3	-6.37723E-3
4.63482E-3	182.336E-12	680.611E-3	-74.0319E-3	184.237E-12	723.860E-3	-49.3071E-3
4.62981E-3	182.475E-12	669.612E-3	-32.8106E-3	183.558E-12	724.991E-3	-67.2785E-3
4.62481E-3	182.828E-12	667.348E-3	-5.27887E-3	184.539E-12	715.026E-3	-43.5876E-3
4.61981E-3	183.978E-12	673.775E-3	-9.77335E-3	183.888E-12	686.740E-3	-20.9898E-3
4.61481E-3	184.338E-12	657.770E-3	-13.5439E-3	183.200E-12	656.945E-3	-24.3364E-3
4.60980E-3	184.835E-12	657.460E-3	-9.49975E-3	182.682E-12	668.508E-3	-42.4270E-3
4.60480E-3	185.030E-12	672.515E-3	-28.8819E-3	183.522E-12	699.473E-3	-58.5527E-3
4.59980E-3	185.182E-12	667.122E-3	-34.6414E-3	183.153E-12	687.318E-3	-50.2215E-3
4.59480E-3	184.315E-12	682.166E-3	-52.8953E-3	182.772E-12	658.243E-3	-20.7325E-3
4.58979E-3	183.913E-12	696.962E-3	-83.8303E-3	182.963E-12	663.641E-3	4.51361E-3
4.58479E-3	184.552E-12	680.274E-3	-55.1620E-3	183.682E-12	663.528E-3	4.59765E-3
4.57979E-3	183.274E-12	667.618E-3	-21.5084E-3	183.219E-12	637.849E-3	-3.89152E-3
4.57479E-3	182.658E-12	670.980E-3	-21.3503E-3	183.034E-12	640.949E-3	-10.0792E-3
4.56978E-3	180.763E-12	678.994E-3	-23.1877E-3	183.252E-12	651.377E-3	-3.40411E-3
4.56478E-3	180.729E-12	675.270E-3	-29.9865E-3	182.125E-12	648.205E-3	24.2483E-3
4.55978E-3	178.437E-12	643.277E-3	-44.3024E-3	181.450E-12	675.903E-3	40.1816E-3
4.55478E-3	177.833E-12	611.573E-3	-23.1283E-3	181.675E-12	702.393E-3	25.8427E-3
4.54977E-3	177.594E-12	629.629E-3	22.2230E-3	181.517E-12	687.528E-3	-12.2519E-3
4.54477E-3	177.473E-12	664.906E-3	20.2347E-3	180.299E-12	669.177E-3	-31.4374E-3
4.53977E-3	176.792E-12	673.244E-3	-10.4702E-3	179.305E-12	676.489E-3	-28.7849E-3
4.53477E-3	176.600E-12	653.493E-3	-23.3160E-3	178.595E-12	668.855E-3	-40.5590E-3
4.52976E-3	177.188E-12	636.658E-3	-17.2346E-3	178.680E-12	638.708E-3	-35.0372E-3
4.52476E-3	178.120E-12	634.125E-3	1.81998E-3	177.749E-12	627.606E-3	-6.95391E-3
4.51976E-3	178.961E-12	629.970E-3	-17.6649E-3	177.987E-12	640.877E-3	14.4945E-3
4.51476E-3	179.596E-12	630.807E-3	-66.5335E-3	178.311E-12	654.270E-3	36.2602E-3
4.50975E-3	179.761E-12	655.460E-3	-76.2412E-3	178.684E-12	649.578E-3	29.5497E-3
4.50475E-3	179.661E-12	688.135E-3	-63.0917E-3	178.749E-12	648.776E-3	-6.08462E-3
4.49975E-3	179.299E-12	680.191E-3	-46.7437E-3	177.892E-12	657.100E-3	-26.7299E-3
4.49475E-3	179.444E-12	645.006E-3	-26.1598E-3	179.268E-12	658.517E-3	-30.3430E-3
4.48974E-3	178.480E-12	639.104E-3	-30.2042E-3	178.832E-12	659.955E-3	-17.6260E-3
4.48474E-3	177.606E-12	664.096E-3	-52.4519E-3	179.465E-12	672.363E-3	4.18427E-3
4.47974E-3	177.650E-12	658.081E-3	-60.9610E-3	179.249E-12	668.131E-3	16.4269E-3
4.47474E-3	177.111E-12	642.412E-3	-63.5340E-3	178.851E-12	651.306E-3	6.44901E-3
4.46973E-3	176.344E-12	671.927E-3	-47.7257E-3	177.958E-12	654.240E-3	-16.7203E-3
4.46473E-3	175.764E-12	698.917E-3	-180.393E-6	176.575E-12	647.916E-3	-5.71838E-3
4.45973E-3	175.154E-12	680.380E-3	19.5099E-3	177.496E-12	627.187E-3	21.1976E-3
4.45473E-3	176.230E-12	664.782E-3	11.6611E-3	175.640E-12	618.797E-3	19.5656E-3
4.44972E-3	175.591E-12	675.391E-3	12.1745E-3	175.367E-12	642.810E-3	3.72079E-3
4.44472E-3	176.340E-12	678.305E-3	-5.61623E-3	174.417E-12	674.921E-3	-22.7673E-3
4.43972E-3	176.071E-12	665.176E-3	-28.9078E-3	175.245E-12	690.142E-3	-41.8858E-3
4.43472E-3	177.669E-12	653.403E-3	-23.7555E-3	173.524E-12	698.907E-3	-25.9791E-3
4.42971E-3	177.099E-12	653.972E-3	-6.16960E-3	173.066E-12	682.995E-3	7.12004E-3
4.42471E-3	178.344E-12	668.208E-3	2.15104E-3	174.835E-12	655.463E-3	30.9315E-3
4.41971E-3	178.519E-12	673.888E-3	-2.82340E-3	175.131E-12	643.977E-3	30.5200E-3
4.41471E-3	179.024E-12	643.493E-3	-11.5947E-3	175.515E-12	646.752E-3	3.71611E-3
4.40970E-3	178.858E-12	632.625E-3	-9.82546E-3	174.671E-12	647.134E-3	-13.5488E-3
4.40470E-3	177.241E-12	658.700E-3	11.7001E-3	176.802E-12	643.424E-3	475.412E-6
4.39970E-3	178.035E-12	674.608E-3	29.7895E-3	175.204E-12	660.218E-3	11.2866E-3
4.39470E-3	175.424E-12	675.194E-3	1.10117E-3	175.928E-12	673.522E-3	-3.65062E-3
4.38969E-3	175.590E-12	655.515E-3	-48.4660E-3	174.733E-12	654.890E-3	-24.4640E-3
4.38469E-3	174.138E-12	635.537E-3	-55.5070E-3	175.315E-12	641.188E-3	-35.1403E-3
4.37969E-3	173.273E-12	640.048E-3	-24.9544E-3	174.537E-12	660.789E-3	-38.1099E-3
4.37469E-3	171.815E-12	657.573E-3	-5.34860E-3	173.081E-12	671.522E-3	-44.7512E-3
4.36968E-3	171.426E-12	675.774E-3	2.99306E-3	173.232E-12	651.352E-3	-63.9602E-3
4.36468E-3	172.110E-12	706.447E-3	-649.022E-6	172.433E-12	658.284E-3	-54.6173E-3
4.35968E-3	170.992E-12	730.382E-3	-19.5721E-3	171.542E-12	685.254E-3	-21.2594E-3
4.35468E-3	171.107E-12	710.566E-3	-29.4754E-3	170.138E-12	668.489E-3	-14.0166E-3
4.34967E-3	170.841E-12	654.007E-3	-36.4805E-3	171.270E-12	645.613E-3	-14.0294E-3
4.34467E-3	172.355E-12	612.140E-3	-21.8772E-3	169.867E-12	660.917E-3	-461.740E-6
4.33967E-3	170.576E-12	642.525E-3	-6.55919E-3	169.711E-12	674.247E-3	4.94529E-3
4.33467E-3	170.835E-12	694.724E-3	-44.2063E-3	170.117E-12	669.688E-3	-3.14910E-3
4.32966E-3	171.378E-12	716.377E-3	-75.9360E-3	170.767E-12	677.606E-3	992.939E-6
4.32466E-3	171.785E-12	720.789E-3	-43.6644E-3	170.162E-12	689.743E-3	40.4740E-3
4.31966E-3	171.679E-12	700.967E-3	-14.6124E-3	170.854E-12	687.812E-3	70.7752E-3
4.31466E-3	171.832E-12	691.544E-3	-24.2265E-3	171.162E-12	688.760E-3	32.7019E-3
4.30965E-3	171.458E-12	711.911E-3	-23.4403E-3	172.514E-12	697.896E-3	-20.6280E-3
4.30465E-3	170.576E-12	716.471E-3	-2.73806E-3	171.736E-12	705.900E-3	-35.0745E-3
4.29965E-3	170.204E-12	697.195E-3	-5.63639E-3	171.741E-12	690.557E-3	-33.6363E-3
4.29465E-3	169.254E-12	686.885E-3	-22.7055E-3	171.339E-12	643.579E-3	-20.2681E-3
4.28964E-3	169.524E-12	707.855E-3	-17.8943E-3	171.473E-12	640.256E-3	-4.51662E-3
4.28464E-3	168.177E-12	727.913E-3	-30.5025E-3	169.920E-12	677.896E-3	-13.5276E-3
4.27964E-3	168.896E-12	710.856E-3	-53.1393E-3	168.742E-12	672.634E-3	-22.9059E-3
4.27464E-3	168.939E-12	684.296E-3	-37.3275E-3	169.110E-12	647.159E-3	-10.6496E-3
4.26963E-3	169.714E-12	685.289E-3	2.17865E-3	167.365E-12	646.201E-3	-4.59460E-3
4.26463E-3	168.117E-12	704.336E-3	19.7396E-3	167.391E-12	659.265E-3	-8.16104E-3
4.25963E-3	169.367E-12	702.185E-3	-8.28927E-3	167.076E-12	682.621E-3	-13.3203E-3
4.25463E-3	168.720E-12	672.242E-3	-31.4598E-3	167.520E-12	716.174E-3	-33.4851E-3
4.24962E-3	168.883E-12	663.988E-3	-8.45844E-3	166.592E-12	730.615E-3	-40.6372E-3
4.24462E-3	168.274E-12	679.732E-3	27.8685E-3	166.260E-12	697.303E-3	-18.6518E-3
4.23962E-3	167.623E-12	696.951E-3	26.6770E-3	166.728E-12	643.888E-3	-21.2698E-3
4.23462E-3	168.176E-12	712.133E-3	-5.73806E-3	166.258E-12	625.318E-3	-20.8458E-3
4.22961E-3	166.280E-12	667.379E-3	-23.0032E-3	165.815E-12	646.760E-3	24.5678E-3
4.22461E-3	166.113E-12	609.770E-3	-19.2510E-3	165.961E-12	656.734E-3	40.3466E-3
4.21961E-3	166.056E-12	639.840E-3	-26.9028E-3	167.188E-12	621.315E-3	9.24643E-3
4.21461E-3	166.255E-12	699.983E-3	-34.3024E-3	166.482E-12	612.853E-3	-16.8581E-3
4.20960E-3	164.970E-12	720.265E-3	-24.9356E-3	165.899E-12	656.179E-3	-19.1466E-3
4.20460E-3	164.466E-12	706.771E-3	-27.5894E-3	166.207E-12	664.668E-3	-21.6970E-3
4.19960E-3	164.659E-12	684.351E-3	-36.5931E-3	166.415E-12	646.813E-3	-21.2146E-3
4.19460E-3	165.167E-12	676.043E-3	-35.9401E-3	165.515E-12	645.075E-3	274.249E-6
4.18959E-3	163.755E-12	681.479E-3	-39.4148E-3	165.713E-12	633.682E-3	8.69602E-3
4.18459E-3	165.323E-12	684.834E-3	-32.0306E-3	165.714E-12	626.075E-3	8.84262E-3
4.17959E-3	165.063E-12	692.699E-3	-5.28155E-3	164.353E-12	650.916E-3	5.15541E-3
4.17459E-3	165.557E-12	696.439E-3	4.27378E-3	163.960E-12	688.843E-3	-1.09568E-3
4.16958E-3	165.412E-12	689.329E-3	10.9451E-3	163.865E-12	706.059E-3	21.5287E-3
4.16458E-3	166.762E-12	707.261E-3	32.8135E-3	164.180E-12	706.842E-3	35.0822E-3
4.15958E-3	166.067E-12	728.233E-3	26.0726E-3	163.435E-12	707.667E-3	5.19033E-3
4.15458E-3	164.647E-12	705.595E-3	-5.50363E-3	163.338E-12	689.657E-3	-415.143E-6
4.14957E-3	164.500E-12	670.114E-3	-20.3166E-3	162.962E-12	666.282E-3	31.2191E-3
4.14457E-3	163.352E-12	663.166E-3	-12.1130E-3	163.481E-12	658.764E-3	25.7286E-3
4.13957E-3	162.767E-12	660.552E-3	-5.40158E-3	162.384E-12	656.873E-3	-4.45465E-3
4.13457E-3	161.059E-12	656.778E-3	-10.5028E-3	161.756E-12	657.234E-3	151.942E-6
4.12956E-3	160.751E-12	665.397E-3	6.06281E-3	161.900E-12	657.566E-3	21.4788E-3
4.12456E-3	159.810E-12	678.397E-3	18.5563E-3	161.889E-12	658.627E-3	19.7534E-3
4.11956E-3	159.248E-12	692.381E-3	3.50937E-3	161.171E-12	662.074E-3	6.34628E-3
4.11456E-3	158.662E-12	696.690E-3	-3.58377E-3	160.682E-12	648.799E-3	-1.53338E-3
4.10955E-3	158.851E-12	682.453E-3	-11.8212E-3	161.165E-12	635.161E-3	-27.2697E-3
4.10455E-3	159.672E-12	672.166E-3	-32.7543E-3	159.757E-12	670.332E-3	-42.8370E-3
4.09955E-3	159.242E-12	659.979E-3	-51.0647E-3	159.941E-12	711.973E-3	-26.3000E-3
4.09455E-3	160.321E-12	629.088E-3	-44.5584E-3	159.896E-12	709.162E-3	-11.5275E-3
4.08954E-3	161.017E-12	633.060E-3	-32.4882E-3	160.199E-12	689.671E-3	-7.64344E-3
4.08454E-3	161.956E-12	659.960E-3	-42.6517E-3	159.514E-12	678.625E-3	-37.7710E-3
4.07954E-3	161.319E-12	665.224E-3	-38.7593E-3	160.996E-12	677.169E-3	-64.4064E-3
4.07454E-3	162.623E-12	659.973E-3	-25.5789E-3	160.408E-12	677.309E-3	-38.5700E-3
4.06953E-3	162.176E-12	675.672E-3	-29.5604E-3	159.982E-12	651.306E-3	-20.5441E-3
4.06453E-3	162.099E-12	689.862E-3	-30.6999E-3	160.664E-12	616.238E-3	-30.5087E-3
4.05953E-3	160.530E-12	674.110E-3	-36.5784E-3	160.051E-12	623.636E-3	-31.0853E-3
4.05453E-3	160.467E-12	669.189E-3	-45.1058E-3	160.067E-12	653.898E-3	-32.9580E-3
4.04952E-3	159.446E-12	669.890E-3	-35.4004E-3	158.980E-12	657.973E-3	-32.9593E-3
4.04452E-3	157.914E-12	662.080E-3	-11.5952E-3	158.978E-12	661.961E-3	-30.4639E-3
4.03952E-3	156.817E-12	666.852E-3	2.42998E-3	158.135E-12	683.135E-3	-44.2877E-3
4.03452E-3	156.067E-12	668.423E-3	-10.2128E-3	158.863E-12	669.236E-3	-46.0489E-3
4.02951E-3	155.156E-12	650.644E-3	-16.2032E-3	157.528E-12	646.886E-3	-25.4158E-3
4.02451E-3	155.171E-12	641.459E-3	-13.8354E-3	156.196E-12	636.758E-3	835.902E-6
4.01951E-3	155.265E-12	643.222E-3	-10.1225E-3	156.750E-12	618.833E-3	22.7924E-3
4.01451E-3	155.211E-12	640.352E-3	7.13394E-3	155.963E-12	633.058E-3	5.49731E-3
4.00950E-3	155.133E-12	658.658E-3	4.90085E-3	155.905E-12	672.418E-3	-24.5621E-3
4.00450E-3	156.309E-12	694.706E-3	-22.9188E-3	155.695E-12	683.791E-3	-28.3575E-3
3.99950E-3	157.386E-12	698.823E-3	-35.8980E-3	155.834E-12	680.202E-3	941.493E-6
3.99450E-3	157.422E-12	674.621E-3	-39.1640E-3	155.713E-12	699.174E-3	33.1226E-3
3.98949E-3	157.457E-12	663.902E-3	-39.0634E-3	155.130E-12	703.158E-3	260.245E-6
3.98449E-3	158.007E-12	651.735E-3	-11.9928E-3	156.645E-12	679.637E-3	-41.2895E-3
3.97949E-3	158.145E-12	637.014E-3	18.4027E-3	155.867E-12	677.815E-3	-29.9361E-3
3.97449E-3	156.903E-12	649.346E-3	30.2165E-3	155.483E-12	673.282E-3	-7.49768E-3
3.96948E-3	156.437E-12	651.297E-3	32.7304E-3	155.285E-12	656.760E-3	8.03797E-3
3.96448E-3	155.489E-12	655.978E-3	21.5169E-3	155.422E-12	656.671E-3	25.0675E-3
3.95948E-3	154.721E-12	695.530E-3	-131.383E-6	154.624E-12	647.518E-3	29.8367E-3
3.95448E-3	153.628E-12	714.613E-3	-18.8884E-3	153.210E-12	635.089E-3	3.83847E-3
3.94947E-3	152.000E-12	687.873E-3	-36.8147E-3	153.430E-12	663.670E-3	-14.9931E-3
3.94447E-3	151.335E-12	650.052E-3	-53.4471E-3	152.841E-12	697.834E-3	-2.88062E-3
3.93947E-3	150.304E-12	646.080E-3	-46.9812E-3	152.366E-12	679.190E-3	2.22708E-3
3.93447E-3	149.873E-12	673.032E-3	-22.0561E-3	151.277E-12	650.956E-3	587.821E-6
3.92946E-3	149.296E-12	681.528E-3	-7.15949E-3	151.777E-12	648.771E-3	-8.87893E-3
3.92446E-3	149.354E-12	658.969E-3	-10.1791E-3	151.629E-12	660.764E-3	-15.7431E-3
3.91946E-3	149.108E-12	634.994E-3	-20.6741E-3	151.469E-12	676.418E-3	-10.8827E-3
3.91446E-3	150.688E-12	622.967E-3	-24.8366E-3	151.810E-12	660.239E-3	-14.1383E-3
3.90945E-3	150.834E-12	641.285E-3	-13.0238E-3	151.630E-12	638.027E-3	-21.8866E-3
3.90445E-3	150.899E-12	674.822E-3	-1.27090E-3	151.306E-12	665.567E-3	-37.2843E-3
3.89945E-3	151.116E-12	678.858E-3	-251.543E-6	150.941E-12	694.604E-3	-52.7795E-3
3.89445E-3	151.621E-12	671.596E-3	-8.86889E-3	152.183E-12	682.564E-3	-27.0911E-3
3.88944E-3	152.088E-12	670.323E-3	-20.2289E-3	151.932E-12	665.175E-3	13.3151E-3
3.88444E-3	151.365E-12	665.675E-3	-26.8270E-3	152.155E-12	669.649E-3	23.7023E-3
3.87944E-3	151.535E-12	675.651E-3	-25.3476E-3	151.622E-12	688.298E-3	12.1103E-3
3.87444E-3	150.653E-12	679.710E-3	-17.7278E-3	152.243E-12	699.210E-3	7.68481E-3
3.86943E-3	151.007E-12	652.669E-3	-27.2084E-3	151.674E-12	697.465E-3	18.4705E-3
3.86443E-3	149.882E-12	626.204E-3	-31.4151E-3	151.142E-12	696.122E-3	15.5190E-3
3.85943E-3	149.447E-12	643.346E-3	-3.96434E-3	151.160E-12	699.351E-3	6.08212E-3
3.85443E-3	149.714E-12	685.735E-3	21.9558E-3	150.143E-12	697.872E-3	-11.5043E-3
3.84942E-3	148.885E-12	693.622E-3	20.5582E-3	150.082E-12	687.371E-3	-7.32566E-3
3.84442E-3	149.103E-12	692.162E-3	10.9742E-3	149.457E-12	680.307E-3	21.9978E-3
3.83942E-3	148.637E-12	696.717E-3	9.89964E-3	149.190E-12	666.574E-3	-4.58854E-3
3.83442E-3	149.067E-12	685.156E-3	3.32291E-3	148.762E-12	647.067E-3	-46.2069E-3
3.82941E-3	148.523E-12	674.127E-3	-8.20338E-3	147.640E-12	657.883E-3	-24.8504E-3
3.82441E-3	148.668E-12	670.386E-3	-12.6051E-3	148.366E-12	694.595E-3	-2.12169E-3
3.81941E-3	149.326E-12	660.404E-3	-20.5582E-3	147.588E-12	716.656E-3	-22.3129E-3
3.81441E-3	149.563E-12	638.602E-3	-30.4697E-3	148.146E-12	710.224E-3	-36.8907E-3
3.80940E-3	148.600E-12	630.827E-3	-37.6461E-3	147.840E-12	702.338E-3	-33.2411E-3
3.80440E-3	148.653E-12	658.755E-3	-36.2540E-3	148.082E-12	702.346E-3	-35.7935E-3
3.79940E-3	149.119E-12	684.143E-3	-20.0507E-3	148.459E-12	706.896E-3	-32.3809E-3
3.79440E-3	147.903E-12	672.442E-3	-23.6807E-3	147.423E-12	703.911E-3	-14.7623E-3
3.78939E-3	146.578E-12	676.857E-3	-38.4954E-3	148.087E-12	679.521E-3	-23.0330E-3
3.78439E-3	146.544E-12	702.356E-3	-17.5573E-3	147.458E-12	650.341E-3	-33.0227E-3
3.77939E-3	146.522E-12	693.802E-3	202.523E-6	147.278E-12	645.390E-3	-22.6615E-3
3.77439E-3	145.232E-12	691.388E-3	-16.4357E-3	146.292E-12	672.882E-3	-10.5949E-3
3.76938E-3	144.961E-12	706.804E-3	-33.4093E-3	146.067E-12	684.442E-3	19.7349E-3
3.76438E-3	145.535E-12	692.160E-3	-22.0308E-3	146.245E-12	671.165E-3	29.3629E-3
3.75938E-3	145.166E-12	653.482E-3	-7.38238E-3	145.533E-12	669.340E-3	3.46896E-3
3.75438E-3	146.140E-12	650.617E-3	-16.9302E-3	145.477E-12	674.861E-3	-11.1484E-3
3.74937E-3	146.072E-12	684.396E-3	-19.3626E-3	144.819E-12	676.831E-3	-9.49080E-3
3.74437E-3	146.333E-12	682.133E-3	-16.4700E-3	144.867E-12	673.976E-3	-7.20129E-3
3.73937E-3	146.041E-12	652.175E-3	-39.6316E-3	144.221E-12	657.659E-3	-17.9853E-3
3.73437E-3	146.720E-12	653.190E-3	-53.6600E-3	143.594E-12	651.335E-3	-35.6098E-3
3.72936E-3	146.336E-12	672.588E-3	-36.8862E-3	143.634E-12	671.333E-3	-39.4074E-3
3.72436E-3	145.542E-12	679.142E-3	-22.9252E-3	143.834E-12	669.941E-3	-33.6076E-3
3.71936E-3	145.084E-12	679.310E-3	-26.9096E-3	142.429E-12	641.708E-3	-29.2256E-3
3.71436E-3	143.964E-12	661.279E-3	-23.5739E-3	143.590E-12	637.280E-3	-21.0053E-3
3.70935E-3	143.386E-12	638.249E-3	-4.75993E-3	142.921E-12	651.528E-3	-14.4900E-3
3.70435E-3	142.675E-12	637.461E-3	-4.96855E-3	142.264E-12	670.102E-3	-5.74713E-3
3.69935E-3	140.905E-12	659.185E-3	-5.86303E-3	141.864E-12	685.364E-3	2.10779E-3
3.69435E-3	140.214E-12	670.013E-3	-2.84405E-3	142.357E-12	672.729E-3	-7.36992E-3
3.68934E-3	140.462E-12	656.534E-3	-13.4718E-3	141.912E-12	661.842E-3	-15.3629E-3
3.68434E-3	140.539E-12	654.743E-3	-10.6421E-3	142.204E-12	658.139E-3	-17.2946E-3
3.67934E-3	139.125E-12	668.156E-3	-6.83716E-3	141.114E-12	647.877E-3	-29.1407E-3
3.67434E-3	139.448E-12	662.964E-3	-28.5762E-3	141.941E-12	642.584E-3	-28.3287E-3
3.66933E-3	140.628E-12	642.316E-3	-35.9530E-3	141.182E-12	632.740E-3	-7.90157E-3
3.66433E-3	141.215E-12	649.907E-3	-24.6258E-3	140.790E-12	642.751E-3	-2.46300E-3
3.65933E-3	141.452E-12	689.869E-3	-30.0503E-3	140.189E-12	680.650E-3	-15.3231E-3
3.65433E-3	142.370E-12	702.646E-3	-44.1990E-3	140.834E-12	687.547E-3	-18.7295E-3
3.64932E-3	142.004E-12	678.593E-3	-49.9207E-3	140.821E-12	672.347E-3	-3.25502E-3
3.64432E-3	142.175E-12	676.169E-3	-32.3879E-3	139.761E-12	678.194E-3	-6.87396E-3
3.63932E-3	141.980E-12	687.386E-3	-14.3067E-3	140.240E-12	705.822E-3	-17.4052E-3
3.63432E-3	141.895E-12	672.136E-3	-24.8244E-3	140.451E-12	720.057E-3	-1.65695E-3
3.62931E-3	140.476E-12	658.219E-3	-40.0935E-3	140.713E-12	680.607E-3	9.79130E-3
3.62431E-3	139.663E-12	656.005E-3	-31.1416E-3	139.578E-12	650.060E-3	-8.57241E-3
3.61931E-3	139.311E-12	660.830E-3	-6.15179E-3	140.234E-12	670.655E-3	-32.7823E-3
3.61431E-3	137.759E-12	684.037E-3	-6.39975E-3	138.874E-12	687.523E-3	-31.3455E-3
3.60930E-3	136.565E-12	688.631E-3	-17.2217E-3	139.046E-12	681.187E-3	-24.7809E-3
3.60430E-3	135.193E-12	673.284E-3	-2.49893E-3	138.191E-12	673.275E-3	-21.4035E-3
3.59930E-3	135.576E-12	670.452E-3	-7.93463E-3	139.992E-12	679.490E-3	-11.8241E-3
3.59430E-3	135.611E-12	671.206E-3	-42.3426E-3	138.031E-12	679.875E-3	435.974E-6
3.58929E-3	136.206E-12	657.052E-3	-30.9070E-3	138.630E-12	650.357E-3	15.0721E-3
3.58429E-3	135.711E-12	652.395E-3	12.8672E-3	138.727E-12	633.487E-3	14.6080E-3
3.57929E-3	136.822E-12	683.159E-3	23.7351E-3	138.995E-12	663.302E-3	-5.51232E-3
3.57429E-3	137.528E-12	706.940E-3	6.50040E-3	138.886E-12	694.191E-3	-12.0179E-3
3.56928E-3	138.279E-12	691.795E-3	-12.6144E-3	137.205E-12	695.102E-3	-892.621E-6
3.56428E-3	138.685E-12	680.844E-3	-26.5913E-3	138.118E-12	677.376E-3	-14.4753E-3
3.55928E-3	139.099E-12	700.371E-3	-26.8565E-3	138.410E-12	660.888E-3	-25.8621E-3
3.55428E-3	139.008E-12	705.335E-3	-17.4079E-3	137.268E-12	672.870E-3	-3.51558E-3
3.54927E-3	138.631E-12	691.227E-3	-11.1349E-3	137.782E-12	687.720E-3	5.67222E-3
3.54427E-3	139.021E-12	698.308E-3	-5.22363E-3	136.970E-12	675.874E-3	2.61223E-3
3.53927E-3	137.204E-12	704.403E-3	-1.00948E-3	137.825E-12	674.144E-3	7.56106E-3
3.53427E-3	136.236E-12	695.085E-3	-9.89376E-3	136.361E-12	696.311E-3	4.52806E-3
3.52926E-3	135.878E-12	696.972E-3	-20.8293E-3	136.217E-12	696.723E-3	-6.47630E-3
3.52426E-3	134.802E-12	680.409E-3	-3.43992E-3	135.141E-12	677.941E-3	-17.8130E-3
3.51926E-3	134.121E-12	634.590E-3	12.8595E-3	134.561E-12	688.393E-3	-14.4503E-3
3.51426E-3	132.637E-12	633.140E-3	-2.80934E-3	133.771E-12	700.435E-3	5.39289E-3
3.50925E-3	132.268E-12	670.264E-3	-11.1973E-3	133.380E-12	674.460E-3	13.3821E-3
3.50425E-3	131.442E-12	674.205E-3	-6.02796E-3	133.211E-12	664.084E-3	12.0777E-3
3.49925E-3	132.005E-12	669.311E-3	3.30394E-3	132.984E-12	690.128E-3	5.36073E-3
3.49425E-3	131.287E-12	683.216E-3	7.71281E-3	132.387E-12	706.186E-3	-16.9554E-3
3.48924E-3	132.149E-12	688.067E-3	-17.7914E-3	133.320E-12	699.386E-3	-40.3377E-3
3.48424E-3	133.208E-12	683.588E-3	-42.4065E-3	133.567E-12	695.366E-3	-41.8882E-3
3.47924E-3	133.437E-12	694.067E-3	-38.0381E-3	133.129E-12	697.596E-3	-25.9950E-3
3.47424E-3	133.673E-12	704.771E-3	-30.4779E-3	132.208E-12	690.296E-3	-31.4674E-3
3.46923E-3	133.926E-12	706.578E-3	-20.1119E-3	133.297E-12	684.624E-3	-36.7951E-3
3.46423E-3	134.663E-12	709.577E-3	-3.89277E-3	133.437E-12	677.909E-3	-5.50187E-3
3.45923E-3	133.848E-12	704.495E-3	-17.6903E-3	132.425E-12	673.313E-3	24.0044E-3
3.45423E-3	134.699E-12	727.054E-3	-42.6604E-3	132.671E-12	685.105E-3	19.0345E-3
3.44922E-3	134.216E-12	764.567E-3	-35.9234E-3	132.323E-12	686.346E-3	-4.02441E-3
3.44422E-3	132.774E-12	752.407E-3	-16.4512E-3	131.859E-12	681.559E-3	-21.1283E-3
3.43922E-3	132.454E-12	725.203E-3	-12.5349E-3	131.742E-12	693.864E-3	-29.2802E-3
3.43422E-3	131.610E-12	714.588E-3	-25.2610E-3	131.896E-12	684.745E-3	-27.7234E-3
3.42921E-3	131.790E-12	705.677E-3	-36.0720E-3	130.812E-12	672.075E-3	-12.4256E-3
3.42421E-3	130.141E-12	701.043E-3	-37.6271E-3	130.133E-12	686.500E-3	-11.9327E-3
3.41921E-3	130.193E-12	698.287E-3	-30.4542E-3	130.004E-12	691.198E-3	-28.8216E-3
3.41421E-3	130.194E-12	692.051E-3	-29.6886E-3	129.029E-12	674.704E-3	-21.6235E-3
3.40920E-3	129.929E-12	678.605E-3	-43.1608E-3	128.463E-12	666.705E-3	-8.03428E-3
3.40420E-3	129.354E-12	671.740E-3	-50.7763E-3	128.059E-12	675.840E-3	-8.52343E-3
3.39920E-3	130.193E-12	673.906E-3	-40.0851E-3	128.900E-12	671.998E-3	-5.45554E-3
3.39420E-3	129.995E-12	678.728E-3	-23.7642E-3	128.358E-12	666.671E-3	6.10850E-3
3.38919E-3	129.589E-12	698.588E-3	-40.4489E-3	128.046E-12	669.478E-3	14.0397E-3
3.38419E-3	129.977E-12	704.500E-3	-59.2691E-3	128.103E-12	657.802E-3	8.72236E-3
3.37919E-3	129.205E-12	676.822E-3	-31.4052E-3	128.463E-12	644.841E-3	-1.61228E-3
3.37419E-3	128.938E-12	661.527E-3	-506.644E-6	127.770E-12	648.206E-3	-32.8672E-3
3.36918E-3	128.210E-12	677.669E-3	4.92978E-3	128.281E-12	650.781E-3	-65.4314E-3
3.36418E-3	127.758E-12	691.453E-3	-847.892E-6	127.300E-12	650.172E-3	-56.3387E-3
3.35918E-3	126.817E-12	678.988E-3	-16.5347E-3	127.356E-12	664.013E-3	-19.6205E-3
3.35418E-3	126.199E-12	664.866E-3	-22.4980E-3	127.658E-12	683.809E-3	3.23719E-3
3.34917E-3	126.353E-12	668.059E-3	-6.81105E-3	127.816E-12	712.764E-3	-6.25522E-3
3.34417E-3	125.933E-12	664.265E-3	3.68967E-3	126.548E-12	728.933E-3	-10.0292E-3
3.33917E-3	125.693E-12	652.299E-3	-808.603E-6	126.876E-12	712.490E-3	11.0103E-3
3.33417E-3	125.254E-12	639.704E-3	-16.1315E-3	126.404E-12	700.145E-3	8.81087E-3
3.32916E-3	124.480E-12	633.469E-3	-21.2579E-3	125.744E-12	694.554E-3	-15.5366E-3
3.32416E-3	125.631E-12	646.215E-3	-2.51025E-3	126.324E-12	671.240E-3	-23.0413E-3
3.31916E-3	125.179E-12	658.878E-3	17.5010E-3	125.400E-12	667.872E-3	-14.0950E-3
3.31416E-3	124.888E-12	672.980E-3	6.38010E-3	124.885E-12	684.784E-3	-11.3673E-3
3.30915E-3	124.535E-12	680.208E-3	-28.1569E-3	124.568E-12	672.756E-3	-5.47497E-3
3.30415E-3	125.409E-12	671.610E-3	-47.4376E-3	125.450E-12	659.974E-3	27.2165E-3
3.29915E-3	124.772E-12	674.712E-3	-28.5581E-3	124.017E-12	681.984E-3	25.0538E-3
3.29415E-3	124.152E-12	690.170E-3	-1.11767E-3	124.040E-12	701.053E-3	-9.60002E-3
3.28914E-3	124.273E-12	706.093E-3	-2.92812E-3	123.723E-12	683.147E-3	-12.9635E-3
3.28414E-3	123.828E-12	715.409E-3	-12.1703E-3	124.545E-12	655.350E-3	-19.9745E-3
3.27914E-3	123.035E-12	706.015E-3	-17.2733E-3	123.296E-12	647.344E-3	-23.0540E-3
3.27414E-3	122.436E-12	689.648E-3	-23.2853E-3	123.990E-12	674.099E-3	-10.2288E-3
3.26913E-3	122.289E-12	684.088E-3	-26.8058E-3	123.498E-12	700.405E-3	-21.5505E-3
3.26413E-3	121.184E-12	673.631E-3	-25.4639E-3	123.606E-12	688.550E-3	-35.7370E-3
3.25913E-3	121.251E-12	661.114E-3	-25.0308E-3	123.255E-12	675.320E-3	-22.8800E-3
3.25413E-3	120.831E-12	656.030E-3	-23.6563E-3	123.544E-12	687.594E-3	1.78570E-3
3.24912E-3	121.143E-12	638.245E-3	-16.9407E-3	123.343E-12	700.096E-3	14.8116E-3
3.24412E-3	121.070E-12	629.137E-3	-19.0158E-3	122.869E-12	689.396E-3	9.46600E-3
3.23912E-3	121.877E-12	659.007E-3	-22.3294E-3	123.618E-12	682.479E-3	-24.1435E-3
3.23412E-3	122.124E-12	685.106E-3	-15.1830E-3	122.878E-12	691.534E-3	-51.0939E-3
3.22911E-3	122.483E-12	691.804E-3	-25.2331E-3	122.767E-12	699.745E-3	-41.0129E-3
3.22411E-3	123.105E-12	698.813E-3	-45.9434E-3	122.314E-12	695.383E-3	-31.4670E-3
3.21911E-3	122.730E-12	701.747E-3	-40.5755E-3	121.910E-12	672.666E-3	-31.1073E-3
3.21411E-3	122.633E-12	695.511E-3	-38.8547E-3	121.472E-12	660.645E-3	-19.7935E-3
3.20910E-3	123.063E-12	698.149E-3	-57.7359E-3	121.329E-12	669.099E-3	-14.4522E-3
3.20410E-3	122.502E-12	708.807E-3	-69.7318E-3	120.408E-12	677.813E-3	-14.8471E-3
3.19910E-3	122.049E-12	701.235E-3	-64.2767E-3	120.141E-12	680.264E-3	-10.1452E-3
3.19410E-3	121.414E-12	692.350E-3	-43.2702E-3	120.815E-12	689.316E-3	-21.0494E-3
3.18909E-3	120.211E-12	693.532E-3	-21.2039E-3	119.212E-12	708.067E-3	-31.9075E-3
3.18409E-3	119.350E-12	707.110E-3	-7.08665E-3	118.876E-12	707.076E-3	-22.4268E-3
3.17909E-3	119.361E-12	720.204E-3	7.42742E-3	118.841E-12	697.023E-3	-26.6774E-3
3.17409E-3	118.691E-12	708.937E-3	16.3293E-3	119.321E-12	701.288E-3	-41.6039E-3
3.16908E-3	118.522E-12	682.321E-3	8.97909E-3	118.134E-12	704.856E-3	-28.7903E-3
3.16408E-3	118.432E-12	687.013E-3	1.55010E-3	118.877E-12	694.117E-3	-13.4731E-3
3.15908E-3	118.546E-12	715.213E-3	-9.11728E-3	118.265E-12	674.074E-3	-25.7847E-3
3.15408E-3	118.078E-12	707.835E-3	-25.5932E-3	118.054E-12	674.646E-3	-34.3549E-3
3.14907E-3	118.136E-12	681.315E-3	-24.7062E-3	118.452E-12	697.512E-3	-23.3261E-3
3.14407E-3	118.442E-12	669.148E-3	-20.8983E-3	118.585E-12	699.797E-3	-17.8507E-3
3.13907E-3	119.086E-12	676.610E-3	-30.8312E-3	118.467E-12	688.275E-3	-19.9243E-3
3.13407E-3	119.311E-12	684.219E-3	-45.8261E-3	118.228E-12	710.204E-3	-16.3396E-3
3.12906E-3	118.862E-12	687.231E-3	-63.8639E-3	118.332E-12	736.240E-3	-17.4697E-3
3.12406E-3	118.874E-12	699.581E-3	-62.9763E-3	117.988E-12	726.771E-3	-10.3176E-3
3.11906E-3	118.700E-12	707.515E-3	-49.1700E-3	117.204E-12	708.755E-3	3.49010E-3
3.11406E-3	117.952E-12	714.903E-3	-46.7996E-3	116.320E-12	694.262E-3	5.86776E-3
3.10905E-3	116.511E-12	720.701E-3	-46.5661E-3	116.168E-12	685.228E-3	7.44667E-3
3.10405E-3	116.015E-12	696.271E-3	-40.2572E-3	115.537E-12	693.437E-3	12.6516E-3
3.09905E-3	114.946E-12	666.268E-3	-14.3684E-3	115.166E-12	699.997E-3	9.04094E-3
3.09405E-3	114.063E-12	673.317E-3	5.95057E-3	114.267E-12	691.035E-3	-8.63313E-3
3.08904E-3	113.112E-12	700.007E-3	-12.3229E-3	113.644E-12	703.414E-3	-27.0611E-3
3.08404E-3	112.100E-12	706.263E-3	-40.2053E-3	113.930E-12	720.806E-3	-41.1636E-3
3.07904E-3	111.863E-12	683.353E-3	-35.8899E-3	113.467E-12	691.581E-3	-45.5296E-3
3.07404E-3	112.529E-12	670.592E-3	-6.22433E-3	113.005E-12	660.729E-3	-40.0565E-3
3.06903E-3	112.215E-12	685.662E-3	10.3390E-3	113.774E-12	666.784E-3	-27.2081E-3
3.06403E-3	112.585E-12	690.576E-3	14.3415E-3	112.753E-12	682.924E-3	-10.6699E-3
3.05903E-3	113.138E-12	679.560E-3	13.5942E-3	113.029E-12	696.135E-3	-12.9261E-3
3.05403E-3	113.369E-12	687.429E-3	13.7659E-3	113.130E-12	702.309E-3	-29.9272E-3
3.04902E-3	113.647E-12	701.127E-3	26.6504E-3	113.685E-12	689.184E-3	-24.1259E-3
3.04402E-3	113.765E-12	700.611E-3	26.4598E-3	112.639E-12	669.083E-3	-11.5605E-3
3.03902E-3	113.305E-12	689.393E-3	17.5283E-3	113.010E-12	667.744E-3	-10.0921E-3
3.03402E-3	113.893E-12	683.470E-3	5.78598E-3	114.196E-12	674.008E-3	647.889E-6
3.02901E-3	114.088E-12	694.430E-3	-22.9501E-3	113.708E-12	672.080E-3	4.16304E-3
3.02401E-3	113.026E-12	692.992E-3	-33.9328E-3	113.099E-12	664.772E-3	-3.05685E-3
3.01901E-3	112.104E-12	684.925E-3	-16.6240E-3	111.668E-12	666.922E-3	-10.4850E-3
3.01401E-3	111.824E-12	688.181E-3	-6.51798E-3	112.149E-12	668.179E-3	-17.2498E-3
3.00900E-3	110.965E-12	695.958E-3	-19.3101E-3	111.307E-12	664.787E-3	-7.27004E-3
3.00400E-3	110.135E-12	698.157E-3	-30.3826E-3	110.403E-12	672.471E-3	-5.36764E-3
2.99900E-3	109.373E-12	686.229E-3	-27.8645E-3	109.981E-12	685.777E-3	-20.8162E-3
2.99400E-3	108.742E-12	675.117E-3	-34.4422E-3	109.775E-12	690.926E-3	-32.2537E-3
2.98899E-3	109.076E-12	676.776E-3	-33.2386E-3	109.796E-12	683.936E-3	-38.4147E-3
2.98399E-3	108.137E-12	679.434E-3	-14.2221E-3	109.187E-12	700.020E-3	-30.1833E-3
2.97899E-3	108.773E-12	691.190E-3	-2.64493E-3	109.573E-12	728.730E-3	-26.0112E-3
2.97399E-3	108.696E-12	703.077E-3	-9.35149E-3	108.665E-12	715.758E-3	-23.3080E-3
2.96898E-3	109.302E-12	683.514E-3	-14.1157E-3	108.776E-12	677.181E-3	-688.529E-6
2.96398E-3	109.087E-12	683.809E-3	-5.46330E-3	108.789E-12	673.892E-3	17.4372E-3
2.95898E-3	110.105E-12	704.595E-3	1.61419E-3	108.866E-12	702.602E-3	3.36177E-3
2.95398E-3	110.058E-12	699.240E-3	-1.04795E-3	108.049E-12	704.777E-3	-29.5231E-3
2.94897E-3	109.476E-12	696.404E-3	-4.72511E-3	107.981E-12	687.995E-3	-26.9689E-3
2.94397E-3	110.063E-12	698.444E-3	-6.78127E-3	109.313E-12	678.766E-3	7.04975E-3
2.93897E-3	109.207E-12	705.673E-3	-8.44261E-3	108.907E-12	663.479E-3	9.56696E-3
2.93397E-3	109.375E-12	724.552E-3	-7.08357E-3	108.536E-12	657.637E-3	-19.7890E-3
2.92896E-3	108.003E-12	745.727E-3	-10.5687E-3	108.210E-12	675.721E-3	-37.5891E-3
2.92396E-3	108.341E-12	738.793E-3	-21.1722E-3	108.291E-12	694.070E-3	-31.2124E-3
2.91896E-3	107.087E-12	698.134E-3	-38.0455E-3	108.116E-12	703.613E-3	-16.7518E-3
2.91396E-3	107.124E-12	675.177E-3	-34.5822E-3	107.174E-12	697.843E-3	-7.68584E-3
2.90895E-3	106.649E-12	684.802E-3	-16.7976E-3	106.653E-12	674.134E-3	-3.09557E-3
2.90395E-3	105.893E-12	688.195E-3	-7.12168E-3	106.780E-12	671.282E-3	-723.293E-6
2.89895E-3	105.880E-12	671.492E-3	3.25536E-3	106.469E-12	696.535E-3	1.68314E-3
2.89395E-3	105.411E-12	659.794E-3	5.16482E-3	106.022E-12	696.543E-3	7.58008E-3
2.88894E-3	105.654E-12	663.243E-3	-11.7361E-3	105.670E-12	670.161E-3	19.7080E-3
2.88394E-3	105.148E-12	682.591E-3	-19.6005E-3	105.649E-12	657.732E-3	21.0058E-3
2.87894E-3	105.202E-12	697.268E-3	-12.7176E-3	105.189E-12	653.008E-3	-11.3546E-3
2.87394E-3	105.441E-12	692.437E-3	-16.2934E-3	105.411E-12	663.818E-3	-46.0991E-3
2.86893E-3	105.587E-12	690.540E-3	-17.4424E-3	105.130E-12	681.147E-3	-49.8803E-3
2.86393E-3	105.344E-12	697.759E-3	-19.0501E-3	105.300E-12	693.184E-3	-34.8065E-3
2.85893E-3	104.882E-12	689.865E-3	-44.4077E-3	104.621E-12	702.902E-3	-26.4693E-3
2.85393E-3	104.532E-12	671.069E-3	-60.3673E-3	105.258E-12	699.326E-3	-30.5577E-3
2.84892E-3	104.619E-12	669.913E-3	-34.0018E-3	105.592E-12	706.037E-3	-32.0386E-3
2.84392E-3	104.110E-12	694.378E-3	-15.4498E-3	104.826E-12	712.900E-3	-36.3344E-3
2.83892E-3	103.037E-12	722.401E-3	-17.9695E-3	104.363E-12	706.675E-3	-37.5348E-3
2.83392E-3	102.855E-12	716.999E-3	-19.0005E-3	104.601E-12	716.060E-3	-22.2566E-3
2.82891E-3	102.344E-12	691.177E-3	-30.6343E-3	104.732E-12	729.240E-3	218.323E-6
2.82391E-3	102.796E-12	690.349E-3	-42.2963E-3	103.813E-12	723.116E-3	8.02510E-3
2.81891E-3	102.597E-12	705.094E-3	-33.7017E-3	103.254E-12	716.595E-3	-14.8328E-3
2.81391E-3	102.642E-12	713.908E-3	-15.7090E-3	103.661E-12	714.163E-3	-46.8950E-3
2.80890E-3	102.493E-12	711.421E-3	-2.77707E-3	102.991E-12	715.354E-3	-59.7900E-3
2.80390E-3	102.754E-12	703.851E-3	-1.67919E-3	103.063E-12	717.332E-3	-35.0157E-3
2.79890E-3	102.825E-12	709.136E-3	-16.2449E-3	102.123E-12	701.429E-3	3.60293E-3
2.79390E-3	102.243E-12	729.972E-3	-24.3391E-3	102.278E-12	692.646E-3	7.63475E-3
2.78889E-3	101.940E-12	745.117E-3	-23.6559E-3	101.219E-12	703.298E-3	-11.7460E-3
2.78389E-3	101.579E-12	729.645E-3	-29.7469E-3	101.008E-12	696.082E-3	-23.9621E-3
2.77889E-3	101.299E-12	717.079E-3	-22.8387E-3	100.932E-12	683.083E-3	-31.4078E-3
2.77389E-3	100.789E-12	723.858E-3	829.476E-6	100.256E-12	683.306E-3	-28.2179E-3
2.76888E-3	100.940E-12	722.390E-3	4.12043E-3	99.6420E-12	696.192E-3	-25.0578E-3
2.76388E-3	99.8895E-12	711.093E-3	-27.4246E-3	99.0420E-12	708.753E-3	-44.5915E-3
2.75888E-3	99.9297E-12	699.888E-3	-47.6822E-3	99.1891E-12	691.276E-3	-51.3726E-3
2.75388E-3	98.9291E-12	679.631E-3	-36.6904E-3	98.3937E-12	667.775E-3	-23.9865E-3
2.74887E-3	98.3868E-12	663.180E-3	-23.8977E-3	97.9987E-12	663.240E-3	-7.08441E-3
2.74387E-3	97.5660E-12	670.315E-3	-1.94622E-3	98.0090E-12	665.643E-3	-25.5336E-3
2.73887E-3	97.7927E-12	685.920E-3	23.9996E-3	98.0545E-12	685.808E-3	-39.8266E-3
2.73387E-3	97.8052E-12	693.900E-3	26.2613E-3	97.9609E-12	707.289E-3	-17.9082E-3
2.72886E-3	98.0137E-12	682.935E-3	9.44043E-3	97.5281E-12	712.440E-3	129.272E-6
2.72386E-3	98.2420E-12	677.278E-3	-20.4439E-3	98.3902E-12	707.586E-3	-9.15803E-3
2.71886E-3	98.4805E-12	699.302E-3	-37.7851E-3	98.1206E-12	692.705E-3	-20.0764E-3
2.71386E-3	98.9911E-12	721.475E-3	-24.3217E-3	98.2861E-12	689.075E-3	-23.6092E-3
2.70885E-3	98.9367E-12	733.227E-3	-18.6069E-3	97.9299E-12	691.684E-3	-26.4504E-3
2.70385E-3	99.1585E-12	742.239E-3	-23.1490E-3	97.7907E-12	691.439E-3	-35.3693E-3
2.69885E-3	98.8387E-12	738.104E-3	-16.5566E-3	97.5416E-12	698.285E-3	-38.8124E-3
2.69385E-3	98.9545E-12	734.698E-3	-9.81594E-3	97.0493E-12	688.113E-3	-39.3388E-3
2.68884E-3	97.8148E-12	739.039E-3	-5.83258E-3	96.6731E-12	672.377E-3	-46.0742E-3
2.68384E-3	97.4810E-12	735.277E-3	-47.5287E-6	95.7742E-12	688.798E-3	-54.4196E-3
2.67884E-3	96.1452E-12	721.415E-3	-911.238E-6	96.2107E-12	706.301E-3	-47.5123E-3
2.67384E-3	95.2632E-12	713.295E-3	-8.14276E-3	95.2895E-12	701.900E-3	-21.8215E-3
2.66883E-3	94.6615E-12	724.489E-3	-20.3787E-3	95.0574E-12	696.001E-3	-9.05364E-3
2.66383E-3	94.2052E-12	714.748E-3	-30.5753E-3	94.4584E-12	686.968E-3	-9.25117E-3
2.65883E-3	93.2837E-12	694.591E-3	-19.5084E-3	94.0660E-12	682.470E-3	746.425E-6
2.65383E-3	92.5468E-12	707.139E-3	-7.51667E-3	93.7928E-12	700.924E-3	443.246E-6
2.64882E-3	93.1827E-12	712.784E-3	-14.7472E-3	93.5108E-12	710.484E-3	-19.6778E-3
2.64382E-3	92.2407E-12	693.065E-3	-31.4203E-3	93.8849E-12	713.182E-3	-22.5098E-3
2.63882E-3	92.2970E-12	679.339E-3	-30.9761E-3	93.0781E-12	728.157E-3	-8.63278E-3
2.63382E-3	92.5258E-12	690.821E-3	-19.3906E-3	93.4321E-12	730.197E-3	-12.8370E-3
2.62881E-3	93.5507E-12	720.841E-3	-28.2411E-3	93.9296E-12	721.891E-3	-31.9812E-3
2.62381E-3	93.6446E-12	724.654E-3	-49.8656E-3	94.3142E-12	720.314E-3	-36.8516E-3
2.61881E-3	93.8894E-12	707.208E-3	-51.9463E-3	93.7902E-12	718.687E-3	-25.8033E-3
2.61381E-3	93.6780E-12	706.811E-3	-39.0755E-3	93.9489E-12	716.685E-3	-20.8866E-3
2.60880E-3	93.6257E-12	711.740E-3	-51.7093E-3	94.1278E-12	716.504E-3	-20.9829E-3
2.60380E-3	93.9685E-12	713.911E-3	-63.9507E-3	93.7353E-12	718.554E-3	-18.6861E-3
2.59880E-3	93.2398E-12	729.894E-3	-40.8835E-3	93.4276E-12	733.653E-3	-12.7832E-3
2.59380E-3	93.6225E-12	743.767E-3	-24.1141E-3	92.6575E-12	743.635E-3	-15.0841E-3
2.58879E-3	92.4296E-12	744.758E-3	-29.7072E-3	91.9470E-12	725.746E-3	-23.7145E-3
2.58379E-3	91.3246E-12	743.102E-3	-24.8554E-3	91.5856E-12	704.647E-3	-21.5259E-3
2.57879E-3	90.5901E-12	731.000E-3	-14.9291E-3	91.2427E-12	711.088E-3	-26.9638E-3
2.57379E-3	90.7457E-12	717.879E-3	-15.1836E-3	90.7305E-12	719.189E-3	-35.9368E-3
2.56878E-3	89.8165E-12	714.393E-3	-6.02949E-3	89.6313E-12	709.657E-3	-23.4849E-3
2.56378E-3	89.3287E-12	703.768E-3	4.18163E-3	89.6642E-12	716.192E-3	-10.0411E-3
2.55878E-3	89.3349E-12	684.899E-3	836.164E-6	89.5214E-12	736.796E-3	-13.5306E-3
2.55378E-3	89.1292E-12	691.745E-3	-9.06614E-3	89.2474E-12	729.234E-3	-15.2521E-3
2.54877E-3	89.2654E-12	711.016E-3	-27.2908E-3	88.7780E-12	710.259E-3	-1.07230E-3
2.54377E-3	89.0701E-12	706.851E-3	-38.5279E-3	88.9950E-12	708.902E-3	12.5418E-3
2.53877E-3	89.2127E-12	702.482E-3	-40.6276E-3	89.0938E-12	718.175E-3	13.5772E-3
2.53377E-3	89.5268E-12	705.161E-3	-47.3430E-3	88.8704E-12	725.144E-3	-2.39562E-3
2.52876E-3	89.4246E-12	705.650E-3	-42.6694E-3	89.1501E-12	718.670E-3	-16.4794E-3
2.52376E-3	89.4419E-12	707.199E-3	-30.8509E-3	88.4484E-12	707.311E-3	-8.98226E-3
2.51876E-3	89.7131E-12	708.037E-3	-34.0111E-3	88.6791E-12	719.059E-3	-2.65987E-3
2.51376E-3	89.0743E-12	716.419E-3	-34.8874E-3	88.1764E-12	743.711E-3	-15.4892E-3
2.50875E-3	89.0915E-12	733.696E-3	-27.5688E-3	88.5071E-12	745.380E-3	-34.5306E-3
2.50375E-3	88.8788E-12	743.014E-3	-21.6984E-3	88.0701E-12	737.335E-3	-40.8298E-3
2.49875E-3	88.2412E-12	748.082E-3	-11.6280E-3	87.8072E-12	736.281E-3	-31.3623E-3
2.49375E-3	87.4960E-12	758.685E-3	-4.90397E-3	86.9891E-12	739.996E-3	-20.5615E-3
2.48874E-3	86.8966E-12	760.162E-3	-1.67234E-3	86.8546E-12	743.887E-3	-11.1903E-3
2.48374E-3	86.4119E-12	757.810E-3	3.25232E-3	86.6017E-12	744.908E-3	-1.12875E-3
2.47874E-3	85.9131E-12	742.698E-3	6.91093E-3	85.4085E-12	740.379E-3	-3.80505E-3
2.47374E-3	85.8253E-12	710.548E-3	6.39275E-3	85.4616E-12	721.408E-3	-11.8423E-3
2.46873E-3	85.1704E-12	703.823E-3	338.048E-6	85.6068E-12	710.602E-3	-12.9164E-3
2.46373E-3	85.7425E-12	724.989E-3	-9.99886E-3	85.2913E-12	722.721E-3	-13.5986E-3
2.45873E-3	85.6769E-12	735.282E-3	-24.3343E-3	84.7460E-12	728.960E-3	-20.8581E-3
2.45373E-3	85.4052E-12	728.691E-3	-19.4528E-3	84.4778E-12	731.106E-3	-30.6800E-3
2.44872E-3	84.6713E-12	708.962E-3	-6.41956E-3	84.3684E-12	746.990E-3	-28.2075E-3
2.44372E-3	85.4802E-12	687.424E-3	-9.06001E-3	84.5471E-12	761.308E-3	-703.073E-6
2.43872E-3	84.9239E-12	695.962E-3	-8.34992E-3	84.3048E-12	760.875E-3	13.2087E-3
2.43372E-3	84.7560E-12	729.725E-3	-12.3487E-3	83.8879E-12	751.097E-3	-9.90341E-3
2.42871E-3	84.7550E-12	763.156E-3	-24.5441E-3	84.1029E-12	753.645E-3	-22.4511E-3
2.42371E-3	84.3054E-12	776.934E-3	-3.99359E-3	83.9397E-12	756.441E-3	-9.26846E-3
2.41871E-3	83.9136E-12	762.656E-3	28.3930E-3	83.5458E-12	736.106E-3	-1.12792E-3
2.41371E-3	83.5703E-12	742.331E-3	16.9624E-3	83.7833E-12	725.911E-3	-328.264E-6
2.40870E-3	83.4494E-12	725.433E-3	-17.0172E-3	83.4433E-12	723.992E-3	-7.18066E-3
2.40370E-3	82.2285E-12	710.732E-3	-22.2505E-3	83.1462E-12	711.968E-3	-16.2230E-3
2.39870E-3	82.3341E-12	705.238E-3	-14.5456E-3	82.7847E-12	716.489E-3	-16.2488E-3
2.39370E-3	81.7886E-12	710.916E-3	-25.4124E-3	82.1958E-12	729.918E-3	-19.7535E-3
2.38869E-3	81.3287E-12	722.970E-3	-19.9483E-3	81.4789E-12	735.651E-3	-26.6124E-3
2.38369E-3	81.5473E-12	718.687E-3	-11.1184E-3	81.1449E-12	739.530E-3	-30.0081E-3
2.37869E-3	81.1626E-12	705.667E-3	-21.9110E-3	81.1324E-12	747.853E-3	-24.8973E-3
2.37369E-3	81.7808E-12	709.593E-3	-20.2093E-3	80.9002E-12	761.808E-3	-13.5429E-3
2.36868E-3	81.2563E-12	725.083E-3	-14.4249E-3	80.9366E-12	771.856E-3	-8.75425E-3
2.36368E-3	81.4786E-12	742.825E-3	-15.6556E-3	79.7782E-12	762.199E-3	-14.1879E-3
2.35868E-3	80.9143E-12	743.571E-3	-27.4567E-3	80.2502E-12	743.408E-3	-21.4770E-3
2.35368E-3	81.3430E-12	728.775E-3	-40.0368E-3	80.0570E-12	738.413E-3	-20.1698E-3
2.34867E-3	80.8453E-12	730.275E-3	-29.3520E-3	79.6548E-12	734.877E-3	-17.7235E-3
2.34367E-3	80.2614E-12	742.901E-3	-14.6293E-3	78.9767E-12	725.809E-3	-24.0786E-3
2.33867E-3	79.8536E-12	750.933E-3	-15.3747E-3	79.1433E-12	718.920E-3	-32.4396E-3
2.33367E-3	79.6024E-12	748.641E-3	-19.7536E-3	78.8183E-12	721.161E-3	-24.4257E-3
2.32866E-3	78.9135E-12	736.942E-3	-31.1680E-3	78.6154E-12	725.082E-3	-4.07097E-3
2.32366E-3	78.5266E-12	735.621E-3	-39.7295E-3	78.1160E-12	726.057E-3	2.18381E-3
2.31866E-3	78.0882E-12	738.687E-3	-31.6033E-3	77.9116E-12	739.297E-3	-2.32354E-3
2.31366E-3	77.3061E-12	737.102E-3	-25.9904E-3	77.9007E-12	745.152E-3	-9.38912E-3
2.30865E-3	77.2910E-12	739.354E-3	-17.6823E-3	77.6579E-12	728.592E-3	-3.19662E-3
2.30365E-3	77.0812E-12	738.810E-3	-6.76783E-3	77.9815E-12	716.687E-3	16.1490E-3
2.29865E-3	77.4132E-12	731.518E-3	-7.50555E-3	77.5131E-12	731.030E-3	14.6996E-3
2.29365E-3	77.0278E-12	729.917E-3	-3.91624E-3	76.9605E-12	755.986E-3	10.3816E-3
2.28864E-3	76.9382E-12	739.469E-3	6.89041E-3	77.0971E-12	759.259E-3	14.8390E-3
2.28364E-3	76.9728E-12	754.663E-3	2.29244E-3	77.5722E-12	753.509E-3	8.68475E-3
2.27864E-3	77.2205E-12	753.820E-3	-16.4969E-3	77.0124E-12	760.764E-3	2.00018E-3
2.27364E-3	76.5324E-12	730.297E-3	-32.3619E-3	77.0985E-12	762.184E-3	-12.1090E-3
2.26863E-3	76.6260E-12	729.385E-3	-33.7224E-3	76.6306E-12	740.503E-3	-13.7148E-3
2.26363E-3	76.5640E-12	759.278E-3	-15.5647E-3	76.6076E-12	728.517E-3	12.6901E-3
2.25863E-3	76.3248E-12	773.502E-3	579.241E-6	75.8737E-12	744.750E-3	20.0513E-3
2.25363E-3	75.5342E-12	763.690E-3	-1.20220E-3	75.1013E-12	759.265E-3	7.33508E-3
2.24862E-3	74.7000E-12	753.392E-3	-4.41269E-3	74.6290E-12	767.323E-3	13.5409E-6
2.24362E-3	74.7288E-12	750.744E-3	-2.21659E-3	74.3868E-12	764.772E-3	-1.33882E-3
2.23862E-3	73.6665E-12	755.167E-3	-5.95354E-3	73.7585E-12	751.840E-3	-5.15108E-3
2.23362E-3	73.1724E-12	745.738E-3	-14.0143E-3	73.3391E-12	755.716E-3	-14.4372E-3
2.22861E-3	73.5135E-12	716.280E-3	-18.3145E-3	73.1897E-12	765.528E-3	-15.5337E-3
2.22361E-3	72.6086E-12	704.147E-3	-19.4923E-3	73.2634E-12	761.092E-3	-12.7456E-3
2.21861E-3	71.7429E-12	714.187E-3	-14.0435E-3	72.8493E-12	755.441E-3	-18.3208E-3
2.21361E-3	72.0179E-12	724.011E-3	-10.0887E-3	73.1950E-12	761.528E-3	-22.0264E-3
2.20860E-3	72.0978E-12	728.600E-3	-21.6866E-3	73.1464E-12	773.135E-3	-10.6626E-3
2.20360E-3	72.1463E-12	735.179E-3	-27.4972E-3	72.9546E-12	773.798E-3	-2.70605E-3
2.19860E-3	72.1741E-12	752.034E-3	-24.3364E-3	72.8924E-12	765.459E-3	-8.91306E-3
2.19360E-3	72.5681E-12	764.782E-3	-28.4737E-3	73.2138E-12	768.016E-3	-14.2551E-3
2.18859E-3	72.8089E-12	761.320E-3	-19.8622E-3	73.0323E-12	779.213E-3	-19.9190E-3
2.18359E-3	72.8496E-12	763.095E-3	-7.79090E-3	72.7529E-12	782.647E-3	-33.7576E-3
2.17859E-3	72.4485E-12	782.567E-3	-14.8623E-3	72.5987E-12	781.618E-3	-38.5275E-3
2.17359E-3	71.9505E-12	800.221E-3	-22.9391E-3	72.3385E-12	785.702E-3	-25.0435E-3
2.16858E-3	71.9636E-12	794.488E-3	-16.9411E-3	72.0514E-12	787.399E-3	-18.4607E-3
2.16358E-3	71.5540E-12	773.676E-3	2.56403E-3	71.4056E-12	783.521E-3	-21.4084E-3
2.15858E-3	71.2007E-12	776.146E-3	15.2461E-3	70.9789E-12	780.569E-3	-23.6168E-3
2.15358E-3	70.2426E-12	787.250E-3	10.3843E-3	70.7232E-12	777.214E-3	-15.6535E-3
2.14857E-3	69.8818E-12	773.699E-3	5.79924E-3	69.9600E-12	774.845E-3	2.57047E-3
2.14357E-3	69.4970E-12	757.771E-3	7.84708E-3	69.4170E-12	775.711E-3	-5.61558E-3
2.13857E-3	68.7286E-12	754.312E-3	-1.82473E-3	68.5643E-12	774.979E-3	-30.8232E-3
2.13357E-3	68.4136E-12	753.115E-3	-15.7784E-3	68.1566E-12	773.866E-3	-27.7376E-3
2.12856E-3	67.9314E-12	753.872E-3	-10.0552E-3	67.9700E-12	772.679E-3	-10.3193E-3
2.12356E-3	68.0093E-12	756.212E-3	-5.70518E-3	67.4661E-12	767.489E-3	-6.62286E-3
2.11856E-3	68.3832E-12	765.227E-3	-10.9975E-3	67.7594E-12	771.350E-3	-8.45571E-3
2.11356E-3	68.3614E-12	781.787E-3	-18.8684E-3	67.6397E-12	787.569E-3	-6.28034E-3
2.10855E-3	68.2813E-12	787.946E-3	-24.0390E-3	67.2068E-12	787.640E-3	-6.69506E-3
2.10355E-3	68.3197E-12	783.561E-3	-20.6060E-3	67.6103E-12	778.906E-3	-10.5027E-3
2.09855E-3	68.4820E-12	770.852E-3	-22.8710E-3	67.9036E-12	783.125E-3	-19.8543E-3
2.09355E-3	68.2479E-12	755.277E-3	-22.3940E-3	67.3526E-12	782.713E-3	-32.7328E-3
2.08854E-3	68.0653E-12	763.353E-3	-6.80118E-3	67.1137E-12	777.651E-3	-33.7349E-3
2.08354E-3	67.7132E-12	793.583E-3	7.83546E-3	67.3240E-12	774.452E-3	-14.9513E-3
2.07854E-3	67.3449E-12	809.768E-3	12.5563E-3	66.9678E-12	776.543E-3	9.56986E-3
2.07354E-3	66.6258E-12	813.013E-3	11.1986E-3	66.1642E-12	787.625E-3	772.888E-6
2.06853E-3	65.8553E-12	815.876E-3	562.622E-6	65.7259E-12	784.711E-3	-40.7408E-3
2.06353E-3	65.3279E-12	809.121E-3	-5.62753E-3	65.2996E-12	776.340E-3	-60.2229E-3
2.05853E-3	64.5494E-12	803.590E-3	-4.12541E-3	64.7096E-12	778.744E-3	-49.0352E-3
2.05353E-3	64.3802E-12	802.405E-3	-15.3019E-3	64.2285E-12	780.759E-3	-33.8228E-3
2.04852E-3	63.8080E-12	794.282E-3	-21.2006E-3	63.7270E-12	786.346E-3	-17.2048E-3
2.04352E-3	63.6877E-12	784.885E-3	-6.60679E-3	63.5160E-12	795.296E-3	-5.43230E-3
2.03852E-3	63.1486E-12	788.725E-3	-100.735E-6	63.0439E-12	790.336E-3	-924.107E-6
2.03352E-3	63.0967E-12	799.708E-3	-8.14765E-3	63.4146E-12	782.773E-3	10.2449E-3
2.02851E-3	63.3187E-12	803.800E-3	-12.4701E-3	62.5369E-12	790.549E-3	12.9180E-3
2.02351E-3	63.2671E-12	802.233E-3	-17.3049E-3	62.5833E-12	800.619E-3	-5.64996E-3
2.01851E-3	63.1405E-12	805.849E-3	-12.1881E-3	62.6190E-12	802.477E-3	-18.7521E-3
2.01351E-3	62.9234E-12	806.445E-3	-108.329E-6	63.0208E-12	815.382E-3	-15.9187E-3
2.00850E-3	63.5437E-12	800.553E-3	-3.14069E-3	62.8049E-12	833.678E-3	-14.4498E-3
2.00350E-3	63.2015E-12	798.959E-3	-11.1328E-3	62.6808E-12	828.646E-3	-14.2371E-3
1.99850E-3	62.7785E-12	800.903E-3	-17.4680E-3	62.4763E-12	827.054E-3	-16.1354E-3
1.99350E-3	62.5601E-12	814.557E-3	-30.4600E-3	62.2591E-12	832.067E-3	-21.0526E-3
1.98849E-3	62.3845E-12	826.667E-3	-33.5825E-3	62.4176E-12	824.197E-3	-19.4368E-3
1.98349E-3	61.8791E-12	827.545E-3	-24.5534E-3	61.8062E-12	823.457E-3	-25.8092E-3
1.97849E-3	61.3035E-12	827.656E-3	-17.6914E-3	61.5905E-12	821.955E-3	-39.0810E-3
1.97349E-3	60.8579E-12	825.636E-3	-21.6856E-3	61.3235E-12	819.279E-3	-28.9305E-3
1.96848E-3	60.2988E-12	818.186E-3	-43.4923E-3	60.8934E-12	833.457E-3	-11.7019E-3
1.96348E-3	59.6397E-12	818.028E-3	-41.3458E-3	60.7606E-12	847.294E-3	-19.0672E-3
1.95848E-3	59.5561E-12	817.653E-3	-10.9765E-3	60.1209E-12	847.536E-3	-31.4426E-3
1.95348E-3	59.1580E-12	804.142E-3	657.881E-6	59.8597E-12	852.036E-3	-36.9756E-3
1.94847E-3	58.6841E-12	808.912E-3	-9.26031E-3	59.7412E-12	857.935E-3	-41.6908E-3
1.94347E-3	58.5476E-12	821.590E-3	-16.3289E-3	59.1946E-12	846.882E-3	-35.2276E-3
1.93847E-3	58.7936E-12	826.528E-3	-2.61319E-3	59.1078E-12	846.339E-3	-19.4587E-3
1.93347E-3	58.6584E-12	828.194E-3	6.27314E-3	58.6862E-12	865.456E-3	-16.5413E-3
1.92846E-3	58.5099E-12	831.372E-3	-4.15529E-3	58.4854E-12	867.995E-3	-16.1933E-3
1.92346E-3	58.1843E-12	842.751E-3	-9.39398E-3	58.1397E-12	856.447E-3	5.55760E-3
1.91846E-3	58.2677E-12	849.189E-3	-2.12732E-3	58.1710E-12	852.611E-3	17.3590E-3
1.91346E-3	58.2159E-12	845.064E-3	6.24833E-3	57.7113E-12	854.813E-3	7.15077E-3
1.90845E-3	57.5822E-12	839.538E-3	8.85461E-3	57.1769E-12	856.271E-3	-2.37535E-3
1.90345E-3	56.9421E-12	848.055E-3	13.3442E-3	57.2938E-12	859.894E-3	-14.2825E-3
1.89845E-3	56.6963E-12	861.343E-3	10.9098E-3	56.8348E-12	862.139E-3	-19.9080E-3
1.89345E-3	56.7347E-12	860.391E-3	-3.58919E-3	56.6396E-12	857.007E-3	-14.0373E-3
1.88844E-3	55.4897E-12	853.194E-3	-18.6699E-3	55.8164E-12	856.824E-3	-21.0319E-3
1.88344E-3	55.5352E-12	849.622E-3	-26.3274E-3	55.4958E-12	861.329E-3	-33.2049E-3
1.87844E-3	54.9639E-12	849.707E-3	-27.0997E-3	55.2564E-12	861.927E-3	-27.6361E-3
1.87344E-3	54.8429E-12	857.296E-3	-30.6352E-3	54.8500E-12	871.821E-3	-24.9217E-3
1.86843E-3	54.5450E-12	867.042E-3	-37.6733E-3	54.4800E-12	881.914E-3	-31.9082E-3
1.86343E-3	54.3446E-12	869.500E-3	-39.3743E-3	54.2069E-12	876.138E-3	-22.3808E-3
1.85843E-3	54.0580E-12	870.750E-3	-35.2910E-3	54.0338E-12	865.510E-3	-1.28395E-3
1.85343E-3	54.0639E-12	873.341E-3	-28.7654E-3	53.8834E-12	862.241E-3	5.82503E-3
1.84842E-3	53.9552E-12	881.713E-3	-14.7776E-3	53.7520E-12	866.629E-3	4.43450E-3
1.84342E-3	53.7141E-12	896.989E-3	6.61122E-3	53.4372E-12	872.672E-3	-5.58003E-3
1.83842E-3	53.1266E-12	906.298E-3	6.84697E-3	53.0877E-12	879.687E-3	-21.6619E-3
1.83342E-3	52.9357E-12	901.745E-3	-6.89403E-3	52.7689E-12	882.043E-3	-26.5708E-3
1.82841E-3	52.8862E-12	885.450E-3	-12.9798E-3	52.7036E-12	883.847E-3	-26.6985E-3
1.82341E-3	52.1911E-12	872.678E-3	-21.2106E-3	52.2643E-12	892.597E-3	-33.8331E-3
1.81841E-3	51.6755E-12	872.297E-3	-31.8521E-3	51.7356E-12	890.781E-3	-31.0503E-3
1.81341E-3	51.0465E-12	870.320E-3	-37.1658E-3	51.2514E-12	884.559E-3	-24.5159E-3
1.80840E-3	50.7291E-12	866.536E-3	-27.4612E-3	51.0411E-12	890.038E-3	-35.3755E-3
1.80340E-3	50.1798E-12	875.983E-3	-26.4738E-3	50.5055E-12	894.763E-3	-34.0485E-3
1.79840E-3	49.7755E-12	894.745E-3	-43.9414E-3	49.9608E-12	898.779E-3	-16.7231E-3
1.79340E-3	49.1482E-12	901.624E-3	-47.0038E-3	49.4796E-12	899.977E-3	-12.9802E-3
1.78839E-3	49.0829E-12	899.169E-3	-37.9925E-3	49.7243E-12	903.265E-3	-28.9670E-3
1.78339E-3	49.0150E-12	902.180E-3	-26.4195E-3	49.2605E-12	915.361E-3	-38.8820E-3
1.77839E-3	48.8477E-12	900.213E-3	-13.9656E-3	49.1490E-12	922.729E-3	-28.0683E-3
1.77339E-3	48.8873E-12	899.304E-3	-18.4310E-3	48.5714E-12	943.199E-3	-9.02405E-3
1.76838E-3	48.7756E-12	912.831E-3	-29.4781E-3	48.8847E-12	969.064E-3	131.016E-6
1.76338E-3	48.7654E-12	922.622E-3	-36.4747E-3	48.6576E-12	971.115E-3	-8.26174E-3
1.75838E-3	48.7730E-12	922.910E-3	-36.3444E-3	48.2788E-12	960.554E-3	-11.2588E-3
1.75338E-3	48.8969E-12	928.423E-3	-25.7252E-3	48.3817E-12	956.500E-3	-5.61170E-3
1.74837E-3	48.2419E-12	935.698E-3	-16.4742E-3	48.0080E-12	963.787E-3	-9.41624E-3
1.74337E-3	47.9322E-12	941.514E-3	-20.5898E-3	47.7967E-12	964.752E-3	-10.7267E-3
1.73837E-3	47.7632E-12	948.999E-3	-24.9654E-3	47.4049E-12	961.826E-3	-13.2839E-3
1.73337E-3	47.1920E-12	958.411E-3	-17.5769E-3	46.9828E-12	957.325E-3	-26.0114E-3
1.72836E-3	46.7124E-12	970.530E-3	-12.6085E-3	46.2663E-12	946.425E-3	-30.9108E-3
1.72336E-3	45.8527E-12	971.991E-3	-18.5671E-3	45.6169E-12	948.514E-3	-26.2038E-3
1.71836E-3	45.4065E-12	952.986E-3	-24.4078E-3	45.3348E-12	966.524E-3	-22.1754E-3
1.71336E-3	44.8340E-12	954.070E-3	-27.7989E-3	44.8440E-12	969.061E-3	-20.4298E-3
1.70835E-3	44.5061E-12	979.548E-3	-38.1007E-3	44.3135E-12	950.954E-3	-18.1608E-3
1.70335E-3	43.9285E-12	979.421E-3	-37.9169E-3	43.7740E-12	947.818E-3	-20.7626E-3
1.69835E-3	43.8231E-12	970.094E-3	-23.4825E-3	43.7640E-12	962.983E-3	-28.3461E-3
1.69335E-3	43.5341E-12	980.861E-3	-12.6213E-3	43.4262E-12	975.953E-3	-22.8605E-3
1.68834E-3	43.6839E-12	986.613E-3	-6.85328E-3	43.2379E-12	993.654E-3	-9.99306E-3
1.68334E-3	43.3294E-12	976.750E-3	-7.02155E-3	43.0047E-12	1.00754E+0	-9.98863E-3
1.67834E-3	43.2016E-12	969.345E-3	-8.90023E-3	42.8610E-12	1.01215E+0	-10.8340E-3
1.67334E-3	43.2814E-12	968.541E-3	-7.05947E-3	42.8004E-12	1.02857E+0	-3.37137E-3
1.66833E-3	42.8165E-12	980.364E-3	-7.87111E-3	42.8082E-12	1.04559E+0	-1.61324E-3
1.66333E-3	43.0429E-12	1.00646E+0	-3.86677E-3	42.6082E-12	1.05369E+0	-4.72875E-3
1.65833E-3	42.5946E-12	1.02794E+0	3.99029E-3	42.4536E-12	1.05829E+0	-7.05217E-3
1.65333E-3	41.9551E-12	1.03923E+0	-1.73282E-3	42.1585E-12	1.05112E+0	-17.2369E-3
1.64832E-3	41.4736E-12	1.04452E+0	-12.4591E-3	41.9757E-12	1.03901E+0	-23.6995E-3
1.64332E-3	41.1679E-12	1.04200E+0	-27.5968E-3	41.4750E-12	1.04234E+0	-12.7115E-3
1.63832E-3	40.3931E-12	1.03693E+0	-47.8918E-3	41.0040E-12	1.05057E+0	-1.05542E-3
1.63332E-3	39.6157E-12	1.03621E+0	-43.7616E-3	40.4666E-12	1.05294E+0	1.82475E-3
1.62831E-3	39.3086E-12	1.04055E+0	-14.3289E-3	39.7738E-12	1.06808E+0	-7.08492E-3
1.62331E-3	38.7635E-12	1.04053E+0	-4.16259E-3	39.5679E-12	1.08133E+0	-16.8298E-3
1.61831E-3	38.4156E-12	1.03774E+0	-16.6445E-3	38.6166E-12	1.07866E+0	-9.57731E-3
1.61331E-3	37.7885E-12	1.03844E+0	-29.7275E-3	38.2423E-12	1.08191E+0	-4.56456E-3
1.60830E-3	37.5754E-12	1.03266E+0	-41.4933E-3	37.8525E-12	1.08961E+0	-5.83726E-3
1.60330E-3	37.3629E-12	1.03520E+0	-41.6700E-3	37.6425E-12	1.08750E+0	-5.43268E-3
1.59830E-3	37.2820E-12	1.04848E+0	-28.9445E-3	37.1842E-12	1.09069E+0	-7.90333E-3
1.59330E-3	36.9917E-12	1.04985E+0	-21.8400E-3	37.1110E-12	1.10206E+0	-12.1601E-3
1.58829E-3	36.9136E-12	1.06036E+0	-33.7978E-3	36.9077E-12	1.11289E+0	-13.2805E-3
1.58329E-3	36.6131E-12	1.08106E+0	-44.1321E-3	36.5860E-12	1.12339E+0	-11.5340E-3
1.57829E-3	36.5273E-12	1.08666E+0	-42.2086E-3	36.5783E-12	1.12218E+0	-16.0563E-3
1.57329E-3	36.2873E-12	1.07997E+0	-41.1987E-3	36.3126E-12	1.12264E+0	-26.5515E-3
1.56828E-3	35.8994E-12	1.08664E+0	-26.4216E-3	35.9374E-12	1.14281E+0	-29.8703E-3
1.56328E-3	35.5718E-12	1.10206E+0	-6.85784E-3	35.4535E-12	1.16074E+0	-26.4803E-3
1.55828E-3	34.8681E-12	1.10361E+0	-13.1773E-3	35.2625E-12	1.15457E+0	-19.4480E-3
1.55328E-3	34.6344E-12	1.11349E+0	-20.9470E-3	34.8732E-12	1.13774E+0	-11.1367E-3
1.54827E-3	34.0839E-12	1.12459E+0	-9.92915E-3	34.2889E-12	1.12899E+0	-23.7897E-3
1.54327E-3	33.5593E-12	1.11308E+0	-7.35699E-3	33.5784E-12	1.12778E+0	-44.3399E-3
1.53827E-3	32.8257E-12	1.10965E+0	-7.76351E-3	33.3274E-12	1.13708E+0	-34.8143E-3
1.53327E-3	32.6002E-12	1.11989E+0	-4.88072E-3	32.9228E-12	1.14618E+0	-13.7220E-3
1.52826E-3	32.3340E-12	1.11905E+0	-21.6558E-3	32.2446E-12	1.13451E+0	-6.20972E-3
1.52326E-3	31.7519E-12	1.12276E+0	-36.9821E-3	31.7302E-12	1.13053E+0	-9.56876E-3
1.51826E-3	31.4260E-12	1.12949E+0	-30.9808E-3	31.2845E-12	1.14873E+0	-24.2168E-3
1.51326E-3	31.1719E-12	1.12210E+0	-26.7679E-3	31.0836E-12	1.15403E+0	-36.7086E-3
1.50825E-3	31.0775E-12	1.11295E+0	-26.8154E-3	30.5890E-12	1.15419E+0	-28.2544E-3
1.50325E-3	30.6323E-12	1.11582E+0	-11.5389E-3	30.1337E-12	1.16954E+0	-18.3745E-3
1.49825E-3	30.3323E-12	1.12725E+0	2.21845E-3	29.9442E-12	1.17699E+0	-25.4470E-3
1.49325E-3	30.0162E-12	1.14858E+0	-3.11505E-3	29.7580E-12	1.17576E+0	-26.7820E-3
1.48824E-3	29.6784E-12	1.17715E+0	-10.5647E-3	29.2727E-12	1.17960E+0	-20.8309E-3
1.48324E-3	29.3534E-12	1.18630E+0	-19.1509E-3	29.0387E-12	1.18369E+0	-18.7898E-3
1.47824E-3	28.8155E-12	1.17929E+0	-31.1340E-3	28.6937E-12	1.17851E+0	-10.9236E-3
1.47324E-3	28.2081E-12	1.17085E+0	-36.3903E-3	28.3091E-12	1.16110E+0	-5.64271E-3
1.46823E-3	27.8614E-12	1.16368E+0	-30.3163E-3	27.6644E-12	1.15178E+0	-12.1718E-3
1.46323E-3	27.4169E-12	1.16604E+0	-16.4356E-3	27.3035E-12	1.15360E+0	-17.1679E-3
1.45823E-3	26.8244E-12	1.17399E+0	-18.8290E-3	26.8968E-12	1.15141E+0	-18.6750E-3
1.45323E-3	26.3546E-12	1.17181E+0	-35.6128E-3	26.2157E-12	1.15818E+0	-21.0002E-3
1.44822E-3	25.7141E-12	1.16542E+0	-35.8944E-3	25.7720E-12	1.17440E+0	-21.0209E-3
1.44322E-3	25.4563E-12	1.16456E+0	-27.2014E-3	25.4629E-12	1.18191E+0	-29.6338E-3
1.43822E-3	25.1558E-12	1.15704E+0	-23.6906E-3	25.2672E-12	1.18054E+0	-36.7506E-3
1.43322E-3	24.9086E-12	1.15254E+0	-18.8226E-3	24.6356E-12	1.17317E+0	-17.5490E-3
1.42821E-3	24.6347E-12	1.16832E+0	-14.8721E-3	24.1976E-12	1.16395E+0	6.34835E-3
1.42321E-3	24.3410E-12	1.18093E+0	-12.5181E-3	24.0170E-12	1.15286E+0	5.08594E-3
1.41821E-3	24.0511E-12	1.18280E+0	-8.84542E-3	23.7075E-12	1.13666E+0	-5.45322E-3
1.41321E-3	23.7686E-12	1.18841E+0	-9.70840E-3	23.0970E-12	1.13471E+0	-6.26288E-3
1.40820E-3	23.5037E-12	1.18081E+0	-16.3924E-3	22.5911E-12	1.14405E+0	-10.8440E-3
1.40320E-3	22.8039E-12	1.17122E+0	-19.8158E-3	22.4547E-12	1.14728E+0	-20.0637E-3
1.39820E-3	22.6072E-12	1.17730E+0	-13.3908E-3	22.1804E-12	1.14653E+0	-21.3940E-3
1.39320E-3	22.0982E-12	1.18285E+0	-10.0171E-3	21.7186E-12	1.13826E+0	-19.6448E-3
1.38819E-3	21.6169E-12	1.18105E+0	-21.8925E-3	21.2768E-12	1.12933E+0	-19.2105E-3
1.38319E-3	21.1754E-12	1.17353E+0	-33.9868E-3	21.0774E-12	1.13282E+0	-23.3524E-3
1.37819E-3	20.5824E-12	1.15564E+0	-30.3795E-3	20.7885E-12	1.13433E+0	-29.1788E-3
1.37319E-3	20.2628E-12	1.13214E+0	-22.1732E-3	20.3211E-12	1.10992E+0	-26.7165E-3
1.36818E-3	19.8662E-12	1.12059E+0	-27.2251E-3	19.8114E-12	1.09222E+0	-30.9956E-3
1.36318E-3	19.4443E-12	1.11110E+0	-35.8550E-3	19.4491E-12	1.09964E+0	-38.2217E-3
1.35818E-3	18.7884E-12	1.09658E+0	-44.0135E-3	19.1571E-12	1.10019E+0	-24.7108E-3
1.35318E-3	18.6799E-12	1.08851E+0	-42.4851E-3	18.8455E-12	1.09133E+0	-5.13695E-3
1.34817E-3	18.4255E-12	1.08397E+0	-29.0727E-3	18.5649E-12	1.07483E+0	-2.41014E-3
1.34317E-3	18.1973E-12	1.08390E+0	-25.8192E-3	18.2339E-12	1.05700E+0	-7.15241E-3
1.33817E-3	17.7883E-12	1.09552E+0	-23.3542E-3	17.9463E-12	1.05346E+0	-5.57373E-3
1.33317E-3	17.7044E-12	1.09902E+0	-12.6415E-3	17.6556E-12	1.05615E+0	-11.1402E-3
1.32816E-3	17.5253E-12	1.07841E+0	-17.3970E-3	17.3847E-12	1.04468E+0	-28.2198E-3
1.32316E-3	17.0443E-12	1.06643E+0	-35.4596E-3	17.0632E-12	1.02504E+0	-22.7993E-3
1.31816E-3	16.8220E-12	1.07392E+0	-25.3117E-3	16.6416E-12	1.00927E+0	-6.35630E-3
1.31316E-3	16.4627E-12	1.07410E+0	-1.59247E-3	16.2463E-12	1.00004E+0	-9.86148E-3
1.30815E-3	16.0928E-12	1.07427E+0	-5.26773E-3	16.0211E-12	1.00236E+0	-13.5344E-3
1.30315E-3	15.7882E-12	1.07279E+0	-19.1983E-3	15.6430E-12	994.829E-3	-10.8226E-3
1.29815E-3	15.4184E-12	1.04353E+0	-22.2999E-3	15.1809E-12	966.770E-3	-14.1550E-3
1.29315E-3	14.8452E-12	1.00750E+0	-6.41423E-3	14.7248E-12	936.733E-3	-23.7793E-3
1.28814E-3	14.4211E-12	990.596E-3	17.6780E-3	14.3738E-12	917.440E-3	-38.2295E-3
1.28314E-3	14.0902E-12	981.791E-3	13.0422E-3	14.2144E-12	905.950E-3	-51.5701E-3
1.27814E-3	13.7140E-12	970.619E-3	-17.4025E-3	13.6013E-12	899.197E-3	-44.6841E-3
1.27314E-3	13.3735E-12	957.433E-3	-33.8353E-3	13.2185E-12	890.519E-3	-27.2608E-3
1.26813E-3	12.9547E-12	938.088E-3	-31.3911E-3	13.0272E-12	871.477E-3	-20.8096E-3
1.26313E-3	12.7434E-12	917.543E-3	-26.9535E-3	12.8489E-12	853.855E-3	-13.6254E-3
1.25813E-3	12.5428E-12	903.955E-3	-23.6475E-3	12.5630E-12	847.322E-3	-7.64825E-3
1.25313E-3	12.2310E-12	886.669E-3	-16.8612E-3	12.1155E-12	828.920E-3	-16.9104E-3
1.24812E-3	12.0027E-12	871.054E-3	-16.0820E-3	11.9913E-12	795.589E-3	-20.0196E-3
1.24312E-3	11.6184E-12	860.600E-3	-19.4928E-3	11.8391E-12	773.814E-3	-12.9045E-3
1.23812E-3	11.5742E-12	840.653E-3	-21.5974E-3	11.6313E-12	773.569E-3	-19.8722E-3
1.23312E-3	11.3510E-12	822.911E-3	-33.5027E-3	11.2437E-12	778.354E-3	-24.6942E-3
1.22811E-3	11.0546E-12	821.370E-3	-32.9931E-3	11.1163E-12	764.691E-3	-11.7460E-3
1.22311E-3	10.6479E-12	802.671E-3	-12.7194E-3	10.8249E-12	736.575E-3	-6.84989E-3
1.21811E-3	10.4269E-12	767.890E-3	-2.61676E-3	10.5329E-12	703.797E-3	-7.03575E-3
1.21311E-3	10.2325E-12	760.289E-3	-1.44204E-3	10.2302E-12	679.815E-3	-4.95524E-3
1.20810E-3	9.93247E-12	761.478E-3	-980.600E-6	9.86831E-12	668.956E-3	-11.2072E-3
1.20310E-3	9.61603E-12	742.759E-3	-12.4709E-3	9.61411E-12	646.706E-3	-12.9262E-3
1.19810E-3	9.28140E-12	721.664E-3	-23.1979E-3	9.29889E-12	617.944E-3	-12.7489E-3
1.19310E-3	9.11795E-12	697.981E-3	-21.1521E-3	9.08363E-12	607.670E-3	-26.8540E-3
1.18809E-3	8.87481E-12	673.835E-3	-18.7957E-3	8.85029E-12	605.919E-3	-38.6054E-3
1.18309E-3	8.62822E-12	657.998E-3	-11.3765E-3	8.56384E-12	597.599E-3	-28.9097E-3
1.17809E-3	8.37557E-12	632.056E-3	-571.385E-6	8.30112E-12	581.123E-3	-26.1012E-3
1.17309E-3	8.20639E-12	613.703E-3	-7.63105E-3	8.17081E-12	551.634E-3	-38.9913E-3
1.16808E-3	8.17100E-12	610.899E-3	-24.8679E-3	8.13836E-12	523.462E-3	-40.4397E-3
1.16308E-3	7.99368E-12	593.857E-3	-31.1011E-3	7.86570E-12	506.673E-3	-35.5461E-3
1.15808E-3	7.77316E-12	572.543E-3	-33.3833E-3	7.65033E-12	497.076E-3	-28.2968E-3
1.15308E-3	7.63647E-12	561.048E-3	-33.3078E-3	7.56115E-12	486.567E-3	-19.3345E-3
1.14807E-3	7.53270E-12	540.391E-3	-24.2405E-3	7.53914E-12	467.591E-3	-18.3672E-3
1.14307E-3	7.37553E-12	520.085E-3	-15.5827E-3	7.32720E-12	450.652E-3	-17.3121E-3
1.13807E-3	7.20780E-12	523.931E-3	-14.5682E-3	7.05522E-12	442.116E-3	-9.13688E-3
1.13307E-3	7.04684E-12	515.207E-3	-11.7423E-3	7.00803E-12	437.636E-3	-6.67757E-3
1.12806E-3	6.81110E-12	481.300E-3	-7.57567E-3	6.88771E-12	419.253E-3	-8.59322E-3
1.12306E-3	6.70964E-12	463.952E-3	-6.62215E-3	6.66920E-12	397.540E-3	-3.58709E-3
1.11806E-3	6.48761E-12	454.487E-3	-248.918E-6	6.40780E-12	393.147E-3	-6.67143E-3
1.11306E-3	6.28096E-12	417.860E-3	-8.51792E-3	6.25465E-12	385.082E-3	-18.4413E-3
1.10805E-3	6.09050E-12	384.353E-3	-30.4179E-3	6.22378E-12	371.338E-3	-13.4740E-3
1.10305E-3	5.99570E-12	388.464E-3	-33.3459E-3	6.00025E-12	360.587E-3	-488.840E-6
1.09805E-3	5.97287E-12	385.151E-3	-24.7862E-3	5.82028E-12	332.901E-3	-1.10544E-3
1.09305E-3	5.84220E-12	359.349E-3	-29.0633E-3	5.62675E-12	302.682E-3	-1.41264E-3
1.08804E-3	5.65520E-12	350.651E-3	-19.7519E-3	5.61569E-12	294.981E-3	-4.78076E-3
1.08304E-3	5.53168E-12	347.058E-3	7.18612E-3	5.46440E-12	290.251E-3	-18.9409E-3
1.07804E-3	5.52198E-12	339.023E-3	3.99264E-3	5.39029E-12	271.840E-3	-13.5297E-3
1.07304E-3	5.46043E-12	334.731E-3	-12.3245E-3	5.26564E-12	267.392E-3	2.93216E-3
1.06803E-3	5.29603E-12	315.850E-3	-13.8863E-3	5.17919E-12	273.356E-3	-451.268E-6
1.06303E-3	5.21946E-12	298.442E-3	-23.8100E-3	5.10896E-12	262.943E-3	-10.4979E-3
1.05803E-3	5.11517E-12	298.433E-3	-38.9535E-3	5.06490E-12	262.510E-3	-16.3598E-3
1.05303E-3	5.21155E-12	292.969E-3	-35.2222E-3	4.99899E-12	262.095E-3	-18.7539E-3
1.04802E-3	5.02515E-12	281.595E-3	-25.2853E-3	4.91923E-12	233.714E-3	-10.8978E-3
1.04302E-3	4.94241E-12	276.082E-3	-14.4312E-3	4.95597E-12	205.329E-3	-2.02157E-3
1.03802E-3	4.78328E-12	258.385E-3	-2.34870E-3	4.81034E-12	190.589E-3	-3.58583E-3
1.03302E-3	4.68105E-12	237.952E-3	-415.789E-6	4.68712E-12	181.551E-3	-8.68024E-3
1.02801E-3	4.53398E-12	239.894E-3	-1.46361E-3	4.47190E-12	177.407E-3	-14.6437E-3
1.02301E-3	4.30155E-12	227.219E-3	-207.250E-6	4.28458E-12	168.727E-3	-21.4082E-3
1.01801E-3	4.21332E-12	184.574E-3	-3.55873E-3	4.32238E-12	146.630E-3	-32.8652E-3
1.01301E-3	4.18779E-12	162.394E-3	-10.0551E-3	4.29838E-12	135.884E-3	-46.5436E-3
1.00800E-3	4.16686E-12	166.533E-3	-12.2732E-3	4.13774E-12	143.734E-3	-48.8915E-3
1.00300E-3	4.10497E-12	162.007E-3	-11.7139E-3	4.04693E-12	145.900E-3	-42.1551E-3
997.999E-6	4.00561E-12	149.019E-3	-8.71351E-3	4.02910E-12	144.690E-3	-32.8796E-3
992.997E-6	3.96635E-12	135.253E-3	-7.74548E-3	4.07877E-12	141.237E-3	-32.1364E-3
987.994E-6	3.96936E-12	128.600E-3	-15.7232E-3	4.05719E-12	122.022E-3	-34.0541E-3
982.991E-6	3.98816E-12	136.198E-3	-20.4806E-3	3.86520E-12	103.599E-3	-15.7739E-3
977.989E-6	3.94087E-12	131.570E-3	-18.1007E-3	3.84090E-12	100.536E-3	-16.0957E-3
972.986E-6	3.83803E-12	114.522E-3	-20.5498E-3	3.89803E-12	98.7124E-3	-31.5736E-3
967.984E-6	3.83878E-12	117.351E-3	-15.4495E-3	3.89867E-12	90.3753E-3	-28.1213E-3
962.981E-6	3.83029E-12	122.512E-3	-3.60161E-3	3.79087E-12	85.3797E-3	-30.3996E-3
957.979E-6	3.83740E-12	108.316E-3	-15.2261E-3	3.68505E-12	87.6098E-3	-30.9560E-3
952.976E-6	3.69979E-12	93.3420E-3	-33.5204E-3	3.71575E-12	90.4596E-3	-16.0020E-3
947.974E-6	3.58226E-12	86.0234E-3	-24.9457E-3	3.74506E-12	90.0261E-3	-4.73989E-3
942.971E-6	3.59474E-12	80.6782E-3	-10.2368E-3	3.66385E-12	83.9685E-3	-11.8728E-3
937.969E-6	3.64951E-12	84.2388E-3	-12.6228E-3	3.57078E-12	66.3824E-3	-28.1453E-3
932.966E-6	3.55242E-12	89.0665E-3	-20.7339E-3	3.52026E-12	53.7463E-3	-38.5034E-3
927.964E-6	3.37894E-12	80.9101E-3	-23.9713E-3	3.52939E-12	62.3255E-3	-37.2882E-3
922.961E-6	3.41691E-12	82.2064E-3	-24.0234E-3	3.57145E-12	70.3498E-3	-28.9127E-3
917.959E-6	3.52042E-12	92.9557E-3	-16.3527E-3	3.51678E-12	70.9270E-3	-22.0474E-3
912.956E-6	3.44607E-12	89.9041E-3	-4.55090E-3	3.41810E-12	63.0391E-3	-19.9519E-3
907.954E-6	3.38683E-12	80.3550E-3	-7.63071E-3	3.43784E-12	48.0794E-3	-26.2711E-3
902.951E-6	3.35452E-12	70.5168E-3	-11.6148E-3	3.49993E-12	47.9867E-3	-34.9332E-3
897.949E-6	3.45155E-12	62.8829E-3	-2.95362E-3	3.48552E-12	50.8157E-3	-24.5033E-3
892.946E-6	3.43207E-12	75.1046E-3	-2.19540E-3	3.40153E-12	52.3252E-3	-4.71323E-3
887.944E-6	3.38879E-12	85.6999E-3	-14.0965E-3	3.32941E-12	61.6231E-3	-3.90755E-3
882.941E-6	3.31954E-12	63.2225E-3	-27.9489E-3	3.41124E-12	59.1041E-3	-11.9174E-3
877.939E-6	3.37347E-12	43.0243E-3	-29.7028E-3	3.44569E-12	48.3193E-3	-18.0111E-3
872.936E-6	3.28186E-12	46.1796E-3	-18.1814E-3	3.35767E-12	41.6234E-3	-19.6712E-3
867.934E-6	3.24327E-12	47.6387E-3	-19.8013E-3	3.14029E-12	28.2891E-3	-15.9886E-3
862.931E-6	3.21140E-12	44.7342E-3	-35.2317E-3	3.15767E-12	21.4800E-3	-17.6392E-3
857.929E-6	3.20176E-12	47.1914E-3	-30.4118E-3	3.34711E-12	32.2086E-3	-24.2240E-3
852.926E-6	3.14348E-12	44.8600E-3	-10.2680E-3	3.23340E-12	45.5340E-3	-27.4644E-3
847.924E-6	3.15361E-12	39.7579E-3	-4.99418E-3	3.08168E-12	51.2677E-3	-21.8245E-3
842.921E-6	3.14701E-12	47.5148E-3	-10.5609E-3	3.00134E-12	49.3993E-3	-19.7598E-3
837.919E-6	3.08726E-12	48.5460E-3	-17.5533E-3	3.14725E-12	37.9211E-3	-23.0943E-3
832.916E-6	3.03792E-12	38.4194E-3	-23.6898E-3	3.17958E-12	22.9163E-3	-28.0871E-3
827.914E-6	3.06875E-12	32.8623E-3	-22.5116E-3	3.06499E-12	34.0915E-3	-29.2005E-3
822.911E-6	3.14735E-12	26.8160E-3	-15.8455E-3	2.96071E-12	53.6683E-3	-20.6742E-3
817.909E-6	3.13101E-12	30.8181E-3	-10.4648E-3	3.02859E-12	51.1331E-3	-17.5480E-3
812.906E-6	3.01851E-12	43.6574E-3	-15.0540E-3	3.10208E-12	35.6626E-3	-16.3628E-3
807.904E-6	3.07818E-12	36.7744E-3	-27.7878E-3	3.08680E-12	27.9797E-3	-12.5972E-3
802.901E-6	3.13521E-12	18.9107E-3	-33.7624E-3	3.08185E-12	33.9366E-3	-9.29329E-3
797.899E-6	3.10731E-12	18.9144E-3	-25.2346E-3	3.00928E-12	34.3191E-3	-1.01696E-3
792.896E-6	3.06574E-12	29.8905E-3	-13.6420E-3	3.02829E-12	23.3856E-3	816.546E-6
787.894E-6	2.94612E-12	46.0469E-3	-16.9893E-3	3.06714E-12	16.9901E-3	-5.92825E-3
782.891E-6	3.10963E-12	62.3389E-3	-28.7121E-3	3.06686E-12	22.9959E-3	-12.3423E-3
777.889E-6	3.07100E-12	54.4617E-3	-26.4656E-3	2.98507E-12	30.4889E-3	-24.0044E-3
772.886E-6	2.92420E-12	31.7198E-3	-12.4674E-3	2.86318E-12	29.9455E-3	-28.5359E-3
767.884E-6	2.90024E-12	33.1122E-3	-1.76792E-3	3.00751E-12	25.7252E-3	-25.0930E-3
762.881E-6	2.92901E-12	38.2349E-3	7.09458E-3	3.02861E-12	32.4529E-3	-30.0120E-3
757.879E-6	2.97408E-12	24.0368E-3	2.35727E-3	2.90607E-12	39.3450E-3	-33.2956E-3
752.876E-6	2.91130E-12	21.8320E-3	-19.8542E-3	2.80791E-12	34.7905E-3	-25.6201E-3
747.874E-6	2.93394E-12	33.7174E-3	-20.7786E-3	2.86813E-12	28.9692E-3	-13.9986E-3
742.871E-6	2.89102E-12	32.5541E-3	-6.48728E-3	2.97830E-12	27.9320E-3	-7.99163E-3
737.869E-6	2.86836E-12	20.4860E-3	-15.6085E-3	2.89743E-12	29.5204E-3	-5.05541E-3
732.866E-6	2.93610E-12	18.8835E-3	-22.6979E-3	2.83451E-12	32.4043E-3	-5.64837E-3
727.864E-6	2.93883E-12	12.7686E-3	-8.50459E-3	2.83950E-12	40.2227E-3	-15.4159E-3
722.861E-6	2.84049E-12	3.81674E-3	-3.71948E-3	2.92961E-12	46.9526E-3	-17.6628E-3
717.859E-6	2.84791E-12	18.1243E-3	-7.04439E-3	2.89905E-12	44.3519E-3	-10.9031E-3
712.856E-6	2.89915E-12	34.2978E-3	-7.96756E-3	2.88279E-12	33.1632E-3	-12.3933E-3
707.854E-6	2.95513E-12	32.9485E-3	-11.1001E-3	2.82996E-12	28.0871E-3	-17.9479E-3
702.851E-6	2.83476E-12	25.5950E-3	-6.64807E-3	2.88175E-12	38.4860E-3	-20.3773E-3
697.849E-6	2.73225E-12	17.6123E-3	3.87008E-3	2.93759E-12	49.5545E-3	-19.6507E-3
692.846E-6	2.74124E-12	17.5036E-3	7.43843E-3	2.86064E-12	49.9259E-3	-16.5400E-3
687.844E-6	2.81644E-12	26.9732E-3	4.61935E-3	2.73120E-12	37.8012E-3	-18.0650E-3
682.841E-6	2.77559E-12	27.1816E-3	-6.15677E-3	2.75186E-12	20.1157E-3	-14.2453E-3
677.839E-6	2.61660E-12	22.8640E-3	-15.5426E-3	2.74697E-12	23.1665E-3	-4.51841E-3
672.836E-6	2.61843E-12	38.1240E-3	-10.4202E-3	2.77375E-12	41.7943E-3	-3.89442E-3
667.834E-6	2.74818E-12	55.7386E-3	-6.52749E-3	2.66218E-12	46.1087E-3	-6.66313E-3
662.831E-6	2.71007E-12	51.9240E-3	-16.7340E-3	2.66047E-12	39.8021E-3	-6.64296E-3
657.829E-6	2.59269E-12	47.0814E-3	-32.8226E-3	2.63690E-12	42.9634E-3	-20.5668E-3
652.826E-6	2.59397E-12	38.8729E-3	-36.6052E-3	2.63732E-12	47.8677E-3	-41.6439E-3
647.824E-6	2.69742E-12	23.2347E-3	-34.4528E-3	2.69614E-12	37.5663E-3	-43.2287E-3
642.821E-6	2.72054E-12	28.0445E-3	-30.8248E-3	2.63496E-12	25.7193E-3	-31.5314E-3
637.819E-6	2.66868E-12	38.5852E-3	-13.9068E-3	2.54967E-12	27.5796E-3	-14.5844E-3
632.816E-6	2.57123E-12	44.5636E-3	-14.0150E-3	2.62736E-12	42.7629E-3	2.54318E-3
627.814E-6	2.61664E-12	55.0922E-3	-33.9206E-3	2.69469E-12	58.8042E-3	-2.74558E-3
622.811E-6	2.66903E-12	53.9680E-3	-35.0168E-3	2.65105E-12	58.4982E-3	-26.7034E-3
617.809E-6	2.55748E-12	40.5252E-3	-27.0457E-3	2.52943E-12	45.8661E-3	-32.0002E-3
612.806E-6	2.53960E-12	38.4033E-3	-27.2344E-3	2.50187E-12	43.5134E-3	-26.0390E-3
607.804E-6	2.54128E-12	45.9441E-3	-19.6946E-3	2.65990E-12	51.4828E-3	-33.6177E-3
602.801E-6	2.52095E-12	45.3750E-3	-12.9103E-3	2.52116E-12	59.7108E-3	-30.3921E-3
597.799E-6	2.50236E-12	49.0118E-3	-18.3282E-3	2.52740E-12	64.1847E-3	-12.2061E-3
592.796E-6	2.51103E-12	58.9106E-3	-11.9861E-3	2.38734E-12	56.1529E-3	-4.54915E-3
587.794E-6	2.44312E-12	58.6483E-3	1.48253E-3	2.47927E-12	49.3825E-3	-2.76305E-3
582.791E-6	2.31177E-12	53.0701E-3	-6.96110E-3	2.49757E-12	48.6642E-3	-3.88940E-3
577.789E-6	2.38169E-12	51.8287E-3	-21.5903E-3	2.39202E-12	51.5134E-3	-20.8836E-3
572.786E-6	2.47862E-12	46.2622E-3	-22.1727E-3	2.34886E-12	59.1794E-3	-35.4561E-3
567.784E-6	2.32876E-12	38.0604E-3	-16.3588E-3	2.35598E-12	66.5800E-3	-22.0751E-3
562.781E-6	2.21344E-12	36.6835E-3	-13.2201E-3	2.41062E-12	68.2224E-3	-11.0463E-3
557.779E-6	2.29475E-12	31.7095E-3	-15.9007E-3	2.31573E-12	72.0858E-3	-16.3533E-3
552.776E-6	2.39986E-12	34.3115E-3	-22.9365E-3	2.28786E-12	86.2827E-3	-13.4668E-3
547.774E-6	2.37277E-12	54.0972E-3	-23.8110E-3	2.26070E-12	82.3725E-3	-15.7659E-3
542.771E-6	2.19756E-12	65.1309E-3	-19.2499E-3	2.26073E-12	64.1275E-3	-30.9450E-3
537.769E-6	2.15333E-12	59.2230E-3	-14.2169E-3	2.24898E-12	60.5861E-3	-26.9939E-3
532.766E-6	2.25647E-12	53.8014E-3	-8.07214E-3	2.27214E-12	59.7451E-3	-15.3866E-3
527.764E-6	2.27519E-12	61.0948E-3	-14.9342E-3	2.22489E-12	54.4175E-3	-25.2054E-3
522.761E-6	2.13771E-12	69.9110E-3	-27.3733E-3	2.14688E-12	65.9377E-3	-36.1669E-3
517.759E-6	2.03776E-12	69.1554E-3	-27.8346E-3	2.16719E-12	83.5813E-3	-36.2949E-3
512.756E-6	2.08750E-12	62.3829E-3	-19.0867E-3	2.19004E-12	80.1491E-3	-28.5419E-3
507.754E-6	2.09842E-12	56.1624E-3	-7.82999E-3	2.07910E-12	68.9457E-3	-10.1759E-3
502.751E-6	2.07036E-12	56.5073E-3	-7.98831E-3	2.00413E-12	69.7370E-3	404.123E-6
497.749E-6	1.97929E-12	52.8647E-3	-24.7035E-3	2.04318E-12	78.0216E-3	-5.92345E-3
492.746E-6	1.93965E-12	43.9109E-3	-38.4494E-3	2.10991E-12	82.5332E-3	-10.5645E-3
487.744E-6	1.97917E-12	47.2038E-3	-29.0993E-3	2.03536E-12	81.4387E-3	-17.5219E-3
482.741E-6	1.97176E-12	60.0932E-3	-5.40988E-3	1.84716E-12	73.1906E-3	-30.6883E-3
477.739E-6	1.93364E-12	68.9473E-3	-5.78099E-3	1.85241E-12	63.8918E-3	-27.5018E-3
472.736E-6	1.85262E-12	71.5252E-3	-18.2490E-3	1.88488E-12	64.1729E-3	-15.0910E-3
467.734E-6	1.85126E-12	70.3945E-3	-12.3156E-3	1.91279E-12	66.4339E-3	-7.33965E-3
462.731E-6	1.88775E-12	73.7999E-3	-10.8398E-3	1.79629E-12	70.8451E-3	-2.23090E-3
457.729E-6	1.86018E-12	82.5397E-3	-17.9181E-3	1.73213E-12	75.8747E-3	-9.83394E-3
452.726E-6	1.83703E-12	77.7770E-3	-18.2064E-3	1.78089E-12	67.6645E-3	-23.6469E-3
447.724E-6	1.73202E-12	64.4761E-3	-29.1302E-3	1.79451E-12	57.3354E-3	-21.7930E-3
442.721E-6	1.71727E-12	68.4726E-3	-40.4811E-3	1.73290E-12	71.6756E-3	-15.4634E-3
437.719E-6	1.72251E-12	80.1866E-3	-25.0628E-3	1.66263E-12	93.1439E-3	-14.6920E-3
432.716E-6	1.72036E-12	79.0347E-3	-10.4412E-3	1.63009E-12	87.9188E-3	-5.39545E-3
427.714E-6	1.53902E-12	79.0958E-3	-21.4754E-3	1.63231E-12	80.5752E-3	-141.549E-6
422.711E-6	1.54788E-12	80.4150E-3	-29.6166E-3	1.60017E-12	82.4913E-3	-10.7612E-3
417.709E-6	1.70862E-12	67.1344E-3	-25.0267E-3	1.59941E-12	74.8829E-3	-18.1558E-3
412.706E-6	1.60080E-12	69.4269E-3	-22.2766E-3	1.51290E-12	72.9172E-3	-12.1511E-3
407.704E-6	1.45371E-12	91.9582E-3	-16.0100E-3	1.46169E-12	71.3918E-3	-11.7102E-3
402.701E-6	1.42305E-12	96.3954E-3	-11.3926E-3	1.49067E-12	56.2902E-3	-12.9396E-3
397.699E-6	1.48044E-12	89.1979E-3	-15.2162E-3	1.50748E-12	65.5089E-3	-3.87718E-3
392.696E-6	1.52525E-12	85.3467E-3	-15.9436E-3	1.38925E-12	87.7150E-3	1.27019E-3
387.694E-6	1.40879E-12	72.9440E-3	-17.1596E-3	1.33110E-12	82.2621E-3	-942.383E-6
382.691E-6	1.29159E-12	65.3298E-3	-22.4788E-3	1.40583E-12	75.2892E-3	-737.305E-6
377.689E-6	1.39709E-12	70.5352E-3	-14.3002E-3	1.38068E-12	72.7157E-3	-8.70810E-3
372.686E-6	1.37530E-12	67.6008E-3	-9.72337E-3	1.35695E-12	66.9875E-3	-25.8231E-3
367.684E-6	1.29836E-12	66.5043E-3	-21.5529E-3	1.21443E-12	82.0280E-3	-26.6832E-3
362.681E-6	1.30922E-12	78.9843E-3	-25.4710E-3	1.23618E-12	96.8424E-3	-13.6079E-3
357.679E-6	1.23274E-12	77.6758E-3	-13.1372E-3	1.29897E-12	88.8524E-3	54.3556E-6
352.676E-6	1.16956E-12	67.7506E-3	-5.06841E-3	1.24667E-12	83.3232E-3	7.53647E-3
347.674E-6	1.18590E-12	77.1578E-3	-6.78272E-3	1.12447E-12	81.8808E-3	1.84771E-3
342.671E-6	1.22145E-12	81.9764E-3	-8.17101E-3	1.15307E-12	70.8666E-3	-11.8196E-3
337.669E-6	1.13547E-12	67.1918E-3	-9.01992E-3	1.15967E-12	66.9670E-3	-20.8420E-3
332.666E-6	1.03345E-12	62.3847E-3	-2.51109E-3	1.11143E-12	73.5292E-3	-26.1445E-3
327.664E-6	1.00689E-12	66.3625E-3	1.37301E-3	1.05359E-12	64.7708E-3	-19.2465E-3
322.661E-6	1.08873E-12	67.7451E-3	-10.5901E-3	950.176E-15	59.3296E-3	-922.817E-6
317.659E-6	1.00390E-12	78.3112E-3	-20.8021E-3	983.361E-15	73.0133E-3	-1.35665E-3
312.656E-6	912.099E-15	87.1126E-3	-17.8328E-3	1.02345E-12	73.4001E-3	-8.41411E-3
307.654E-6	923.102E-15	86.8350E-3	-18.3428E-3	938.091E-15	60.1906E-3	-1.06604E-3
302.651E-6	991.418E-15	79.4445E-3	-32.1010E-3	946.104E-15	63.8552E-3	-2.85162E-3
297.649E-6	917.661E-15	63.7850E-3	-26.6730E-3	864.692E-15	75.4237E-3	-14.3134E-3
292.646E-6	801.320E-15	60.3349E-3	-129.002E-6	867.334E-15	76.4849E-3	-18.4309E-3
287.644E-6	800.378E-15	80.4457E-3	9.63045E-3	831.157E-15	80.2799E-3	-22.0218E-3
282.641E-6	876.097E-15	95.1765E-3	7.09447E-3	878.782E-15	78.4713E-3	-26.0437E-3
277.639E-6	904.417E-15	93.2266E-3	6.24737E-3	821.034E-15	61.1751E-3	-25.3280E-3
272.636E-6	762.501E-15	90.9483E-3	-2.92894E-3	773.688E-15	54.4335E-3	-18.9248E-3
267.634E-6	662.177E-15	80.3660E-3	-16.2785E-3	752.518E-15	61.0245E-3	-17.2521E-3
262.631E-6	712.296E-15	64.3056E-3	-22.5849E-3	766.224E-15	57.2774E-3	-18.4192E-3
257.629E-6	769.878E-15	60.0830E-3	-24.8995E-3	654.356E-15	45.9017E-3	-11.4834E-3
252.626E-6	638.487E-15	56.8992E-3	-19.5770E-3	621.484E-15	42.1959E-3	-6.33262E-3
247.624E-6	604.970E-15	53.1812E-3	-16.2412E-3	638.408E-15	47.4882E-3	-4.88319E-3
242.621E-6	605.284E-15	59.1755E-3	-24.6199E-3	686.190E-15	57.6069E-3	-6.95390E-3
237.619E-6	609.739E-15	68.9009E-3	-22.0820E-3	633.752E-15	65.9294E-3	-20.0103E-3
232.616E-6	562.882E-15	66.6242E-3	-18.8908E-3	491.976E-15	65.8641E-3	-30.1675E-3
227.614E-6	595.570E-15	60.9121E-3	-23.4869E-3	480.414E-15	60.5173E-3	-28.2017E-3
222.611E-6	528.859E-15	67.4605E-3	-13.8984E-3	583.642E-15	51.9742E-3	-22.7720E-3
217.609E-6	482.088E-15	71.5020E-3	-6.23650E-3	578.472E-15	43.9448E-3	-10.2839E-3
212.606E-6	526.993E-15	73.8917E-3	-10.8076E-3	456.122E-15	51.5842E-3	-4.56152E-3
207.604E-6	506.720E-15	70.1265E-3	-8.43085E-3	404.085E-15	64.5142E-3	-22.1439E-3
202.601E-6	457.404E-15	54.3859E-3	-2.49472E-3	439.303E-15	62.3440E-3	-35.1222E-3
197.599E-6	317.014E-15	52.9916E-3	-10.8587E-3	481.382E-15	57.1019E-3	-25.0736E-3
192.596E-6	423.233E-15	62.1065E-3	-22.4183E-3	392.297E-15	58.3329E-3	-19.8901E-3
187.594E-6	451.702E-15	57.3775E-3	-23.0153E-3	387.501E-15	57.8345E-3	-21.5736E-3
182.591E-6	421.428E-15	49.3287E-3	-24.7839E-3	378.669E-15	57.7319E-3	-17.5207E-3
177.589E-6	276.531E-15	50.7495E-3	-27.7250E-3	405.149E-15	53.7765E-3	-18.8715E-3
172.586E-6	279.774E-15	50.3567E-3	-21.6958E-3	353.697E-15	40.8113E-3	-24.2843E-3
167.584E-6	426.686E-15	46.7439E-3	-11.8215E-3	298.922E-15	35.7028E-3	-29.1642E-3
162.581E-6	373.428E-15	46.7889E-3	6.13405E-3	278.702E-15	46.3114E-3	-29.2452E-3
157.579E-6	198.467E-15	42.6127E-3	13.3898E-3	276.470E-15	50.8907E-3	-17.5323E-3
152.576E-6	237.686E-15	38.5542E-3	-4.47264E-3	268.884E-15	43.0593E-3	-2.44987E-3
147.574E-6	231.330E-15	42.7089E-3	-13.4292E-3	284.369E-15	48.7551E-3	-8.26201E-3
142.571E-6	276.077E-15	41.0420E-3	-9.94468E-3	230.205E-15	50.4271E-3	-25.7340E-3
137.569E-6	238.916E-15	43.9339E-3	-13.6076E-3	164.261E-15	33.5250E-3	-24.8732E-3
132.566E-6	98.9272E-15	61.9579E-3	-11.4657E-3	223.343E-15	32.3191E-3	-18.4199E-3
127.564E-6	211.799E-15	56.4157E-3	-8.78480E-3	258.168E-15	43.3729E-3	-19.3426E-3
122.561E-6	212.775E-15	24.9908E-3	-19.5704E-3	166.284E-15	46.6892E-3	-11.5028E-3
117.559E-6	153.955E-15	12.8631E-3	-22.7453E-3	47.3263E-15	47.8076E-3	-2.47689E-3
112.556E-6	151.086E-15	10.9201E-3	-20.5362E-3	144.581E-15	46.6530E-3	205.165E-6
107.554E-6	139.829E-15	8.72616E-3	-25.6562E-3	176.172E-15	44.3975E-3	5.23185E-3
102.551E-6	153.458E-15	29.8793E-3	-22.6075E-3	165.107E-15	44.7558E-3	-2.10299E-3
97.5488E-6	112.913E-15	39.6204E-3	-15.8427E-3	64.2156E-15	36.0898E-3	-26.1022E-3
92.5463E-6	107.402E-15	13.5077E-3	-22.7766E-3	27.2283E-15	20.7038E-3	-35.8698E-3
87.5438E-6	31.4659E-15	-1.12687E-3	-23.8231E-3	139.141E-15	20.3738E-3	-27.1527E-3
82.5413E-6	21.9705E-15	8.84552E-3	-2.64776E-3	94.1315E-15	30.1461E-3	-29.4332E-3
77.5388E-6	27.4986E-15	18.0979E-3	6.28898E-3	58.0946E-15	36.7842E-3	-37.5238E-3
72.5363E-6	85.3338E-15	28.3678E-3	-8.05089E-3	-13.1683E-15	38.8163E-3	-34.1105E-3
67.5338E-6	55.6532E-15	36.3698E-3	-15.9129E-3	36.3574E-15	40.6844E-3	-27.0353E-3
62.5313E-6	-66.2165E-15	36.2935E-3	-16.5679E-3	-5.78301E-15	48.4749E-3	-20.8531E-3
57.5288E-6	-46.3191E-15	43.5137E-3	-18.4122E-3	26.4959E-15	55.9944E-3	-16.2734E-3
52.5263E-6	62.7333E-15	50.0182E-3	-12.5244E-3	-53.7741E-15	53.4128E-3	-19.8249E-3
47.5238E-6	18.4218E-15	36.9848E-3	-268.659E-6	-69.0416E-15	44.6410E-3	-26.1193E-3
42.5213E-6	-168.110E-15	21.7878E-3	4.24994E-3	-20.1524E-15	38.1838E-3	-31.2360E-3
37.5188E-6	-115.655E-15	16.3453E-3	675.119E-6	-20.7017E-15	32.2677E-3	-34.5430E-3
32.5163E-6	9.04854E-15	8.26972E-3	-10.9763E-3	-38.3845E-15	20.5389E-3	-30.3653E-3
27.5138E-6	-21.8876E-15	8.67382E-3	-26.3655E-3	-95.9581E-15	12.9301E-3	-17.3544E-3
22.5113E-6	-144.115E-15	20.6679E-3	-18.7258E-3	-147.358E-15	16.9672E-3	-8.22849E-3
17.5088E-6	-150.393E-15	21.1068E-3	-7.10916E-3	-101.643E-15	26.3558E-3	-5.91402E-3
12.5063E-6	-102.567E-15	13.7728E-3	-17.8023E-3	-85.5211E-15	44.3424E-3	-755.842E-6
7.50375E-6	-60.2787E-15	23.3985E-3	-19.5364E-3	-165.242E-15	52.3142E-3	-797.660E-6
2.50125E-6	-154.316E-15	47.7548E-3	-15.3133E-3	-223.025E-15	44.2982E-3	-14.2446E-3
-2.50125E-6	-249.148E-15	63.7846E-3	-16.5419E-3	-172.208E-15	42.5854E-3	-30.7109E-3
-7.50375E-6	-203.066E-15	60.3436E-3	-12.2577E-3	-131.925E-15	43.7567E-3	-37.6958E-3
-12.5063E-6	-207.618E-15	46.1925E-3	-11.8723E-3	-197.346E-15	37.2680E-3	-27.2870E-3
-17.5088E-6	-223.923E-15	39.1596E-3	-18.8389E-3	-344.144E-15	32.0378E-3	-8.49153E-3
-22.5113E-6	-229.433E-15	36.2834E-3	-23.1396E-3	-294.488E-15	36.8712E-3	-2.89317E-3
-27.5138E-6	-286.379E-15	31.1068E-3	-16.6338E-3	-199.648E-15	35.4609E-3	-11.3620E-3
-32.5163E-6	-244.265E-15	28.1837E-3	-8.66894E-3	-240.507E-15	30.3624E-3	-22.8396E-3
-37.5188E-6	-290.887E-15	32.9918E-3	-14.7172E-3	-354.084E-15	38.3461E-3	-29.0156E-3
-42.5213E-6	-281.845E-15	42.9280E-3	-29.6429E-3	-432.611E-15	47.4987E-3	-23.8402E-3
-47.5238E-6	-339.070E-15	47.6263E-3	-33.9646E-3	-309.389E-15	47.7624E-3	-7.75408E-3
-52.5263E-6	-425.260E-15	55.3291E-3	-22.0856E-3	-338.381E-15	47.3957E-3	-7.02175E-3
-57.5288E-6	-396.922E-15	60.9457E-3	-15.7948E-3	-356.569E-15	51.3384E-3	-25.3342E-3
-62.5313E-6	-344.589E-15	58.1447E-3	-21.8402E-3	-421.816E-15	55.7445E-3	-33.5840E-3
-67.5338E-6	-423.551E-15	61.2546E-3	-21.9521E-3	-432.837E-15	62.3375E-3	-27.2307E-3
-72.5363E-6	-504.074E-15	64.2816E-3	-7.26270E-3	-473.181E-15	67.6411E-3	-18.1296E-3
-77.5388E-6	-530.485E-15	67.1560E-3	-2.87658E-3	-447.704E-15	70.4471E-3	-12.0913E-3
-82.5413E-6	-443.414E-15	78.8387E-3	-15.8315E-3	-481.639E-15	75.1124E-3	-20.0644E-3
-87.5438E-6	-456.632E-15	72.6659E-3	-27.4529E-3	-556.826E-15	76.0315E-3	-35.7894E-3
-92.5463E-6	-620.991E-15	49.9314E-3	-36.3603E-3	-553.495E-15	76.6680E-3	-32.8327E-3
-97.5488E-6	-652.512E-15	50.1775E-3	-32.5264E-3	-533.833E-15	86.3641E-3	-21.7310E-3
-102.551E-6	-571.239E-15	67.3357E-3	-15.0039E-3	-573.532E-15	91.7270E-3	-15.1815E-3
-107.554E-6	-555.335E-15	73.6760E-3	-5.95980E-3	-612.717E-15	86.1630E-3	-5.49177E-3
-112.556E-6	-660.699E-15	75.0713E-3	-10.1034E-3	-698.828E-15	84.5024E-3	-4.28190E-3
-117.559E-6	-733.723E-15	75.9457E-3	-10.6170E-3	-641.604E-15	88.1088E-3	-21.9640E-3
-122.561E-6	-726.111E-15	75.4819E-3	-13.0443E-3	-641.229E-15	86.0754E-3	-27.2153E-3
-127.564E-6	-696.884E-15	82.7960E-3	-20.9435E-3	-759.567E-15	87.0798E-3	-10.2855E-3
-132.566E-6	-753.507E-15	88.1577E-3	-21.4365E-3	-848.556E-15	101.604E-3	-10.4983E-3
-137.569E-6	-844.877E-15	84.4838E-3	-21.5744E-3	-841.755E-15	114.710E-3	-17.8680E-3
-142.571E-6	-905.999E-15	78.1872E-3	-17.2537E-3	-769.080E-15	120.825E-3	-4.18786E-3
-147.574E-6	-818.693E-15	73.6268E-3	-1.61231E-3	-878.812E-15	122.289E-3	8.27785E-3
-152.576E-6	-858.479E-15	81.4079E-3	-6.52009E-3	-945.367E-15	118.392E-3	5.40536E-3
-157.579E-6	-915.137E-15	105.247E-3	-28.3597E-3	-986.321E-15	120.395E-3	-2.97753E-3
-162.581E-6	-1.02528E-12	116.652E-3	-24.5010E-3	-961.594E-15	120.953E-3	-18.1351E-3
-167.584E-6	-1.06730E-12	101.248E-3	-13.4067E-3	-1.01423E-12	114.369E-3	-30.2933E-3
-172.586E-6	-1.04829E-12	101.367E-3	-20.0878E-3	-1.08687E-12	122.878E-3	-33.0156E-3
-177.589E-6	-1.06198E-12	122.893E-3	-19.1747E-3	-1.16633E-12	138.972E-3	-38.0632E-3
-182.591E-6	-1.13193E-12	130.919E-3	-7.92998E-3	-1.15704E-12	141.379E-3	-38.1489E-3
-187.594E-6	-1.24417E-12	127.493E-3	-6.33401E-3	-1.18660E-12	137.541E-3	-29.3985E-3
-192.596E-6	-1.27562E-12	127.819E-3	-8.98117E-3	-1.21759E-12	133.601E-3	-25.2254E-3
-197.599E-6	-1.22637E-12	127.035E-3	-14.7404E-3	-1.27733E-12	128.269E-3	-26.4378E-3
-202.601E-6	-1.29202E-12	126.398E-3	-22.5242E-3	-1.34519E-12	129.329E-3	-25.6973E-3
-207.604E-6	-1.44347E-12	140.487E-3	-15.7896E-3	-1.34263E-12	139.753E-3	-29.2158E-3
-212.606E-6	-1.50214E-12	160.582E-3	-7.49128E-3	-1.34026E-12	149.819E-3	-36.0041E-3
-217.609E-6	-1.41454E-12	165.327E-3	-13.3075E-3	-1.47211E-12	156.890E-3	-29.4731E-3
-222.611E-6	-1.50227E-12	151.739E-3	-23.9582E-3	-1.55161E-12	159.488E-3	-8.66088E-3
-227.614E-6	-1.69818E-12	144.586E-3	-28.7059E-3	-1.65672E-12	164.138E-3	10.5000E-3
-232.616E-6	-1.74819E-12	150.207E-3	-30.7734E-3	-1.66698E-12	179.255E-3	16.9678E-3
-237.619E-6	-1.69769E-12	152.834E-3	-28.6422E-3	-1.70236E-12	191.152E-3	9.33482E-3
-242.621E-6	-1.70083E-12	152.658E-3	-14.9746E-3	-1.81121E-12	186.631E-3	-8.16740E-3
-247.624E-6	-1.84644E-12	160.122E-3	-11.7206E-3	-1.92093E-12	179.429E-3	-15.8536E-3
-252.626E-6	-1.93470E-12	170.744E-3	-19.6663E-3	-1.93314E-12	186.046E-3	-10.1824E-3
-257.629E-6	-1.99110E-12	169.768E-3	-19.1632E-3	-1.99022E-12	196.870E-3	-14.0288E-3
-262.631E-6	-2.00637E-12	174.804E-3	-21.7673E-3	-2.05704E-12	205.185E-3	-15.7848E-3
-267.634E-6	-2.05168E-12	190.425E-3	-22.5207E-3	-2.20155E-12	209.138E-3	-9.21733E-3
-272.636E-6	-2.19008E-12	201.999E-3	-5.81760E-3	-2.20194E-12	198.207E-3	-18.7279E-3
-277.639E-6	-2.25472E-12	212.160E-3	2.49245E-3	-2.22635E-12	188.877E-3	-28.2598E-3
-282.641E-6	-2.25543E-12	210.722E-3	-5.94311E-3	-2.24893E-12	210.092E-3	-15.5804E-3
-287.644E-6	-2.34395E-12	197.801E-3	-10.1307E-3	-2.38795E-12	234.299E-3	-1.12043E-3
-292.646E-6	-2.43669E-12	192.377E-3	-15.5617E-3	-2.48166E-12	230.011E-3	-3.47333E-3
-297.649E-6	-2.47810E-12	202.446E-3	-25.0209E-3	-2.48480E-12	216.864E-3	-13.9456E-3
-302.651E-6	-2.61839E-12	213.669E-3	-32.6428E-3	-2.58196E-12	215.972E-3	-21.5457E-3
-307.654E-6	-2.68154E-12	214.357E-3	-39.0015E-3	-2.68491E-12	222.513E-3	-17.8921E-3
-312.656E-6	-2.69403E-12	224.849E-3	-39.2316E-3	-2.71830E-12	213.990E-3	-11.1898E-3
-317.659E-6	-2.77048E-12	233.835E-3	-30.7966E-3	-2.76133E-12	199.843E-3	-16.4290E-3
-322.661E-6	-2.94417E-12	224.586E-3	-21.5853E-3	-2.92207E-12	208.002E-3	-25.8063E-3
-327.664E-6	-3.01928E-12	220.915E-3	-16.5310E-3	-2.98451E-12	225.312E-3	-31.5532E-3
-332.666E-6	-3.03325E-12	225.851E-3	-14.0172E-3	-3.05267E-12	227.350E-3	-32.1480E-3
-337.669E-6	-3.04987E-12	228.690E-3	-11.7104E-3	-3.19422E-12	224.865E-3	-24.1769E-3
-342.671E-6	-3.27595E-12	230.546E-3	-3.20919E-3	-3.28224E-12	230.142E-3	-14.7064E-3
-347.674E-6	-3.33664E-12	239.646E-3	-887.870E-6	-3.25090E-12	241.046E-3	-16.3485E-3
-352.676E-6	-3.26772E-12	247.175E-3	-14.9977E-3	-3.28460E-12	247.137E-3	-22.9048E-3
-357.679E-6	-3.34778E-12	243.516E-3	-19.4321E-3	-3.39172E-12	241.469E-3	-19.4038E-3
-362.681E-6	-3.50246E-12	243.059E-3	-13.9837E-3	-3.52270E-12	239.498E-3	-18.1335E-3
-367.684E-6	-3.62386E-12	237.676E-3	-21.9049E-3	-3.54670E-12	244.077E-3	-27.1788E-3
-372.686E-6	-3.57384E-12	228.861E-3	-30.5162E-3	-3.52346E-12	237.927E-3	-24.2023E-3
-377.689E-6	-3.63047E-12	228.389E-3	-29.9628E-3	-3.67994E-12	226.816E-3	-22.1796E-3
-382.691E-6	-3.80073E-12	234.598E-3	-28.5080E-3	-3.76547E-12	235.921E-3	-27.2875E-3
-387.694E-6	-3.90365E-12	244.009E-3	-25.3171E-3	-3.82738E-12	255.451E-3	-9.84409E-3
-392.696E-6	-3.97794E-12	242.780E-3	-14.9506E-3	-3.82399E-12	257.096E-3	4.10849E-3
-397.699E-6	-3.99966E-12	231.449E-3	-808.035E-6	-3.92195E-12	244.686E-3	-6.58342E-3
-402.701E-6	-4.11684E-12	226.284E-3	-1.42515E-3	-4.08256E-12	229.203E-3	-12.6771E-3
-407.704E-6	-4.23217E-12	230.529E-3	-14.8607E-3	-4.19000E-12	223.594E-3	-13.8132E-3
-412.706E-6	-4.32410E-12	237.415E-3	-18.2317E-3	-4.24912E-12	230.248E-3	-16.4564E-3
-417.709E-6	-4.38471E-12	241.287E-3	-19.9926E-3	-4.29105E-12	236.736E-3	-11.2011E-3
-422.711E-6	-4.45793E-12	244.620E-3	-18.4106E-3	-4.43356E-12	235.436E-3	-8.69053E-3
-427.714E-6	-4.49807E-12	246.963E-3	-12.1828E-3	-4.54965E-12	239.065E-3	-16.9031E-3
-432.716E-6	-4.62339E-12	242.305E-3	-19.0813E-3	-4.65446E-12	251.989E-3	-16.5582E-3
-437.719E-6	-4.69161E-12	241.054E-3	-23.6998E-3	-4.67805E-12	252.627E-3	-5.55776E-3
-442.721E-6	-4.77681E-12	245.936E-3	-16.3634E-3	-4.78808E-12	241.887E-3	-5.05575E-3
-447.724E-6	-4.75288E-12	254.620E-3	-7.24169E-3	-4.83876E-12	239.965E-3	-12.1624E-3
-452.726E-6	-4.87174E-12	258.769E-3	-5.13798E-3	-4.98216E-12	242.707E-3	-20.9126E-3
-457.729E-6	-5.02627E-12	241.703E-3	-14.6212E-3	-5.03396E-12	230.142E-3	-29.1948E-3
-462.731E-6	-5.04812E-12	223.339E-3	-21.9493E-3	-5.05530E-12	216.613E-3	-31.7374E-3
-467.734E-6	-5.04705E-12	213.676E-3	-17.2727E-3	-5.04885E-12	219.487E-3	-30.7092E-3
-472.736E-6	-5.19371E-12	203.876E-3	-15.8686E-3	-5.27779E-12	222.929E-3	-25.0590E-3
-477.739E-6	-5.33048E-12	206.756E-3	-24.8315E-3	-5.31825E-12	215.800E-3	-12.2307E-3
-482.741E-6	-5.46210E-12	218.078E-3	-24.9447E-3	-5.34413E-12	215.154E-3	-1.00164E-3
-487.744E-6	-5.48966E-12	220.382E-3	-9.65208E-3	-5.40986E-12	217.769E-3	-675.459E-6
-492.746E-6	-5.44330E-12	224.832E-3	-1.53218E-3	-5.58456E-12	208.855E-3	-3.50888E-3
-497.749E-6	-5.61510E-12	230.369E-3	-9.50156E-3	-5.64455E-12	208.091E-3	2.24173E-3
-502.751E-6	-5.72668E-12	218.074E-3	-23.3224E-3	-5.66558E-12	219.831E-3	3.83936E-3
-507.754E-6	-5.79932E-12	204.776E-3	-26.4144E-3	-5.72577E-12	213.097E-3	-9.51685E-3
-512.756E-6	-5.80570E-12	199.343E-3	-22.2682E-3	-5.80421E-12	193.588E-3	-17.4085E-3
-517.759E-6	-5.89507E-12	196.884E-3	-26.3875E-3	-5.97085E-12	189.684E-3	-13.1250E-3
-522.761E-6	-6.03806E-12	200.077E-3	-31.0936E-3	-5.97738E-12	183.483E-3	-13.2376E-3
-527.764E-6	-6.03705E-12	204.101E-3	-31.0492E-3	-5.97159E-12	176.660E-3	-11.6216E-3
-532.766E-6	-6.11703E-12	204.652E-3	-25.2533E-3	-6.09175E-12	186.406E-3	-5.44804E-3
-537.769E-6	-6.19741E-12	209.616E-3	-16.4607E-3	-6.24862E-12	187.027E-3	-7.72416E-3
-542.771E-6	-6.23430E-12	209.632E-3	-11.2057E-3	-6.25184E-12	172.889E-3	-4.05061E-3
-547.774E-6	-6.24351E-12	198.291E-3	-6.97905E-3	-6.20543E-12	164.354E-3	7.78462E-3
-552.776E-6	-6.35603E-12	189.449E-3	-9.31273E-3	-6.35855E-12	158.657E-3	585.833E-6
-557.779E-6	-6.31604E-12	183.810E-3	-11.9303E-3	-6.39576E-12	157.179E-3	-16.6443E-3
-562.781E-6	-6.35423E-12	178.068E-3	-12.8075E-3	-6.48818E-12	169.966E-3	-21.6770E-3
-567.784E-6	-6.44654E-12	178.057E-3	-12.7903E-3	-6.58858E-12	170.913E-3	-20.4752E-3
-572.786E-6	-6.63525E-12	185.952E-3	-10.8791E-3	-6.65905E-12	153.830E-3	-20.7394E-3
-577.789E-6	-6.64872E-12	185.200E-3	-19.1732E-3	-6.71466E-12	152.979E-3	-25.5942E-3
-582.791E-6	-6.61715E-12	176.345E-3	-33.2097E-3	-6.72026E-12	157.481E-3	-35.3309E-3
-587.794E-6	-6.71231E-12	168.908E-3	-44.2716E-3	-6.84960E-12	145.131E-3	-39.0223E-3
-592.796E-6	-6.87877E-12	151.596E-3	-40.9202E-3	-6.84629E-12	134.542E-3	-20.4146E-3
-597.799E-6	-6.90387E-12	136.548E-3	-24.6232E-3	-6.83919E-12	135.784E-3	-1.24406E-3
-602.801E-6	-6.82934E-12	139.133E-3	-15.8200E-3	-6.89672E-12	126.735E-3	-3.13395E-3
-607.804E-6	-6.88336E-12	143.359E-3	-13.1642E-3	-6.99293E-12	102.412E-3	-1.86237E-3
-612.806E-6	-6.99904E-12	135.534E-3	-16.1248E-3	-7.00755E-12	96.6298E-3	-2.19701E-3
-617.809E-6	-7.13818E-12	123.171E-3	-16.7887E-3	-6.96819E-12	109.319E-3	-8.26604E-3
-622.811E-6	-7.10465E-12	116.355E-3	-3.94565E-3	-6.91713E-12	117.167E-3	-6.12039E-3
-627.814E-6	-7.11941E-12	111.571E-3	31.9038E-6	-7.07007E-12	116.527E-3	-16.3198E-3
-632.816E-6	-7.17166E-12	107.383E-3	-3.23417E-3	-7.08597E-12	113.185E-3	-23.6763E-3
-637.819E-6	-7.25128E-12	108.178E-3	-8.70178E-3	-7.05063E-12	110.726E-3	-14.6664E-3
-642.821E-6	-7.27229E-12	110.749E-3	-20.3877E-3	-7.07859E-12	104.006E-3	-21.3944E-3
-647.824E-6	-7.25430E-12	118.977E-3	-22.0116E-3	-7.11722E-12	94.2876E-3	-26.8210E-3
-652.826E-6	-7.33828E-12	130.804E-3	-16.3919E-3	-7.26964E-12	92.8966E-3	-9.51675E-3
-657.829E-6	-7.44908E-12	134.210E-3	-20.3522E-3	-7.30057E-12	101.349E-3	957.999E-6
-662.831E-6	-7.48436E-12	130.654E-3	-25.8894E-3	-7.34206E-12	101.139E-3	-2.47461E-3
-667.834E-6	-7.49099E-12	125.053E-3	-18.8416E-3	-7.39741E-12	102.858E-3	1.65209E-3
-672.836E-6	-7.52017E-12	121.512E-3	-9.65305E-3	-7.52538E-12	110.955E-3	-303.736E-6
-677.839E-6	-7.50570E-12	122.628E-3	-2.40155E-3	-7.62459E-12	98.8869E-3	-14.0861E-3
-682.841E-6	-7.63417E-12	120.613E-3	-2.85439E-3	-7.56855E-12	84.5986E-3	-14.6064E-3
-687.844E-6	-7.66888E-12	109.254E-3	-18.0340E-3	-7.64908E-12	81.6541E-3	-11.8795E-3
-692.846E-6	-7.64362E-12	96.3001E-3	-30.0591E-3	-7.76421E-12	74.7594E-3	-15.9045E-3
-697.849E-6	-7.60285E-12	86.4204E-3	-27.5022E-3	-7.73068E-12	74.5080E-3	-10.2525E-3
-702.851E-6	-7.71675E-12	80.4108E-3	-20.7622E-3	-7.74801E-12	77.3152E-3	-654.969E-6
-707.854E-6	-7.75068E-12	74.1047E-3	-17.1371E-3	-7.79664E-12	66.2313E-3	-3.42878E-3
-712.856E-6	-7.76216E-12	68.1161E-3	-14.4703E-3	-7.79731E-12	56.0122E-3	-9.68535E-3
-717.859E-6	-7.68230E-12	68.1837E-3	-18.2247E-3	-7.75051E-12	64.3462E-3	-13.0803E-3
-722.861E-6	-7.72625E-12	68.4848E-3	-26.7550E-3	-7.80466E-12	74.0487E-3	-16.6138E-3
-727.864E-6	-7.86279E-12	70.9226E-3	-19.1159E-3	-7.84188E-12	69.0338E-3	-15.1324E-3
-732.866E-6	-7.88859E-12	74.5096E-3	-6.08785E-3	-7.82591E-12	69.7699E-3	-13.2133E-3
-737.869E-6	-7.83209E-12	80.7600E-3	-9.97807E-3	-7.78321E-12	77.4702E-3	-13.9318E-3
-742.871E-6	-7.79621E-12	82.3273E-3	-14.0980E-3	-7.91156E-12	72.7136E-3	-12.8149E-3
-747.874E-6	-7.90911E-12	70.8778E-3	-12.3008E-3	-7.99568E-12	78.4234E-3	-9.79252E-3
-752.876E-6	-7.98827E-12	65.9228E-3	-18.1364E-3	-7.95767E-12	91.7556E-3	-14.1437E-3
-757.879E-6	-7.92980E-12	68.4117E-3	-26.8485E-3	-8.04354E-12	80.8922E-3	-25.7716E-3
-762.881E-6	-7.95189E-12	61.7685E-3	-31.0987E-3	-8.08529E-12	60.9698E-3	-30.6773E-3
-767.884E-6	-8.07957E-12	52.8014E-3	-30.9394E-3	-8.15900E-12	57.4020E-3	-26.1625E-3
-772.886E-6	-8.03532E-12	59.7659E-3	-22.0971E-3	-8.14155E-12	59.0252E-3	-15.0875E-3
-777.889E-6	-8.04208E-12	73.9994E-3	-16.5151E-3	-8.11006E-12	65.4011E-3	-4.35544E-3
-782.891E-6	-8.13242E-12	79.3495E-3	-16.0378E-3	-8.16947E-12	71.2086E-3	-8.09642E-3
-787.894E-6	-8.06695E-12	71.7239E-3	-13.3876E-3	-8.23120E-12	62.2259E-3	-17.1454E-3
-792.896E-6	-8.16296E-12	55.9457E-3	-8.86993E-3	-8.22332E-12	61.3663E-3	-20.9889E-3
-797.899E-6	-8.14786E-12	49.1721E-3	-3.88998E-3	-8.08835E-12	69.7918E-3	-25.4471E-3
-802.901E-6	-8.19861E-12	54.2802E-3	-8.21259E-3	-8.09337E-12	66.6366E-3	-22.6559E-3
-807.904E-6	-8.16656E-12	61.9687E-3	-18.8255E-3	-8.17183E-12	53.7176E-3	-15.8421E-3
-812.906E-6	-8.13464E-12	68.0509E-3	-29.5957E-3	-8.17421E-12	48.7721E-3	-22.4828E-3
-817.909E-6	-8.17953E-12	65.2738E-3	-30.4131E-3	-8.11649E-12	46.7226E-3	-28.3410E-3
-822.911E-6	-8.28211E-12	55.7423E-3	-29.7041E-3	-8.22579E-12	50.7405E-3	-18.4924E-3
-827.914E-6	-8.23027E-12	54.8013E-3	-37.1542E-3	-8.21692E-12	62.3546E-3	-13.4519E-3
-832.916E-6	-8.12594E-12	67.0472E-3	-27.9996E-3	-8.23589E-12	62.3979E-3	-11.4342E-3
-837.919E-6	-8.21437E-12	73.3145E-3	-14.6300E-3	-8.29396E-12	61.6407E-3	-3.23580E-3
-842.921E-6	-8.37935E-12	66.0008E-3	-14.7674E-3	-8.40412E-12	64.4871E-3	-14.4602E-3
-847.924E-6	-8.37679E-12	61.4766E-3	-11.8446E-3	-8.47430E-12	67.1145E-3	-37.6638E-3
-852.926E-6	-8.30655E-12	61.2486E-3	-11.1866E-3	-8.49247E-12	72.6711E-3	-31.5804E-3
-857.929E-6	-8.36617E-12	54.2393E-3	-12.4155E-3	-8.54317E-12	75.3579E-3	-9.08405E-3
-862.931E-6	-8.44718E-12	51.9756E-3	-13.6172E-3	-8.65406E-12	75.3435E-3	-5.81378E-3
-867.934E-6	-8.54407E-12	62.1156E-3	-13.2260E-3	-8.68382E-12	80.3580E-3	-10.1439E-3
-872.936E-6	-8.45172E-12	65.5489E-3	-5.82503E-3	-8.61897E-12	88.5591E-3	-9.65894E-3
-877.939E-6	-8.49036E-12	66.0742E-3	-3.81500E-3	-8.73513E-12	83.1239E-3	-9.69801E-3
-882.941E-6	-8.62818E-12	69.8391E-3	-4.08180E-3	-8.78325E-12	69.2957E-3	-3.71196E-3
-887.944E-6	-8.58974E-12	69.0521E-3	-2.41811E-3	-8.71304E-12	74.2217E-3	-4.12863E-3
-892.946E-6	-8.60374E-12	74.4575E-3	-5.67679E-3	-8.63563E-12	89.2724E-3	-21.6795E-3
-897.949E-6	-8.69190E-12	84.2098E-3	-10.6228E-3	-8.74642E-12	87.1494E-3	-33.2884E-3
-902.951E-6	-8.68614E-12	76.4153E-3	-12.7364E-3	-8.78522E-12	71.1408E-3	-28.0681E-3
-907.954E-6	-8.68134E-12	68.3795E-3	-8.35750E-3	-8.61585E-12	66.4743E-3	-26.0389E-3
-912.956E-6	-8.83837E-12	81.6929E-3	-6.89437E-3	-8.64304E-12	73.2395E-3	-38.1506E-3
-917.959E-6	-8.82126E-12	88.6352E-3	-22.7483E-3	-8.70630E-12	80.1736E-3	-36.4086E-3
-922.961E-6	-8.77184E-12	86.0172E-3	-35.8892E-3	-8.72740E-12	93.7542E-3	-26.5887E-3
-927.964E-6	-8.84328E-12	93.8013E-3	-24.3360E-3	-8.69277E-12	96.9225E-3	-26.2510E-3
-932.966E-6	-8.92025E-12	98.8888E-3	-5.86575E-3	-8.70527E-12	88.9350E-3	-22.2618E-3
-937.969E-6	-8.99907E-12	102.024E-3	-5.27256E-3	-8.81043E-12	96.9903E-3	-27.0512E-3
-942.971E-6	-9.05378E-12	104.699E-3	-15.4946E-3	-8.85869E-12	106.061E-3	-37.5773E-3
-947.974E-6	-9.01924E-12	89.1170E-3	-22.9226E-3	-8.89689E-12	104.449E-3	-30.8302E-3
-952.976E-6	-9.03925E-12	74.2729E-3	-31.7882E-3	-8.92415E-12	104.119E-3	-22.3303E-3
-957.979E-6	-9.17658E-12	80.8159E-3	-40.4730E-3	-8.98107E-12	103.671E-3	-29.3215E-3
-962.981E-6	-9.18518E-12	88.1497E-3	-38.0381E-3	-9.09151E-12	107.953E-3	-31.8570E-3
-967.984E-6	-9.10545E-12	91.1749E-3	-36.1618E-3	-9.06903E-12	114.917E-3	-27.8092E-3
-972.986E-6	-9.12526E-12	98.2982E-3	-30.3450E-3	-9.14946E-12	112.747E-3	-23.3062E-3
-977.989E-6	-9.22936E-12	103.410E-3	-16.4924E-3	-9.17516E-12	122.302E-3	-11.3762E-3
-982.991E-6	-9.36434E-12	112.044E-3	-20.6159E-3	-9.20672E-12	144.064E-3	-16.4728E-3
-987.994E-6	-9.20525E-12	129.908E-3	-19.1154E-3	-9.27169E-12	147.391E-3	-33.2192E-3
-992.997E-6	-9.21471E-12	143.149E-3	-3.52508E-3	-9.20887E-12	141.658E-3	-31.1825E-3
-997.999E-6	-9.35913E-12	134.804E-3	-4.35603E-3	-9.38902E-12	140.477E-3	-27.9925E-3
-1.00300E-3	-9.41073E-12	118.658E-3	-17.4417E-3	-9.38820E-12	138.084E-3	-31.1611E-3
-1.00800E-3	-9.39305E-12	121.704E-3	-22.7043E-3	-9.47428E-12	146.849E-3	-18.1777E-3
-1.01301E-3	-9.42828E-12	137.641E-3	-15.7468E-3	-9.50315E-12	179.022E-3	-4.69230E-3
-1.01801E-3	-9.51100E-12	147.202E-3	-6.08107E-3	-9.67910E-12	199.689E-3	-10.9913E-3
-1.02301E-3	-9.56440E-12	155.444E-3	-2.64008E-3	-9.66847E-12	196.393E-3	-17.0998E-3
-1.02801E-3	-9.65913E-12	161.837E-3	-13.0603E-3	-9.60028E-12	202.156E-3	-13.1680E-3
-1.03302E-3	-9.67455E-12	162.768E-3	-17.6070E-3	-9.70104E-12	209.359E-3	-21.3989E-3
-1.03802E-3	-9.73057E-12	169.680E-3	-10.3101E-3	-9.83024E-12	203.624E-3	-35.7074E-3
-1.04302E-3	-9.89823E-12	183.107E-3	-20.0633E-3	-9.85824E-12	208.178E-3	-31.2746E-3
-1.04802E-3	-10.0163E-12	195.910E-3	-27.0204E-3	-9.81795E-12	223.378E-3	-22.5350E-3
-1.05303E-3	-10.0415E-12	191.329E-3	-14.5551E-3	-9.90334E-12	233.309E-3	-16.3302E-3
-1.05803E-3	-10.0633E-12	185.674E-3	-11.6865E-3	-10.0013E-12	246.183E-3	-9.45687E-3
-1.06303E-3	-10.0903E-12	205.399E-3	-18.2134E-3	-10.1478E-12	259.500E-3	-15.3528E-3
-1.06803E-3	-10.1734E-12	229.307E-3	-22.2225E-3	-10.1172E-12	257.132E-3	-22.4847E-3
-1.07304E-3	-10.3712E-12	233.527E-3	-33.3229E-3	-10.2165E-12	253.736E-3	-21.6181E-3
-1.07804E-3	-10.3407E-12	225.788E-3	-37.5966E-3	-10.4157E-12	271.008E-3	-22.6657E-3
-1.08304E-3	-10.3934E-12	230.357E-3	-24.2814E-3	-10.4454E-12	289.853E-3	-18.4122E-3
-1.08804E-3	-10.4810E-12	246.804E-3	-20.2932E-3	-10.5359E-12	297.586E-3	-6.56131E-3
-1.09305E-3	-10.7539E-12	266.420E-3	-34.4469E-3	-10.7665E-12	310.260E-3	-9.84178E-3
-1.09805E-3	-10.8184E-12	276.119E-3	-31.0849E-3	-10.8878E-12	326.731E-3	-17.8839E-3
-1.10305E-3	-10.8040E-12	272.480E-3	-13.5582E-3	-10.9592E-12	345.058E-3	-13.6520E-3
-1.10805E-3	-10.9903E-12	288.798E-3	-8.58558E-3	-11.1896E-12	359.921E-3	-28.0375E-3
-1.11306E-3	-11.2071E-12	314.489E-3	-5.39677E-3	-11.4113E-12	364.458E-3	-48.6415E-3
-1.11806E-3	-11.3347E-12	317.151E-3	-6.38764E-3	-11.4968E-12	372.360E-3	-40.4568E-3
-1.12306E-3	-11.3582E-12	317.078E-3	-11.6220E-3	-11.5000E-12	384.449E-3	-25.8730E-3
-1.12806E-3	-11.4936E-12	333.015E-3	-3.67853E-3	-11.6920E-12	393.756E-3	-14.0078E-3
-1.13307E-3	-11.6709E-12	356.711E-3	9.62960E-3	-11.9050E-12	408.908E-3	-771.981E-6
-1.13807E-3	-11.8196E-12	382.570E-3	56.6844E-6	-11.8781E-12	438.060E-3	-6.30035E-3
-1.14307E-3	-11.9767E-12	407.252E-3	-17.1229E-3	-11.9387E-12	461.885E-3	-18.8319E-3
-1.14807E-3	-12.0230E-12	413.929E-3	-15.1350E-3	-12.0979E-12	468.967E-3	-17.9534E-3
-1.15308E-3	-12.1266E-12	416.308E-3	-8.08194E-3	-12.3371E-12	476.616E-3	-22.2565E-3
-1.15808E-3	-12.3723E-12	432.684E-3	1.47731E-3	-12.3558E-12	485.731E-3	-30.6071E-3
-1.16308E-3	-12.4745E-12	441.803E-3	11.2228E-3	-12.5046E-12	499.200E-3	-22.5378E-3
-1.16808E-3	-12.6307E-12	456.345E-3	6.01381E-3	-12.7313E-12	530.132E-3	-9.76869E-3
-1.17309E-3	-12.8710E-12	486.516E-3	-2.53683E-3	-12.9472E-12	564.935E-3	-12.7108E-3
-1.17809E-3	-12.9413E-12	498.223E-3	-4.99483E-3	-13.0723E-12	588.803E-3	-19.4288E-3
-1.18309E-3	-13.0710E-12	504.330E-3	-18.4320E-3	-13.2705E-12	613.258E-3	-15.7726E-3
-1.18809E-3	-13.4687E-12	524.864E-3	-23.8777E-3	-13.4796E-12	629.732E-3	-18.4819E-3
-1.19310E-3	-13.5669E-12	535.585E-3	-10.4995E-3	-13.7723E-12	627.804E-3	-23.9738E-3
-1.19810E-3	-13.7331E-12	550.390E-3	-18.5680E-3	-13.9722E-12	632.899E-3	-16.9978E-3
-1.20310E-3	-14.0637E-12	586.856E-3	-38.6916E-3	-14.0927E-12	650.078E-3	-12.3562E-3
-1.20810E-3	-14.3425E-12	610.027E-3	-40.7715E-3	-14.3888E-12	662.353E-3	-12.4088E-3
-1.21311E-3	-14.4678E-12	614.441E-3	-44.9836E-3	-14.6193E-12	673.901E-3	-14.3848E-3
-1.21811E-3	-14.5662E-12	631.438E-3	-46.1587E-3	-14.7057E-12	689.386E-3	-20.3858E-3
-1.22311E-3	-14.8786E-12	650.715E-3	-28.0762E-3	-14.7970E-12	698.321E-3	-22.2346E-3
-1.22811E-3	-15.1361E-12	653.151E-3	-18.8577E-3	-15.0750E-12	713.376E-3	-20.9122E-3
-1.23312E-3	-15.3472E-12	654.937E-3	-23.5194E-3	-15.1945E-12	740.221E-3	-29.5348E-3
-1.23812E-3	-15.5539E-12	671.343E-3	-18.8708E-3	-15.2332E-12	750.458E-3	-36.3120E-3
-1.24312E-3	-15.8203E-12	699.137E-3	-12.4085E-3	-15.4573E-12	759.270E-3	-26.8682E-3
-1.24812E-3	-16.1107E-12	726.726E-3	-21.8434E-3	-15.6655E-12	785.971E-3	-25.1075E-3
-1.25313E-3	-16.1330E-12	750.134E-3	-36.5306E-3	-15.7968E-12	816.012E-3	-21.7745E-3
-1.25813E-3	-16.5884E-12	760.572E-3	-37.9236E-3	-16.1309E-12	844.321E-3	3.47889E-3
-1.26313E-3	-16.8018E-12	767.395E-3	-27.1557E-3	-16.5612E-12	868.769E-3	3.65217E-3
-1.26813E-3	-17.1167E-12	792.712E-3	-14.6032E-3	-16.9728E-12	887.775E-3	-17.9073E-3
-1.27314E-3	-17.3476E-12	819.054E-3	-14.9359E-3	-17.2985E-12	915.823E-3	-15.5664E-3
-1.27814E-3	-17.7113E-12	830.711E-3	-23.7288E-3	-17.6169E-12	950.503E-3	-4.97666E-3
-1.28314E-3	-18.0474E-12	844.365E-3	-18.7155E-3	-18.0830E-12	964.197E-3	-4.22635E-3
-1.28814E-3	-18.3236E-12	862.559E-3	-13.6545E-3	-18.5041E-12	965.024E-3	-13.8655E-3
-1.29315E-3	-18.5644E-12	883.147E-3	-18.4805E-3	-18.8709E-12	971.686E-3	-26.5701E-3
-1.29815E-3	-18.9441E-12	915.440E-3	-12.5990E-3	-19.0904E-12	982.112E-3	-20.7968E-3
-1.30315E-3	-19.3269E-12	935.732E-3	-7.03224E-3	-19.5692E-12	998.478E-3	-440.727E-6
-1.30815E-3	-19.5346E-12	936.950E-3	-16.9093E-3	-19.9345E-12	1.01375E+0	2.76189E-3
-1.31316E-3	-19.8432E-12	945.355E-3	-20.7497E-3	-20.1452E-12	1.01546E+0	-4.07307E-3
-1.31816E-3	-20.2939E-12	965.055E-3	-13.1048E-3	-20.5588E-12	1.01833E+0	-7.62294E-3
-1.32316E-3	-20.6597E-12	996.072E-3	-15.2102E-3	-20.6204E-12	1.03764E+0	-15.0941E-3
-1.32816E-3	-20.7472E-12	1.02137E+0	-19.8162E-3	-20.9698E-12	1.06136E+0	-16.9476E-3
-1.33317E-3	-21.2041E-12	1.02424E+0	-20.8896E-3	-21.1118E-12	1.07359E+0	-12.9867E-3
-1.33817E-3	-21.5272E-12	1.03161E+0	-29.5540E-3	-21.4014E-12	1.08822E+0	-20.6792E-3
-1.34317E-3	-21.9057E-12	1.05794E+0	-27.2207E-3	-21.6169E-12	1.10277E+0	-33.9940E-3
-1.34817E-3	-22.1801E-12	1.08023E+0	-10.9661E-3	-21.8816E-12	1.10631E+0	-26.1726E-3
-1.35318E-3	-22.4947E-12	1.08884E+0	-13.1650E-3	-22.1642E-12	1.11568E+0	-15.7374E-3
-1.35818E-3	-23.0305E-12	1.09686E+0	-15.0650E-3	-22.6037E-12	1.12931E+0	-22.7250E-3
-1.36318E-3	-23.6437E-12	1.09662E+0	-3.58249E-3	-23.1944E-12	1.14282E+0	-23.7007E-3
-1.36818E-3	-24.0916E-12	1.10371E+0	-9.20273E-3	-23.7152E-12	1.16023E+0	-13.6906E-3
-1.37319E-3	-24.3683E-12	1.13747E+0	-20.4996E-3	-24.1414E-12	1.17794E+0	-9.63539E-3
-1.37819E-3	-24.9706E-12	1.16087E+0	-17.5443E-3	-24.5255E-12	1.18968E+0	-5.70020E-3
-1.38319E-3	-25.3392E-12	1.15937E+0	-11.1331E-3	-25.0752E-12	1.19301E+0	4.29848E-3
-1.38819E-3	-25.5757E-12	1.16155E+0	-9.37934E-3	-25.6153E-12	1.19547E+0	393.362E-6
-1.39320E-3	-25.9394E-12	1.17050E+0	-4.62017E-3	-25.8111E-12	1.20547E+0	-4.83420E-3
-1.39820E-3	-26.3552E-12	1.16990E+0	-887.956E-6	-26.1347E-12	1.21885E+0	-3.76365E-3
-1.40320E-3	-26.6804E-12	1.17523E+0	20.3862E-6	-26.6770E-12	1.22398E+0	-15.8796E-3
-1.40820E-3	-27.0103E-12	1.19495E+0	-2.22808E-3	-26.9856E-12	1.21798E+0	-30.3395E-3
-1.41321E-3	-27.2638E-12	1.20214E+0	-17.8444E-3	-27.3669E-12	1.21381E+0	-28.3722E-3
-1.41821E-3	-27.5609E-12	1.20128E+0	-25.6734E-3	-27.7723E-12	1.22382E+0	-14.0603E-3
-1.42321E-3	-27.8440E-12	1.20284E+0	-16.9513E-3	-28.3131E-12	1.23016E+0	-8.73405E-3
-1.42821E-3	-28.2160E-12	1.20057E+0	-25.4603E-3	-28.5203E-12	1.23177E+0	-18.0892E-3
-1.43322E-3	-28.7758E-12	1.20241E+0	-33.1665E-3	-28.8202E-12	1.23964E+0	-28.4254E-3
-1.43822E-3	-29.0339E-12	1.20554E+0	-15.5074E-3	-29.3243E-12	1.22919E+0	-24.8647E-3
-1.44322E-3	-29.3917E-12	1.20822E+0	-1.69244E-3	-29.7466E-12	1.21678E+0	-11.2488E-3
-1.44822E-3	-29.8214E-12	1.22300E+0	-257.996E-6	-30.0955E-12	1.22827E+0	-12.4459E-3
-1.45323E-3	-30.3481E-12	1.23905E+0	-5.84665E-3	-30.3422E-12	1.24284E+0	-23.0810E-3
-1.45823E-3	-30.9642E-12	1.24301E+0	-25.8720E-3	-31.0157E-12	1.25435E+0	-23.9678E-3
-1.46323E-3	-31.4689E-12	1.24443E+0	-42.9483E-3	-31.5641E-12	1.25776E+0	-18.1380E-3
-1.46823E-3	-31.7646E-12	1.24030E+0	-36.5991E-3	-31.7976E-12	1.25494E+0	-10.8764E-3
-1.47324E-3	-32.2765E-12	1.23771E+0	-27.2204E-3	-32.1030E-12	1.25833E+0	-6.15429E-3
-1.47824E-3	-32.8598E-12	1.24720E+0	-23.0420E-3	-32.6728E-12	1.25165E+0	-10.7394E-3
-1.48324E-3	-33.1941E-12	1.24613E+0	-12.2832E-3	-33.0633E-12	1.23033E+0	-17.1540E-3
-1.48824E-3	-33.4966E-12	1.23248E+0	-9.88465E-3	-33.2181E-12	1.21337E+0	-14.0333E-3
-1.49325E-3	-33.8857E-12	1.23966E+0	-14.0645E-3	-33.5024E-12	1.21300E+0	-21.3560E-3
-1.49825E-3	-34.2867E-12	1.26034E+0	-3.19271E-3	-34.0060E-12	1.22074E+0	-29.5851E-3
-1.50325E-3	-34.5871E-12	1.25587E+0	-2.08025E-3	-34.5163E-12	1.22975E+0	-18.5140E-3
-1.50825E-3	-34.9826E-12	1.23701E+0	-25.3391E-3	-34.8449E-12	1.23861E+0	-7.98437E-3
-1.51326E-3	-35.3831E-12	1.22644E+0	-38.5291E-3	-35.2115E-12	1.23138E+0	-2.36972E-3
-1.51826E-3	-35.9025E-12	1.22181E+0	-29.8101E-3	-35.9274E-12	1.21744E+0	2.66488E-3
-1.52326E-3	-36.2771E-12	1.23212E+0	-26.0699E-3	-36.2454E-12	1.21529E+0	-1.89430E-3
-1.52826E-3	-36.6001E-12	1.24339E+0	-33.7206E-3	-36.5388E-12	1.21295E+0	-26.4086E-3
-1.53327E-3	-37.2113E-12	1.23345E+0	-40.2472E-3	-37.0657E-12	1.20090E+0	-42.2339E-3
-1.53827E-3	-37.7514E-12	1.21785E+0	-47.6343E-3	-37.9474E-12	1.19962E+0	-23.2824E-3
-1.54327E-3	-38.2518E-12	1.21519E+0	-36.7547E-3	-37.9951E-12	1.20782E+0	-9.89691E-3
-1.54827E-3	-38.3707E-12	1.20451E+0	-19.7275E-3	-38.2965E-12	1.20445E+0	-15.6185E-3
-1.55328E-3	-38.9395E-12	1.19657E+0	-23.6984E-3	-38.8812E-12	1.19457E+0	-9.34215E-3
-1.55828E-3	-39.3831E-12	1.20499E+0	-32.6721E-3	-39.4759E-12	1.18687E+0	-835.005E-6
-1.56328E-3	-39.8830E-12	1.19335E+0	-35.7547E-3	-39.5968E-12	1.17641E+0	-12.2679E-3
-1.56828E-3	-40.0304E-12	1.18408E+0	-25.0575E-3	-39.9785E-12	1.16332E+0	-25.8560E-3
-1.57329E-3	-40.5465E-12	1.19834E+0	-3.89010E-3	-40.4922E-12	1.16073E+0	-26.5183E-3
-1.57829E-3	-40.8687E-12	1.20119E+0	-3.10160E-3	-40.4982E-12	1.15845E+0	-22.6348E-3
-1.58329E-3	-41.0050E-12	1.19396E+0	-32.5984E-3	-40.6504E-12	1.15057E+0	-20.9317E-3
-1.58829E-3	-41.3921E-12	1.19017E+0	-35.7296E-3	-40.9648E-12	1.14274E+0	-22.5846E-3
-1.59330E-3	-41.7764E-12	1.17684E+0	-6.51476E-3	-41.5176E-12	1.13726E+0	-17.6182E-3
-1.59830E-3	-42.3267E-12	1.16985E+0	-3.75038E-3	-41.8127E-12	1.15161E+0	-11.6193E-3
-1.60330E-3	-42.3638E-12	1.18120E+0	-17.3418E-3	-42.3079E-12	1.17120E+0	-16.9292E-3
-1.60830E-3	-42.7786E-12	1.17003E+0	-19.5994E-3	-42.9511E-12	1.16357E+0	-14.2738E-3
-1.61331E-3	-43.4538E-12	1.13072E+0	-22.2619E-3	-43.4822E-12	1.13852E+0	-388.453E-6
-1.61831E-3	-43.7296E-12	1.11072E+0	-21.3982E-3	-43.8780E-12	1.12187E+0	-10.5961E-3
-1.62331E-3	-44.0274E-12	1.10723E+0	-4.41673E-3	-44.2288E-12	1.11934E+0	-36.7009E-3
-1.62831E-3	-44.8244E-12	1.10527E+0	11.4905E-3	-44.7186E-12	1.12587E+0	-41.4807E-3
-1.63332E-3	-45.1570E-12	1.12149E+0	4.82963E-3	-45.1768E-12	1.11841E+0	-36.3879E-3
-1.63832E-3	-45.6494E-12	1.12210E+0	-6.47053E-3	-45.6507E-12	1.09453E+0	-29.8295E-3
-1.64332E-3	-46.0330E-12	1.09698E+0	-8.82758E-3	-45.7018E-12	1.08557E+0	-19.8196E-3
-1.64832E-3	-46.3271E-12	1.09692E+0	-14.8911E-3	-45.9397E-12	1.08504E+0	-23.6903E-3
-1.65333E-3	-46.5681E-12	1.10679E+0	-19.0395E-3	-46.1739E-12	1.07323E+0	-31.6293E-3
-1.65833E-3	-46.9700E-12	1.09426E+0	-8.22620E-3	-46.1336E-12	1.05810E+0	-23.7896E-3
-1.66333E-3	-47.1071E-12	1.08434E+0	5.57103E-3	-46.2822E-12	1.04489E+0	-2.39328E-3
-1.66833E-3	-47.0912E-12	1.08304E+0	12.6467E-3	-46.6240E-12	1.02398E+0	868.635E-6
-1.67334E-3	-47.5715E-12	1.06585E+0	15.6839E-3	-46.7730E-12	1.00474E+0	-12.2204E-3
-1.67834E-3	-47.6077E-12	1.05965E+0	787.231E-6	-46.7988E-12	1.00673E+0	-1.38838E-3
-1.68334E-3	-47.9887E-12	1.06577E+0	-24.2337E-3	-47.1140E-12	1.01549E+0	4.78875E-3
-1.68834E-3	-48.5297E-12	1.04454E+0	-38.2083E-3	-47.6977E-12	1.01432E+0	-9.39671E-3
-1.69335E-3	-49.2083E-12	1.02864E+0	-46.2336E-3	-47.8703E-12	1.01358E+0	-7.21797E-3
-1.69835E-3	-49.1519E-12	1.04127E+0	-39.2650E-3	-48.8296E-12	1.02229E+0	1.75546E-3
-1.70335E-3	-49.8524E-12	1.04774E+0	-22.3771E-3	-49.3043E-12	1.02669E+0	-3.59897E-3
-1.70835E-3	-50.3941E-12	1.03786E+0	-23.6927E-3	-50.0779E-12	1.02670E+0	-14.9705E-3
-1.71336E-3	-50.5741E-12	1.03723E+0	-23.6192E-3	-50.8677E-12	1.01902E+0	-19.8746E-3
-1.71836E-3	-50.9493E-12	1.04161E+0	-7.76774E-3	-51.6204E-12	1.00623E+0	-20.2779E-3
-1.72336E-3	-51.2605E-12	1.02793E+0	994.307E-6	-51.9037E-12	1.01824E+0	-24.6740E-3
-1.72836E-3	-51.8793E-12	1.01262E+0	1.41646E-3	-52.2817E-12	1.03830E+0	-22.1725E-3
-1.73337E-3	-52.2217E-12	1.01216E+0	-7.10051E-3	-52.9238E-12	1.02822E+0	-8.97324E-3
-1.73837E-3	-52.3358E-12	1.01553E+0	-23.2203E-3	-53.2278E-12	1.00955E+0	-9.84145E-3
-1.74337E-3	-52.2108E-12	1.00619E+0	-20.3041E-3	-53.5546E-12	997.307E-3	-34.6927E-3
-1.74837E-3	-52.7279E-12	992.742E-3	-2.51372E-3	-53.5571E-12	972.891E-3	-41.3490E-3
-1.75338E-3	-52.8469E-12	994.902E-3	-5.13290E-3	-53.9935E-12	969.470E-3	-13.6431E-3
-1.75838E-3	-52.8207E-12	998.542E-3	-22.8762E-3	-53.6407E-12	991.276E-3	-2.73982E-3
-1.76338E-3	-53.3630E-12	981.623E-3	-30.7571E-3	-53.7893E-12	982.694E-3	-19.4257E-3
-1.76838E-3	-54.0535E-12	961.293E-3	-32.4027E-3	-54.2680E-12	956.640E-3	-29.2163E-3
-1.77339E-3	-54.0841E-12	959.406E-3	-30.1425E-3	-54.2796E-12	952.745E-3	-28.4187E-3
-1.77839E-3	-54.7034E-12	965.134E-3	-19.1029E-3	-54.8110E-12	946.494E-3	-22.9086E-3
-1.78339E-3	-55.0276E-12	962.382E-3	-11.0274E-3	-55.2597E-12	934.489E-3	-13.5075E-3
-1.78839E-3	-55.7987E-12	959.928E-3	-20.9024E-3	-55.8793E-12	927.101E-3	-7.00518E-3
-1.79340E-3	-55.8388E-12	956.447E-3	-31.7814E-3	-56.1295E-12	923.789E-3	-4.02727E-3
-1.79840E-3	-56.7435E-12	951.134E-3	-30.6695E-3	-56.6202E-12	938.628E-3	-8.93963E-3
-1.80340E-3	-57.1202E-12	969.091E-3	-22.0637E-3	-56.8414E-12	960.542E-3	-25.1964E-3
-1.80840E-3	-57.7883E-12	980.662E-3	-15.4935E-3	-57.5315E-12	968.880E-3	-37.5854E-3
-1.81341E-3	-58.3497E-12	957.944E-3	-34.2332E-3	-57.7956E-12	952.176E-3	-36.3884E-3
-1.81841E-3	-58.1045E-12	944.713E-3	-58.1453E-3	-57.9699E-12	932.944E-3	-21.9060E-3
-1.82341E-3	-58.8723E-12	951.079E-3	-38.9150E-3	-58.2984E-12	932.130E-3	-11.7642E-3
-1.82841E-3	-58.7705E-12	956.639E-3	-13.1529E-3	-58.8549E-12	932.824E-3	-22.6712E-3
-1.83342E-3	-59.2187E-12	959.423E-3	-14.5286E-3	-58.5543E-12	913.051E-3	-30.3609E-3
-1.83842E-3	-58.9384E-12	939.894E-3	-6.75553E-3	-58.7572E-12	886.847E-3	-23.4872E-3
-1.84342E-3	-59.0929E-12	902.937E-3	-5.77567E-3	-59.0932E-12	885.393E-3	-21.3081E-3
-1.84842E-3	-59.1812E-12	884.060E-3	-16.7520E-3	-58.8235E-12	896.637E-3	-15.0813E-3
-1.85343E-3	-59.1007E-12	896.389E-3	-8.18682E-3	-59.0569E-12	893.753E-3	-9.87744E-3
-1.85843E-3	-59.3645E-12	909.320E-3	652.554E-6	-59.2967E-12	880.594E-3	-12.7684E-3
-1.86343E-3	-59.6523E-12	911.434E-3	-8.92194E-3	-59.5185E-12	873.170E-3	-4.88713E-3
-1.86843E-3	-60.2291E-12	908.966E-3	-11.5109E-3	-59.6605E-12	879.677E-3	904.088E-6
-1.87344E-3	-60.0056E-12	892.834E-3	-7.79654E-3	-60.1231E-12	878.989E-3	-7.55138E-3
-1.87844E-3	-60.8273E-12	885.390E-3	-22.1441E-3	-60.4532E-12	870.548E-3	-16.1332E-3
-1.88344E-3	-61.0888E-12	890.199E-3	-33.9416E-3	-61.2616E-12	878.021E-3	-17.3472E-3
-1.88844E-3	-61.6340E-12	882.295E-3	-34.4809E-3	-61.4073E-12	890.741E-3	-15.8055E-3
-1.89345E-3	-61.6288E-12	875.435E-3	-35.0074E-3	-61.9268E-12	887.918E-3	-16.7498E-3
-1.89845E-3	-62.0490E-12	878.773E-3	-19.0161E-3	-62.1516E-12	866.597E-3	-17.6854E-3
-1.90345E-3	-62.5501E-12	867.887E-3	-7.65539E-3	-62.6600E-12	851.738E-3	-21.1202E-3
-1.90845E-3	-62.5523E-12	861.626E-3	-15.3975E-3	-62.7098E-12	861.565E-3	-23.7069E-3
-1.91346E-3	-62.8510E-12	879.458E-3	-20.3552E-3	-62.7207E-12	866.062E-3	-29.2669E-3
-1.91846E-3	-63.3826E-12	866.322E-3	-22.6342E-3	-63.2250E-12	848.680E-3	-37.1094E-3
-1.92346E-3	-63.7016E-12	839.515E-3	-20.9143E-3	-63.2239E-12	843.419E-3	-25.9695E-3
-1.92846E-3	-63.7059E-12	851.686E-3	-12.5711E-3	-63.5615E-12	861.683E-3	-11.9846E-3
-1.93347E-3	-64.0255E-12	856.434E-3	-2.41091E-3	-63.6708E-12	863.877E-3	-13.1810E-3
-1.93847E-3	-64.3677E-12	847.189E-3	-4.63223E-3	-63.9073E-12	844.773E-3	-15.1630E-3
-1.94347E-3	-64.6945E-12	857.035E-3	-9.52280E-3	-64.1199E-12	841.656E-3	-14.2088E-3
-1.94847E-3	-64.6738E-12	849.519E-3	-5.15220E-3	-64.3718E-12	843.647E-3	-14.8309E-3
-1.95348E-3	-65.1675E-12	829.801E-3	-4.43361E-3	-64.8136E-12	830.346E-3	-21.1582E-3
-1.95848E-3	-65.4055E-12	834.520E-3	-2.01799E-3	-65.0930E-12	834.686E-3	-27.9224E-3
-1.96348E-3	-65.8887E-12	840.650E-3	-9.83868E-3	-65.5281E-12	852.680E-3	-25.4387E-3
-1.96848E-3	-66.0163E-12	843.029E-3	-22.7069E-3	-65.9470E-12	858.304E-3	-27.0777E-3
-1.97349E-3	-66.7063E-12	848.175E-3	-16.7319E-3	-66.5859E-12	856.120E-3	-33.9607E-3
-1.97849E-3	-67.1182E-12	840.596E-3	-6.92085E-3	-66.7173E-12	851.805E-3	-34.0321E-3
-1.98349E-3	-67.6177E-12	833.292E-3	-20.5056E-3	-66.9703E-12	847.195E-3	-30.0817E-3
-1.98849E-3	-67.7344E-12	840.548E-3	-46.9652E-3	-67.4074E-12	841.375E-3	-28.9113E-3
-1.99350E-3	-67.9446E-12	842.983E-3	-38.2246E-3	-67.7743E-12	836.247E-3	-38.4883E-3
-1.99850E-3	-68.3321E-12	833.803E-3	-17.1169E-3	-67.7562E-12	829.942E-3	-32.0279E-3
-2.00350E-3	-68.5437E-12	830.626E-3	-8.49042E-3	-68.2177E-12	829.598E-3	-3.00110E-3
-2.00850E-3	-68.3724E-12	832.784E-3	13.2504E-3	-68.5487E-12	836.235E-3	5.30431E-3
-2.01351E-3	-68.9690E-12	831.269E-3	20.0381E-3	-68.5261E-12	831.386E-3	-5.93316E-3
-2.01851E-3	-69.3689E-12	829.765E-3	1.17237E-3	-68.9926E-12	821.847E-3	-10.9671E-3
-2.02351E-3	-69.2274E-12	826.991E-3	-7.81390E-3	-69.0574E-12	817.964E-3	-8.59506E-3
-2.02851E-3	-69.4845E-12	817.319E-3	-14.1315E-3	-69.6424E-12	811.085E-3	3.39883E-3
-2.03352E-3	-69.9124E-12	822.356E-3	-22.8629E-3	-70.0402E-12	813.589E-3	23.0683E-3
-2.03852E-3	-69.6879E-12	842.021E-3	-19.2793E-3	-71.0163E-12	813.446E-3	23.1574E-3
-2.04352E-3	-70.0028E-12	839.796E-3	-15.5889E-3	-70.7629E-12	795.497E-3	5.35307E-3
-2.04852E-3	-70.5272E-12	823.646E-3	-24.8913E-3	-71.4158E-12	796.285E-3	-11.4910E-3
-2.05353E-3	-71.1697E-12	813.376E-3	-20.5885E-3	-71.8971E-12	812.385E-3	-18.1535E-3
-2.05853E-3	-71.4347E-12	812.643E-3	2.65866E-3	-72.2835E-12	807.130E-3	-10.1069E-3
-2.06353E-3	-71.9087E-12	833.817E-3	5.22483E-3	-72.5468E-12	783.427E-3	-2.33419E-3
-2.06853E-3	-71.6319E-12	853.974E-3	1.42438E-3	-72.8620E-12	771.382E-3	-11.3020E-3
-2.07354E-3	-71.9835E-12	836.810E-3	3.41806E-3	-72.9535E-12	773.593E-3	-36.0889E-3
-2.07854E-3	-72.4094E-12	804.110E-3	458.208E-6	-72.8230E-12	770.061E-3	-47.2553E-3
-2.08354E-3	-72.3029E-12	797.005E-3	9.22889E-3	-72.9868E-12	774.013E-3	-30.2530E-3
-2.08854E-3	-72.4688E-12	798.190E-3	-1.83063E-3	-72.7899E-12	789.931E-3	-19.9024E-3
-2.09355E-3	-72.4654E-12	793.899E-3	-39.9007E-3	-73.0530E-12	796.641E-3	-23.6907E-3
-2.09855E-3	-72.6149E-12	802.452E-3	-46.8068E-3	-72.6124E-12	786.632E-3	-10.5550E-3
-2.10355E-3	-72.7018E-12	801.986E-3	-19.8479E-3	-73.0906E-12	769.226E-3	1.82418E-3
-2.10855E-3	-72.9922E-12	791.589E-3	-6.27483E-3	-73.2411E-12	761.607E-3	-2.60747E-3
-2.11356E-3	-73.4275E-12	800.539E-3	-4.45671E-3	-73.3720E-12	765.860E-3	-18.1606E-3
-2.11856E-3	-73.8176E-12	816.619E-3	543.841E-6	-73.4494E-12	773.646E-3	-29.9190E-3
-2.12356E-3	-74.0034E-12	820.513E-3	-11.0630E-3	-74.0233E-12	774.332E-3	-25.8632E-3
-2.12856E-3	-74.7105E-12	813.366E-3	-11.7930E-3	-74.0376E-12	773.237E-3	-29.2091E-3
-2.13357E-3	-74.9841E-12	798.061E-3	5.30339E-3	-74.8679E-12	791.846E-3	-33.1388E-3
-2.13857E-3	-75.4963E-12	788.010E-3	-5.67602E-3	-75.8908E-12	811.614E-3	-22.0683E-3
-2.14357E-3	-75.3474E-12	792.324E-3	-28.9631E-3	-75.7754E-12	806.999E-3	-19.2110E-3
-2.14857E-3	-76.0721E-12	792.928E-3	-34.1581E-3	-76.3301E-12	793.883E-3	-37.8708E-3
-2.15358E-3	-76.1159E-12	790.523E-3	-9.48851E-3	-77.1409E-12	792.110E-3	-48.5117E-3
-2.15858E-3	-77.0445E-12	803.196E-3	17.3126E-3	-77.7667E-12	794.053E-3	-36.7299E-3
-2.16358E-3	-77.3135E-12	811.218E-3	4.84800E-3	-77.9738E-12	788.461E-3	-27.3298E-3
-2.16858E-3	-77.6778E-12	792.641E-3	-27.0647E-3	-78.1467E-12	789.144E-3	-22.8463E-3
-2.17359E-3	-77.4321E-12	776.519E-3	-43.2202E-3	-78.4674E-12	795.599E-3	-14.6939E-3
-2.17859E-3	-77.5615E-12	774.858E-3	-39.2529E-3	-78.0906E-12	784.808E-3	-24.1872E-3
-2.18359E-3	-77.9041E-12	770.458E-3	-35.6288E-3	-78.5187E-12	764.759E-3	-37.3369E-3
-2.18859E-3	-77.2081E-12	773.436E-3	-28.5609E-3	-77.8646E-12	755.834E-3	-26.6039E-3
-2.19360E-3	-77.9348E-12	791.388E-3	-14.5121E-3	-78.2697E-12	756.092E-3	-19.3421E-3
-2.19860E-3	-78.2074E-12	794.891E-3	-20.6330E-3	-77.7492E-12	752.624E-3	-21.7534E-3
-2.20360E-3	-78.3191E-12	796.135E-3	-26.0989E-3	-78.0734E-12	746.804E-3	-15.5018E-3
-2.20860E-3	-78.6012E-12	803.688E-3	-14.4678E-3	-77.8777E-12	748.191E-3	-11.8056E-3
-2.21361E-3	-79.2455E-12	784.273E-3	-14.5370E-3	-78.3436E-12	746.022E-3	-3.54335E-3
-2.21861E-3	-80.0138E-12	772.612E-3	-24.4180E-3	-78.4627E-12	745.503E-3	17.8721E-3
-2.22361E-3	-79.6940E-12	779.021E-3	-29.4057E-3	-78.8845E-12	757.872E-3	11.3620E-3
-2.22861E-3	-80.8796E-12	768.753E-3	-35.6568E-3	-79.2757E-12	762.601E-3	-23.0316E-3
-2.23362E-3	-81.2991E-12	770.826E-3	-50.2719E-3	-80.0405E-12	760.281E-3	-21.9816E-3
-2.23862E-3	-81.4931E-12	787.658E-3	-46.6055E-3	-80.4525E-12	764.440E-3	-748.491E-6
-2.24362E-3	-81.6058E-12	776.299E-3	-20.0469E-3	-80.6600E-12	768.989E-3	-7.62917E-3
-2.24862E-3	-82.2835E-12	768.755E-3	-5.35699E-3	-81.4318E-12	770.965E-3	-23.8923E-3
-2.25363E-3	-82.1641E-12	787.173E-3	5.42049E-3	-81.6010E-12	774.457E-3	-20.3554E-3
-2.25863E-3	-82.5269E-12	791.105E-3	24.0398E-3	-81.7108E-12	764.153E-3	-8.18879E-3
-2.26363E-3	-82.6918E-12	785.863E-3	23.1692E-3	-81.8159E-12	744.280E-3	-6.28110E-3
-2.26863E-3	-82.6748E-12	796.312E-3	6.98187E-3	-82.0755E-12	750.568E-3	-10.3350E-3
-2.27364E-3	-82.6272E-12	801.744E-3	-7.70789E-3	-81.8977E-12	759.878E-3	-14.8953E-3
-2.27864E-3	-82.4945E-12	796.929E-3	-22.9055E-3	-81.7884E-12	751.671E-3	-11.1025E-3
-2.28364E-3	-82.5882E-12	789.029E-3	-26.0991E-3	-82.0405E-12	750.756E-3	-5.76329E-3
-2.28864E-3	-82.4893E-12	768.532E-3	-23.2355E-3	-82.3551E-12	754.628E-3	-31.2006E-3
-2.29365E-3	-82.7650E-12	755.979E-3	-33.2468E-3	-81.9005E-12	749.559E-3	-44.9088E-3
-2.29865E-3	-83.0962E-12	758.987E-3	-33.0940E-3	-82.4245E-12	748.937E-3	-25.7033E-3
-2.30365E-3	-83.8521E-12	748.097E-3	-16.8675E-3	-82.9774E-12	757.411E-3	-12.4134E-3
-2.30865E-3	-84.0674E-12	743.228E-3	-20.0660E-3	-83.1488E-12	753.969E-3	-9.70677E-3
-2.31366E-3	-84.5060E-12	768.687E-3	-24.4289E-3	-83.5555E-12	759.246E-3	-16.4974E-3
-2.31866E-3	-84.7487E-12	771.075E-3	-20.6359E-3	-83.7615E-12	787.551E-3	-16.2240E-3
-2.32366E-3	-85.3793E-12	750.968E-3	-29.1578E-3	-84.7612E-12	786.004E-3	-4.19584E-3
-2.32866E-3	-85.7619E-12	759.409E-3	-25.7406E-3	-85.4645E-12	762.958E-3	559.143E-6
-2.33367E-3	-85.7943E-12	763.352E-3	-2.38000E-3	-85.4600E-12	760.244E-3	-14.6791E-3
-2.33867E-3	-85.7997E-12	753.353E-3	10.8628E-3	-86.2910E-12	764.633E-3	-31.5304E-3
-2.34367E-3	-86.1144E-12	769.204E-3	-2.11533E-3	-87.0732E-12	768.708E-3	-22.5846E-3
-2.34867E-3	-86.4190E-12	778.829E-3	-21.3754E-3	-87.3085E-12	774.912E-3	-12.8850E-3
-2.35368E-3	-86.1502E-12	766.822E-3	-38.5928E-3	-87.4196E-12	790.431E-3	-18.3440E-3
-2.35868E-3	-86.3812E-12	767.121E-3	-47.1378E-3	-87.9910E-12	806.206E-3	-15.0835E-3
-2.36368E-3	-86.8445E-12	756.918E-3	-36.5657E-3	-87.7795E-12	788.746E-3	-20.4546E-3
-2.36868E-3	-86.8330E-12	738.080E-3	-37.0612E-3	-87.9724E-12	763.339E-3	-35.5955E-3
-2.37369E-3	-86.7654E-12	745.207E-3	-52.8528E-3	-87.8704E-12	761.291E-3	-39.2748E-3
-2.37869E-3	-87.3469E-12	756.326E-3	-51.6345E-3	-88.0731E-12	761.574E-3	-39.8296E-3
-2.38369E-3	-87.6590E-12	751.195E-3	-43.8577E-3	-87.9044E-12	755.909E-3	-28.0378E-3
-2.38869E-3	-87.9527E-12	743.971E-3	-41.5429E-3	-88.4726E-12	751.732E-3	-10.8425E-3
-2.39370E-3	-88.3030E-12	742.487E-3	-29.9818E-3	-88.7635E-12	755.680E-3	-802.865E-6
-2.39870E-3	-88.7503E-12	738.955E-3	-28.7317E-3	-89.2939E-12	753.383E-3	-10.9670E-3
-2.40370E-3	-88.9553E-12	736.768E-3	-39.7063E-3	-89.6283E-12	731.190E-3	-31.0623E-3
-2.40870E-3	-89.3598E-12	743.646E-3	-33.5359E-3	-89.4706E-12	728.410E-3	-24.8316E-3
-2.41371E-3	-89.7766E-12	749.055E-3	-19.9554E-3	-89.6430E-12	746.955E-3	-12.2745E-3
-2.41871E-3	-89.8692E-12	752.759E-3	-23.4815E-3	-90.3323E-12	745.560E-3	-10.6698E-3
-2.42371E-3	-90.3451E-12	755.060E-3	-21.2242E-3	-90.4367E-12	729.582E-3	-10.0889E-3
-2.42871E-3	-90.1313E-12	745.665E-3	-4.63827E-3	-90.3266E-12	721.509E-3	-8.54688E-3
-2.43372E-3	-90.3613E-12	737.706E-3	8.45782E-3	-90.9011E-12	734.146E-3	-3.88947E-3
-2.43872E-3	-89.7951E-12	744.227E-3	18.4027E-3	-90.9620E-12	753.284E-3	747.585E-6
-2.44372E-3	-90.6916E-12	746.650E-3	3.90720E-3	-91.2391E-12	755.832E-3	-7.59210E-3
-2.44872E-3	-90.4182E-12	740.284E-3	-19.6759E-3	-91.5145E-12	738.109E-3	-19.4356E-3
-2.45373E-3	-90.7206E-12	741.037E-3	-10.9560E-3	-91.6493E-12	738.810E-3	-29.9332E-3
-2.45873E-3	-90.8816E-12	733.585E-3	315.090E-6	-91.7497E-12	766.451E-3	-43.2982E-3
-2.46373E-3	-91.4415E-12	723.533E-3	-32.0808E-3	-92.2403E-12	762.744E-3	-29.6735E-3
-2.46873E-3	-91.3930E-12	731.192E-3	-44.3898E-3	-92.7197E-12	736.300E-3	2.87154E-3
-2.47374E-3	-91.8807E-12	733.446E-3	-15.7814E-3	-92.8477E-12	735.722E-3	6.22141E-3
-2.47874E-3	-92.3303E-12	729.370E-3	-6.84361E-3	-92.8523E-12	741.801E-3	-18.0525E-3
-2.48374E-3	-92.3216E-12	735.160E-3	-5.46272E-3	-93.0624E-12	747.574E-3	-31.7762E-3
-2.48874E-3	-93.5598E-12	731.499E-3	-9.28863E-3	-93.4495E-12	760.246E-3	-31.5453E-3
-2.49375E-3	-93.3455E-12	714.787E-3	-24.3599E-3	-94.2758E-12	765.122E-3	-30.3611E-3
-2.49875E-3	-93.4569E-12	715.594E-3	-27.7770E-3	-94.6872E-12	757.533E-3	-43.6085E-3
-2.50375E-3	-94.0968E-12	724.777E-3	-13.2216E-3	-94.7006E-12	744.350E-3	-59.7664E-3
-2.50875E-3	-94.5590E-12	721.799E-3	-12.9162E-3	-95.1244E-12	733.521E-3	-54.2499E-3
-2.51376E-3	-94.2324E-12	728.598E-3	-20.0609E-3	-94.5982E-12	726.497E-3	-31.3112E-3
-2.51876E-3	-94.3152E-12	743.746E-3	-1.82921E-3	-95.1335E-12	726.287E-3	-12.3379E-3
-2.52376E-3	-95.5544E-12	739.948E-3	-12.9927E-3	-94.7249E-12	723.030E-3	-20.7752E-3
-2.52876E-3	-95.0403E-12	725.050E-3	-47.1734E-3	-94.5260E-12	711.341E-3	-37.8212E-3
-2.53377E-3	-95.6139E-12	727.095E-3	-26.5736E-3	-94.2584E-12	697.741E-3	-34.1764E-3
-2.53877E-3	-95.8584E-12	739.387E-3	2.18648E-3	-94.1969E-12	702.529E-3	-21.8274E-3
-2.54377E-3	-96.4466E-12	740.121E-3	-3.46790E-3	-94.0391E-12	724.297E-3	-21.4311E-3
-2.54877E-3	-96.4934E-12	734.537E-3	-1.15302E-3	-94.6415E-12	726.421E-3	-22.7592E-3
-2.55378E-3	-97.7920E-12	735.092E-3	-1.41474E-3	-95.1450E-12	716.622E-3	-26.7171E-3
-2.55878E-3	-97.4775E-12	748.578E-3	-17.1510E-3	-95.4490E-12	720.185E-3	-37.8772E-3
-2.56378E-3	-98.6052E-12	763.267E-3	-25.9499E-3	-95.7884E-12	721.645E-3	-33.4221E-3
-2.56878E-3	-98.3030E-12	758.833E-3	-20.5195E-3	-96.3149E-12	705.650E-3	-24.9649E-3
-2.57379E-3	-98.5780E-12	756.611E-3	-8.73406E-3	-97.0329E-12	695.118E-3	-21.3115E-3
-2.57879E-3	-99.2358E-12	764.706E-3	-10.2838E-3	-97.7740E-12	709.495E-3	-31.4030E-3
-2.58379E-3	-99.0570E-12	741.629E-3	-22.0131E-3	-97.9172E-12	731.718E-3	-41.2459E-3
-2.58879E-3	-98.9652E-12	713.075E-3	-30.2741E-3	-98.5469E-12	742.704E-3	-24.7959E-3
-2.59380E-3	-98.7364E-12	735.264E-3	-36.5756E-3	-99.3814E-12	734.113E-3	-20.4389E-3
-2.59880E-3	-99.2450E-12	758.437E-3	-28.7752E-3	-99.9327E-12	721.815E-3	-31.1477E-3
-2.60380E-3	-98.6713E-12	741.755E-3	-8.56812E-3	-99.8155E-12	726.501E-3	-17.7168E-3
-2.60880E-3	-98.7353E-12	719.351E-3	1.26800E-3	-99.8144E-12	738.791E-3	4.76660E-3
-2.61381E-3	-98.9136E-12	710.171E-3	-6.24503E-3	-100.273E-12	740.059E-3	-4.27407E-3
-2.61881E-3	-99.0356E-12	720.812E-3	-19.4396E-3	-99.5018E-12	709.498E-3	-31.9199E-3
-2.62381E-3	-99.1577E-12	729.375E-3	-749.459E-6	-99.1486E-12	684.899E-3	-40.1935E-3
-2.62881E-3	-99.5545E-12	719.871E-3	30.1375E-3	-99.0682E-12	698.670E-3	-50.0959E-3
-2.63382E-3	-99.6451E-12	723.834E-3	13.6906E-3	-99.1194E-12	712.653E-3	-68.3200E-3
-2.63882E-3	-100.144E-12	735.578E-3	-10.0212E-3	-99.2103E-12	716.212E-3	-57.7144E-3
-2.64382E-3	-100.818E-12	732.534E-3	-6.83848E-3	-99.3364E-12	712.335E-3	-28.6456E-3
-2.64882E-3	-101.105E-12	725.615E-3	-18.7292E-3	-99.8874E-12	699.491E-3	-10.3214E-3
-2.65383E-3	-102.044E-12	731.656E-3	-32.3818E-3	-100.343E-12	697.092E-3	-11.9513E-3
-2.65883E-3	-102.462E-12	734.419E-3	-30.8827E-3	-100.926E-12	708.222E-3	-29.6711E-3
-2.66383E-3	-102.371E-12	712.909E-3	-28.9764E-3	-101.182E-12	722.093E-3	-42.1189E-3
-2.66883E-3	-102.535E-12	702.075E-3	-22.5892E-3	-102.176E-12	740.713E-3	-23.6055E-3
-2.67384E-3	-103.279E-12	715.620E-3	-11.8192E-3	-102.401E-12	731.622E-3	-6.21892E-3
-2.67884E-3	-102.847E-12	724.375E-3	-6.77559E-3	-103.017E-12	695.247E-3	-7.99322E-3
-2.68384E-3	-103.021E-12	738.523E-3	-29.0044E-3	-103.275E-12	676.350E-3	-6.63455E-3
-2.68884E-3	-103.055E-12	758.566E-3	-51.1253E-3	-103.683E-12	684.970E-3	-17.6706E-3
-2.69385E-3	-103.099E-12	761.498E-3	-39.4665E-3	-103.652E-12	712.866E-3	-19.7717E-3
-2.69885E-3	-103.185E-12	749.589E-3	-38.6029E-3	-102.754E-12	736.405E-3	-6.06105E-3
-2.70385E-3	-102.522E-12	730.771E-3	-58.6181E-3	-103.048E-12	731.518E-3	-3.85375E-3
-2.70885E-3	-103.049E-12	733.982E-3	-66.0286E-3	-102.909E-12	705.932E-3	-9.27026E-3
-2.71386E-3	-102.809E-12	747.555E-3	-49.2445E-3	-102.767E-12	691.373E-3	-4.63235E-3
-2.71886E-3	-103.221E-12	729.611E-3	-18.6908E-3	-102.976E-12	695.690E-3	16.6027E-3
-2.72386E-3	-103.332E-12	707.352E-3	-8.99098E-3	-102.799E-12	691.429E-3	17.8610E-3
-2.72886E-3	-104.360E-12	704.577E-3	-15.3260E-3	-103.109E-12	676.348E-3	-1.22157E-3
-2.73387E-3	-104.354E-12	713.711E-3	-20.1041E-3	-102.967E-12	688.969E-3	-3.60086E-3
-2.73887E-3	-105.008E-12	733.406E-3	-25.2114E-3	-103.190E-12	726.028E-3	-6.36673E-3
-2.74387E-3	-105.820E-12	737.027E-3	-18.4911E-3	-104.166E-12	737.766E-3	-14.6272E-3
-2.74887E-3	-106.200E-12	719.094E-3	-13.6156E-3	-105.082E-12	728.032E-3	-14.2741E-3
-2.75388E-3	-106.147E-12	708.009E-3	-21.1743E-3	-105.803E-12	722.317E-3	-23.2535E-3
-2.75888E-3	-106.310E-12	705.802E-3	-17.1571E-3	-106.787E-12	712.778E-3	-38.0711E-3
-2.76388E-3	-106.620E-12	703.921E-3	-439.322E-6	-108.035E-12	713.953E-3	-40.4345E-3
-2.76888E-3	-106.686E-12	693.546E-3	-1.66562E-3	-108.568E-12	722.009E-3	-33.9701E-3
-2.77389E-3	-106.930E-12	692.129E-3	-13.0475E-3	-108.767E-12	716.095E-3	-17.0030E-3
-2.77889E-3	-107.242E-12	722.326E-3	-3.19405E-3	-109.589E-12	716.075E-3	-7.39485E-3
-2.78389E-3	-107.912E-12	737.337E-3	-775.408E-6	-109.524E-12	717.463E-3	-22.2416E-3
-2.78889E-3	-107.190E-12	716.838E-3	-19.3008E-3	-109.542E-12	716.001E-3	-27.6229E-3
-2.79390E-3	-107.470E-12	693.046E-3	-17.6568E-3	-109.254E-12	725.936E-3	-8.31880E-3
-2.79890E-3	-107.620E-12	684.410E-3	-10.6767E-3	-109.750E-12	721.342E-3	-7.17651E-3
-2.80390E-3	-108.017E-12	704.780E-3	-17.4279E-3	-109.222E-12	704.795E-3	-15.9085E-3
-2.80890E-3	-108.191E-12	715.093E-3	-21.9287E-3	-108.903E-12	704.472E-3	-13.8977E-3
-2.81391E-3	-108.466E-12	688.803E-3	-31.8922E-3	-109.246E-12	705.178E-3	-33.7090E-3
-2.81891E-3	-108.890E-12	683.691E-3	-32.2103E-3	-109.047E-12	702.898E-3	-41.7472E-3
-2.82391E-3	-109.306E-12	713.899E-3	-1.45737E-3	-108.438E-12	710.793E-3	-29.2665E-3
-2.82891E-3	-109.915E-12	731.794E-3	16.7515E-3	-108.454E-12	710.962E-3	-35.7724E-3
-2.83392E-3	-110.009E-12	731.919E-3	-9.31172E-3	-108.973E-12	700.345E-3	-19.3287E-3
-2.83892E-3	-110.375E-12	711.439E-3	-42.2958E-3	-108.247E-12	704.710E-3	11.6832E-3
-2.84392E-3	-110.895E-12	692.643E-3	-44.4137E-3	-109.170E-12	722.539E-3	569.344E-6
-2.84892E-3	-111.106E-12	707.479E-3	-29.9680E-3	-109.804E-12	723.643E-3	-12.9926E-3
-2.85393E-3	-111.436E-12	717.499E-3	-21.7756E-3	-109.969E-12	717.844E-3	107.918E-6
-2.85893E-3	-110.953E-12	710.457E-3	-24.9447E-3	-110.683E-12	735.363E-3	-5.05716E-3
-2.86393E-3	-111.178E-12	698.821E-3	-25.8981E-3	-111.576E-12	731.014E-3	-32.4294E-3
-2.86893E-3	-111.721E-12	669.606E-3	-23.8560E-3	-111.590E-12	704.014E-3	-46.0691E-3
-2.87394E-3	-111.989E-12	665.706E-3	-22.3809E-3	-111.413E-12	705.917E-3	-42.9200E-3
-2.87894E-3	-112.268E-12	697.266E-3	-9.98505E-3	-111.803E-12	704.315E-3	-38.7637E-3
-2.88394E-3	-112.141E-12	702.933E-3	2.32532E-3	-112.008E-12	684.583E-3	-39.3636E-3
-2.88894E-3	-112.698E-12	688.993E-3	-1.64988E-3	-112.052E-12	696.181E-3	-42.0335E-3
-2.89395E-3	-112.842E-12	696.428E-3	-7.95870E-3	-112.107E-12	723.128E-3	-26.2574E-3
-2.89895E-3	-112.873E-12	705.669E-3	26.9950E-6	-112.533E-12	713.671E-3	-3.14362E-3
-2.90395E-3	-112.724E-12	710.418E-3	-172.765E-6	-113.050E-12	698.368E-3	-10.1546E-3
-2.90895E-3	-113.103E-12	722.173E-3	-23.4307E-3	-113.279E-12	706.037E-3	-34.5782E-3
-2.91396E-3	-113.902E-12	726.960E-3	-36.4916E-3	-113.517E-12	709.794E-3	-34.0784E-3
-2.91896E-3	-114.210E-12	727.296E-3	-28.1083E-3	-113.687E-12	716.634E-3	-15.6682E-3
-2.92396E-3	-114.334E-12	715.949E-3	-25.3165E-3	-114.130E-12	723.985E-3	-16.0459E-3
-2.92896E-3	-114.654E-12	707.780E-3	-41.7457E-3	-114.695E-12	715.752E-3	-20.4704E-3
-2.93397E-3	-114.971E-12	722.346E-3	-55.6768E-3	-113.913E-12	713.232E-3	-13.9944E-3
-2.93897E-3	-114.394E-12	722.557E-3	-34.4605E-3	-114.368E-12	706.406E-3	-16.0790E-3
-2.94397E-3	-114.697E-12	709.370E-3	-6.14620E-3	-114.470E-12	683.552E-3	-24.5735E-3
-2.94897E-3	-114.934E-12	709.468E-3	849.208E-6	-114.623E-12	673.439E-3	-23.7490E-3
-2.95398E-3	-114.839E-12	715.229E-3	-7.66624E-3	-114.704E-12	677.602E-3	-19.6168E-3
-2.95898E-3	-115.204E-12	716.252E-3	-34.2824E-3	-115.295E-12	687.552E-3	-10.3525E-3
-2.96398E-3	-115.680E-12	701.076E-3	-59.0167E-3	-115.906E-12	698.961E-3	-10.1378E-3
-2.96898E-3	-116.257E-12	681.043E-3	-63.2159E-3	-115.283E-12	706.614E-3	-20.9606E-3
-2.97399E-3	-116.605E-12	669.407E-3	-52.1392E-3	-115.333E-12	708.584E-3	-226.371E-6
-2.97899E-3	-117.246E-12	673.375E-3	-30.0641E-3	-115.640E-12	709.537E-3	27.5501E-3
-2.98399E-3	-117.844E-12	689.706E-3	-27.5131E-3	-116.191E-12	715.623E-3	12.4586E-3
-2.98899E-3	-117.903E-12	696.942E-3	-48.4824E-3	-115.530E-12	718.331E-3	-8.19241E-3
-2.99400E-3	-117.882E-12	698.389E-3	-47.4123E-3	-116.210E-12	718.354E-3	-8.84951E-3
-2.99900E-3	-117.862E-12	698.166E-3	-13.5620E-3	-117.410E-12	712.677E-3	-7.89276E-3
-3.00400E-3	-118.320E-12	699.485E-3	2.13191E-3	-117.059E-12	704.173E-3	-1.57709E-3
-3.00900E-3	-117.604E-12	709.243E-3	-6.36928E-3	-118.533E-12	710.630E-3	-6.36390E-3
-3.01401E-3	-118.562E-12	705.106E-3	3.36691E-3	-118.910E-12	727.627E-3	-28.5654E-3
-3.01901E-3	-118.590E-12	686.573E-3	17.9783E-3	-119.420E-12	714.273E-3	-36.5563E-3
-3.02401E-3	-118.527E-12	692.924E-3	5.83622E-3	-119.272E-12	672.492E-3	-27.8898E-3
-3.02901E-3	-118.469E-12	716.163E-3	-14.7680E-3	-120.147E-12	661.603E-3	-32.3253E-3
-3.03402E-3	-118.578E-12	727.383E-3	-21.5248E-3	-120.658E-12	664.654E-3	-38.2227E-3
-3.03902E-3	-118.215E-12	722.912E-3	-18.3821E-3	-120.551E-12	674.213E-3	-24.3020E-3
-3.04402E-3	-117.760E-12	702.652E-3	-20.3884E-3	-121.010E-12	716.005E-3	-23.1731E-3
-3.04902E-3	-118.585E-12	686.270E-3	-31.1124E-3	-121.266E-12	725.638E-3	-36.7753E-3
-3.05403E-3	-119.130E-12	694.165E-3	-21.5199E-3	-121.512E-12	704.897E-3	-35.3537E-3
-3.05903E-3	-119.184E-12	698.334E-3	-9.86231E-3	-120.968E-12	710.118E-3	-38.6379E-3
-3.06403E-3	-120.105E-12	696.900E-3	-30.0288E-3	-120.892E-12	719.994E-3	-55.3686E-3
-3.06903E-3	-120.802E-12	716.317E-3	-46.2054E-3	-120.738E-12	727.470E-3	-43.7778E-3
-3.07404E-3	-121.907E-12	717.738E-3	-25.5551E-3	-121.753E-12	736.374E-3	-14.7186E-3
-3.07904E-3	-121.926E-12	703.810E-3	-9.39713E-3	-121.343E-12	723.547E-3	6.94252E-3
-3.08404E-3	-122.330E-12	711.983E-3	-13.8893E-3	-121.076E-12	706.449E-3	27.9749E-3
-3.08904E-3	-122.916E-12	707.282E-3	-1.17099E-3	-121.747E-12	723.463E-3	12.1939E-3
-3.09405E-3	-123.761E-12	688.253E-3	17.2339E-3	-122.570E-12	740.905E-3	-32.9349E-3
-3.09905E-3	-123.212E-12	701.384E-3	16.7621E-3	-122.723E-12	711.466E-3	-49.4745E-3
-3.10405E-3	-123.112E-12	714.062E-3	1.01176E-3	-123.050E-12	677.464E-3	-40.9589E-3
-3.10905E-3	-123.516E-12	697.094E-3	-15.2557E-3	-123.409E-12	678.046E-3	-34.6653E-3
-3.11406E-3	-122.826E-12	691.007E-3	-8.77721E-3	-124.247E-12	696.018E-3	-18.7793E-3
-3.11906E-3	-123.152E-12	697.107E-3	15.9741E-3	-123.798E-12	712.453E-3	-6.22489E-3
-3.12406E-3	-122.872E-12	698.903E-3	20.3065E-3	-123.796E-12	716.925E-3	-15.7681E-3
-3.12906E-3	-123.720E-12	712.656E-3	-12.4430E-3	-123.739E-12	705.682E-3	-12.6838E-3
-3.13407E-3	-123.193E-12	727.818E-3	-38.2345E-3	-123.685E-12	688.868E-3	-11.7326E-3
-3.13907E-3	-124.063E-12	714.339E-3	-32.5052E-3	-123.538E-12	662.149E-3	-35.9491E-3
-3.14407E-3	-123.932E-12	701.817E-3	-20.3695E-3	-123.124E-12	650.959E-3	-53.8669E-3
-3.14907E-3	-124.483E-12	718.610E-3	-15.8154E-3	-123.254E-12	676.556E-3	-35.4091E-3
-3.15408E-3	-124.854E-12	725.998E-3	-7.90893E-3	-122.721E-12	698.750E-3	-9.68731E-3
-3.15908E-3	-125.156E-12	707.938E-3	9.61135E-3	-123.299E-12	709.927E-3	-18.8722E-3
-3.16408E-3	-126.562E-12	691.527E-3	16.1251E-3	-122.999E-12	718.614E-3	-13.7418E-3
-3.16908E-3	-126.045E-12	696.307E-3	8.20198E-3	-123.587E-12	713.325E-3	15.8692E-3
-3.17409E-3	-127.075E-12	722.219E-3	-4.24386E-3	-124.137E-12	713.977E-3	14.9406E-3
-3.17909E-3	-127.134E-12	755.667E-3	-13.5052E-3	-124.501E-12	719.466E-3	4.89401E-3
-3.18409E-3	-127.805E-12	760.348E-3	-6.41833E-3	-125.778E-12	715.393E-3	8.02965E-3
-3.18909E-3	-127.829E-12	734.936E-3	6.58647E-3	-126.310E-12	705.864E-3	10.2193E-3
-3.19410E-3	-127.826E-12	719.346E-3	16.5553E-3	-126.601E-12	696.351E-3	4.80876E-3
-3.19910E-3	-128.226E-12	709.718E-3	24.5911E-3	-127.467E-12	692.988E-3	-16.3587E-3
-3.20410E-3	-127.457E-12	691.757E-3	21.0644E-3	-128.529E-12	683.335E-3	-17.7449E-3
-3.20910E-3	-128.390E-12	682.331E-3	3.60181E-3	-129.109E-12	677.024E-3	-9.78593E-3
-3.21411E-3	-127.547E-12	670.406E-3	-11.2506E-3	-129.241E-12	677.141E-3	-21.0631E-3
-3.21911E-3	-128.273E-12	660.200E-3	-15.9747E-3	-130.631E-12	668.839E-3	-11.2383E-3
-3.22411E-3	-127.802E-12	669.315E-3	-8.69958E-3	-129.754E-12	668.592E-3	4.49668E-3
-3.22911E-3	-128.570E-12	670.961E-3	-6.45813E-3	-130.384E-12	689.978E-3	-8.47226E-3
-3.23412E-3	-128.293E-12	663.997E-3	-14.9214E-3	-129.993E-12	702.789E-3	-9.94797E-3
-3.23912E-3	-128.633E-12	667.115E-3	-21.1060E-3	-129.500E-12	687.096E-3	-1.51086E-3
-3.24412E-3	-128.639E-12	676.202E-3	-12.8417E-3	-128.634E-12	688.861E-3	-13.5283E-3
-3.24912E-3	-129.575E-12	675.065E-3	-3.83630E-3	-128.909E-12	707.942E-3	-11.2046E-3
-3.25413E-3	-129.923E-12	665.475E-3	-26.4369E-3	-128.226E-12	710.907E-3	27.2705E-3
-3.25913E-3	-129.942E-12	675.344E-3	-23.7677E-3	-128.042E-12	710.919E-3	44.7007E-3
-3.26413E-3	-130.259E-12	691.610E-3	1.03045E-3	-127.819E-12	710.411E-3	12.7152E-3
-3.26913E-3	-130.208E-12	700.258E-3	-17.1668E-3	-128.714E-12	702.306E-3	-17.8455E-3
-3.27414E-3	-131.277E-12	715.096E-3	-42.7188E-3	-129.332E-12	697.712E-3	-24.4889E-3
-3.27914E-3	-131.444E-12	724.631E-3	-30.5437E-3	-129.237E-12	697.762E-3	-18.1704E-3
-3.28414E-3	-132.275E-12	701.114E-3	-4.13969E-3	-130.037E-12	692.006E-3	-6.10042E-3
-3.28914E-3	-132.091E-12	654.711E-3	16.9280E-3	-131.836E-12	682.244E-3	-3.33943E-3
-3.29415E-3	-132.426E-12	645.668E-3	22.9578E-3	-132.134E-12	680.675E-3	-15.2004E-3
-3.29915E-3	-131.856E-12	664.792E-3	7.92116E-3	-132.003E-12	687.323E-3	-23.3651E-3
-3.30415E-3	-132.237E-12	665.448E-3	-3.79522E-3	-132.372E-12	702.704E-3	-23.5431E-3
-3.30915E-3	-132.793E-12	673.370E-3	-8.75767E-3	-132.685E-12	718.458E-3	-9.23650E-3
-3.31416E-3	-132.093E-12	691.975E-3	-17.3998E-3	-133.313E-12	715.549E-3	-388.236E-6
-3.31916E-3	-132.162E-12	687.707E-3	-21.6746E-3	-133.305E-12	707.887E-3	-11.9831E-3
-3.32416E-3	-131.559E-12	687.368E-3	-17.0922E-3	-133.464E-12	706.798E-3	-4.41310E-3
-3.32916E-3	-132.809E-12	699.325E-3	-18.8292E-3	-133.391E-12	707.400E-3	18.8656E-3
-3.33417E-3	-132.443E-12	694.524E-3	-26.6254E-3	-132.734E-12	710.871E-3	31.0774E-3
-3.33917E-3	-132.709E-12	687.534E-3	-23.2656E-3	-132.974E-12	701.866E-3	12.6096E-3
-3.34417E-3	-132.613E-12	676.146E-3	-18.4479E-3	-133.063E-12	680.611E-3	-26.9195E-3
-3.34917E-3	-133.128E-12	652.936E-3	-15.1417E-3	-133.160E-12	671.114E-3	-48.6479E-3
-3.35418E-3	-132.591E-12	656.132E-3	-20.1359E-3	-132.554E-12	666.575E-3	-48.1423E-3
-3.35918E-3	-132.468E-12	683.466E-3	-21.1653E-3	-133.683E-12	671.358E-3	-26.4131E-3
-3.36418E-3	-133.157E-12	688.238E-3	4.37918E-3	-134.003E-12	690.517E-3	-13.1455E-3
-3.36918E-3	-133.099E-12	684.332E-3	14.7147E-3	-135.035E-12	694.020E-3	-41.3983E-3
-3.37419E-3	-133.026E-12	679.458E-3	3.73707E-3	-135.395E-12	680.906E-3	-53.8997E-3
-3.37919E-3	-133.840E-12	646.775E-3	2.12796E-3	-136.136E-12	679.805E-3	-23.1831E-3
-3.38419E-3	-135.103E-12	635.864E-3	-4.49533E-3	-136.629E-12	688.604E-3	1.40266E-3
-3.38919E-3	-135.629E-12	670.264E-3	-10.9855E-3	-136.948E-12	684.821E-3	7.00343E-3
-3.39420E-3	-135.944E-12	702.225E-3	659.353E-6	-136.765E-12	686.794E-3	-6.13683E-3
-3.39920E-3	-137.150E-12	712.850E-3	5.03965E-3	-137.155E-12	695.142E-3	-25.3044E-3
-3.40420E-3	-137.487E-12	721.541E-3	-16.2661E-3	-137.663E-12	677.007E-3	-14.2094E-3
-3.40920E-3	-137.387E-12	725.154E-3	-50.5157E-3	-137.433E-12	659.469E-3	-4.65076E-3
-3.41421E-3	-137.847E-12	696.926E-3	-59.1782E-3	-137.871E-12	678.295E-3	-17.9549E-3
-3.41921E-3	-138.753E-12	678.887E-3	-39.4595E-3	-137.533E-12	706.399E-3	-21.8252E-3
-3.42421E-3	-138.424E-12	697.409E-3	-12.4769E-3	-137.649E-12	713.300E-3	-34.6906E-3
-3.42921E-3	-137.790E-12	700.154E-3	-1.67688E-3	-138.013E-12	710.801E-3	-55.6873E-3
-3.43422E-3	-137.944E-12	688.144E-3	-23.5961E-3	-137.728E-12	707.877E-3	-43.5908E-3
-3.43922E-3	-138.100E-12	694.157E-3	-20.5373E-3	-138.168E-12	696.898E-3	-31.6644E-3
-3.44422E-3	-138.207E-12	696.655E-3	23.7980E-3	-138.518E-12	685.656E-3	-36.8471E-3
-3.44922E-3	-137.320E-12	687.367E-3	42.7910E-3	-138.355E-12	699.090E-3	-27.4093E-3
-3.45423E-3	-137.771E-12	685.162E-3	10.9960E-3	-138.988E-12	733.607E-3	-13.1513E-3
-3.45923E-3	-138.085E-12	688.099E-3	-18.8343E-3	-139.107E-12	749.337E-3	5.51096E-3
-3.46423E-3	-137.948E-12	692.643E-3	-17.7387E-3	-140.286E-12	735.473E-3	17.2184E-3
-3.46923E-3	-138.319E-12	686.365E-3	-20.2936E-3	-139.409E-12	723.079E-3	10.1043E-3
-3.47424E-3	-138.057E-12	658.834E-3	-20.4457E-3	-140.327E-12	720.678E-3	-310.155E-6
-3.47924E-3	-139.091E-12	641.370E-3	-16.6253E-3	-140.333E-12	719.721E-3	-5.39648E-3
-3.48424E-3	-139.963E-12	654.253E-3	-30.4272E-3	-141.012E-12	713.497E-3	-4.94516E-3
-3.48924E-3	-140.662E-12	658.818E-3	-49.6599E-3	-140.774E-12	696.480E-3	6.40808E-3
-3.49425E-3	-141.479E-12	654.155E-3	-49.4360E-3	-141.085E-12	681.252E-3	23.1837E-3
-3.49925E-3	-142.788E-12	674.973E-3	-32.7841E-3	-141.436E-12	680.597E-3	21.6276E-3
-3.50425E-3	-142.775E-12	683.396E-3	-18.1293E-3	-141.047E-12	692.864E-3	14.1333E-3
-3.50925E-3	-142.986E-12	666.321E-3	-14.8662E-3	-141.551E-12	716.648E-3	22.8064E-3
-3.51426E-3	-143.396E-12	670.477E-3	-36.2981E-3	-141.206E-12	711.129E-3	30.7288E-3
-3.51926E-3	-143.365E-12	688.728E-3	-61.7480E-3	-141.949E-12	675.355E-3	22.8388E-3
-3.52426E-3	-143.102E-12	704.201E-3	-53.2583E-3	-141.478E-12	675.172E-3	6.99215E-3
-3.52926E-3	-143.715E-12	722.176E-3	-23.4909E-3	-142.242E-12	691.426E-3	-1.15150E-3
-3.53427E-3	-144.044E-12	719.366E-3	-22.2047E-3	-142.311E-12	692.739E-3	5.29338E-3
-3.53927E-3	-142.947E-12	696.245E-3	-41.2375E-3	-142.760E-12	688.134E-3	2.36790E-3
-3.54427E-3	-142.479E-12	692.065E-3	-31.3476E-3	-143.172E-12	670.883E-3	-21.7768E-3
-3.54927E-3	-142.323E-12	700.769E-3	-2.94677E-3	-143.533E-12	657.060E-3	-38.2851E-3
-3.55428E-3	-142.267E-12	692.894E-3	-7.73983E-3	-143.145E-12	666.334E-3	-10.7584E-3
-3.55928E-3	-141.639E-12	672.203E-3	-39.9843E-3	-142.067E-12	686.772E-3	34.9607E-3
-3.56428E-3	-142.754E-12	652.297E-3	-47.4406E-3	-143.630E-12	689.480E-3	23.6892E-3
-3.56928E-3	-142.876E-12	641.304E-3	-23.0190E-3	-142.652E-12	680.053E-3	-8.41518E-3
-3.57429E-3	-143.094E-12	650.226E-3	-4.96603E-3	-142.818E-12	683.088E-3	-11.6475E-3
-3.57929E-3	-143.925E-12	671.123E-3	6.70660E-3	-142.131E-12	690.005E-3	-15.0030E-3
-3.58429E-3	-143.971E-12	674.324E-3	25.7884E-3	-142.510E-12	685.526E-3	-4.12885E-3
-3.58929E-3	-144.606E-12	660.654E-3	22.4747E-3	-141.715E-12	669.816E-3	23.7491E-3
-3.59430E-3	-144.967E-12	666.814E-3	15.1265E-3	-142.091E-12	653.399E-3	20.5452E-3
-3.59930E-3	-145.704E-12	674.948E-3	23.4878E-3	-142.737E-12	645.978E-3	-20.7982E-3
-3.60430E-3	-145.599E-12	662.417E-3	7.67562E-3	-142.607E-12	658.780E-3	-52.4476E-3
-3.60930E-3	-145.785E-12	681.506E-3	-22.8858E-3	-142.980E-12	682.270E-3	-40.5516E-3
-3.61431E-3	-146.182E-12	706.001E-3	-35.1480E-3	-143.938E-12	702.080E-3	-16.5145E-3
-3.61931E-3	-146.244E-12	709.663E-3	-21.2759E-3	-145.646E-12	702.516E-3	-5.29502E-3
-3.62431E-3	-145.550E-12	729.035E-3	7.32737E-3	-146.089E-12	678.554E-3	9.39253E-3
-3.62931E-3	-145.115E-12	734.631E-3	15.3976E-3	-147.584E-12	686.765E-3	10.0457E-3
-3.63432E-3	-144.802E-12	720.727E-3	-14.9151E-3	-148.486E-12	726.466E-3	5.15324E-3
-3.63932E-3	-145.641E-12	712.230E-3	-46.8347E-3	-149.345E-12	729.912E-3	7.99322E-3
-3.64432E-3	-145.457E-12	702.552E-3	-54.2471E-3	-150.132E-12	708.552E-3	-4.95245E-3
-3.64932E-3	-145.776E-12	689.382E-3	-49.4715E-3	-150.488E-12	696.225E-3	-15.9536E-3
-3.65433E-3	-145.162E-12	672.988E-3	-31.3427E-3	-151.046E-12	689.985E-3	-21.8522E-3
-3.65933E-3	-146.916E-12	658.890E-3	-4.40829E-3	-150.836E-12	684.861E-3	-14.6386E-3
-3.66433E-3	-146.532E-12	665.763E-3	26.8286E-3	-150.236E-12	679.556E-3	20.2239E-3
-3.66933E-3	-148.408E-12	674.836E-3	43.0309E-3	-149.796E-12	683.837E-3	17.9764E-3
-3.67434E-3	-148.320E-12	672.004E-3	19.4377E-3	-149.541E-12	707.428E-3	-34.4012E-3
-3.67934E-3	-149.514E-12	690.386E-3	-12.3395E-3	-148.963E-12	701.461E-3	-57.1207E-3
-3.68434E-3	-149.613E-12	708.242E-3	-20.7181E-3	-148.115E-12	651.938E-3	-23.8100E-3
-3.68934E-3	-149.964E-12	695.748E-3	-10.9789E-3	-148.637E-12	650.706E-3	7.10120E-3
-3.69435E-3	-150.143E-12	668.385E-3	4.23650E-3	-148.283E-12	672.823E-3	-1.87054E-3
-3.69935E-3	-149.965E-12	636.847E-3	7.43797E-6	-148.582E-12	657.534E-3	-21.7487E-3
-3.70435E-3	-150.850E-12	631.795E-3	-19.4667E-3	-148.660E-12	658.780E-3	-29.1557E-3
-3.70935E-3	-150.625E-12	654.324E-3	-37.0083E-3	-149.119E-12	690.881E-3	-30.9753E-3
-3.71436E-3	-151.166E-12	672.027E-3	-38.7299E-3	-150.367E-12	701.348E-3	-25.2848E-3
-3.71936E-3	-151.397E-12	691.306E-3	-18.4351E-3	-150.292E-12	684.551E-3	145.857E-6
-3.72436E-3	-151.365E-12	703.189E-3	-2.52742E-3	-151.194E-12	678.220E-3	29.9187E-3
-3.72936E-3	-151.352E-12	713.513E-3	2.28057E-3	-152.648E-12	690.024E-3	38.5795E-3
-3.73437E-3	-151.541E-12	714.740E-3	-2.45636E-3	-153.369E-12	711.660E-3	20.9961E-3
-3.73937E-3	-151.219E-12	676.201E-3	-14.3507E-3	-153.027E-12	714.847E-3	-17.2421E-3
-3.74437E-3	-150.667E-12	645.127E-3	-22.5886E-3	-153.604E-12	696.049E-3	-45.5913E-3
-3.74937E-3	-152.229E-12	641.443E-3	-15.9037E-3	-154.133E-12	679.885E-3	-36.3982E-3
-3.75438E-3	-152.066E-12	641.628E-3	16.1912E-3	-153.486E-12	656.176E-3	-29.4345E-3
-3.75938E-3	-152.140E-12	657.807E-3	35.6341E-3	-153.362E-12	641.238E-3	-34.1840E-3
-3.76438E-3	-152.750E-12	679.863E-3	26.8664E-3	-153.263E-12	664.132E-3	-29.8540E-3
-3.76938E-3	-152.707E-12	690.933E-3	12.9387E-3	-153.536E-12	685.380E-3	-20.4855E-3
-3.77439E-3	-153.499E-12	697.237E-3	-11.0149E-3	-152.181E-12	674.443E-3	-11.1028E-3
-3.77939E-3	-152.481E-12	693.188E-3	-13.3881E-3	-151.480E-12	673.855E-3	-19.8214E-3
-3.78439E-3	-152.907E-12	685.071E-3	3.81443E-3	-151.422E-12	684.105E-3	-36.7198E-3
-3.78939E-3	-152.815E-12	686.369E-3	-7.70346E-3	-152.039E-12	674.836E-3	-27.2321E-3
-3.79440E-3	-153.059E-12	698.558E-3	-14.7209E-3	-152.864E-12	669.495E-3	-5.88347E-3
-3.79940E-3	-153.003E-12	704.871E-3	-1.22259E-3	-153.316E-12	666.239E-3	-11.5046E-3
-3.80440E-3	-154.468E-12	700.065E-3	-6.31272E-3	-154.096E-12	663.819E-3	-48.7893E-3
-3.80940E-3	-154.932E-12	709.738E-3	-31.0242E-3	-155.025E-12	671.130E-3	-72.4676E-3
-3.81441E-3	-154.814E-12	719.682E-3	-41.7684E-3	-155.181E-12	679.239E-3	-43.2401E-3
-3.81941E-3	-156.776E-12	705.863E-3	-40.2431E-3	-156.382E-12	686.850E-3	-11.2993E-3
-3.82441E-3	-157.596E-12	687.623E-3	-46.1537E-3	-156.767E-12	671.145E-3	-23.3945E-3
-3.82941E-3	-158.502E-12	691.306E-3	-56.2309E-3	-157.037E-12	648.596E-3	-41.0528E-3
-3.83442E-3	-158.214E-12	705.789E-3	-59.6692E-3	-157.355E-12	666.380E-3	-23.7105E-3
-3.83942E-3	-159.239E-12	711.659E-3	-46.4550E-3	-158.267E-12	707.582E-3	-5.76301E-3
-3.84442E-3	-159.738E-12	723.260E-3	-39.8877E-3	-157.920E-12	708.965E-3	-13.9913E-3
-3.84942E-3	-160.295E-12	714.798E-3	-55.8126E-3	-157.637E-12	665.923E-3	-18.5789E-3
-3.85443E-3	-159.412E-12	686.979E-3	-62.5597E-3	-157.077E-12	632.351E-3	-21.6625E-3
-3.85943E-3	-160.131E-12	668.900E-3	-52.4762E-3	-156.882E-12	626.841E-3	-29.5457E-3
-3.86443E-3	-159.193E-12	649.066E-3	-49.6563E-3	-156.227E-12	637.920E-3	-27.4955E-3
-3.86943E-3	-158.866E-12	660.144E-3	-56.1534E-3	-157.431E-12	655.677E-3	-36.9393E-3
-3.87444E-3	-157.843E-12	698.184E-3	-41.0697E-3	-156.335E-12	651.864E-3	-59.4283E-3
-3.87944E-3	-157.643E-12	705.126E-3	-23.4349E-3	-156.410E-12	631.072E-3	-62.6887E-3
-3.88444E-3	-157.433E-12	677.495E-3	-30.0899E-3	-156.423E-12	637.568E-3	-55.3729E-3
-3.88944E-3	-156.891E-12	665.901E-3	-22.9643E-3	-156.395E-12	662.596E-3	-41.4743E-3
-3.89445E-3	-157.372E-12	688.523E-3	-15.7177E-3	-156.978E-12	671.332E-3	-18.4724E-3
-3.89945E-3	-158.167E-12	706.557E-3	-44.6446E-3	-157.177E-12	666.386E-3	-14.2495E-3
-3.90445E-3	-158.469E-12	699.266E-3	-60.2984E-3	-158.370E-12	662.278E-3	-40.3979E-3
-3.90945E-3	-158.628E-12	681.492E-3	-23.8482E-3	-158.675E-12	673.259E-3	-68.4102E-3
-3.91446E-3	-160.002E-12	672.311E-3	6.49158E-3	-159.531E-12	693.398E-3	-73.1623E-3
-3.91946E-3	-160.664E-12	673.543E-3	-6.23012E-3	-159.535E-12	689.283E-3	-57.1038E-3
-3.92446E-3	-160.815E-12	665.029E-3	-23.4773E-3	-160.164E-12	655.851E-3	-27.8651E-3
-3.92946E-3	-161.107E-12	657.049E-3	-28.0738E-3	-161.348E-12	645.169E-3	-1.40959E-3
-3.93447E-3	-161.112E-12	669.967E-3	-27.4180E-3	-161.332E-12	677.761E-3	-8.56706E-3
-3.93947E-3	-161.473E-12	682.096E-3	-18.9463E-3	-161.671E-12	695.660E-3	-38.1651E-3
-3.94447E-3	-161.135E-12	692.908E-3	-3.98615E-3	-161.699E-12	696.574E-3	-33.4669E-3
-3.94947E-3	-161.163E-12	702.220E-3	2.75534E-3	-162.761E-12	702.868E-3	-13.7175E-3
-3.95448E-3	-160.913E-12	695.219E-3	-4.20864E-3	-161.522E-12	674.545E-3	-25.6034E-3
-3.95948E-3	-161.335E-12	681.999E-3	-451.251E-6	-162.038E-12	648.729E-3	-26.2425E-3
-3.96448E-3	-159.645E-12	670.732E-3	8.96991E-3	-161.712E-12	670.851E-3	-8.36626E-3
-3.96948E-3	-160.381E-12	665.924E-3	15.6558E-3	-161.719E-12	690.020E-3	-2.13312E-3
-3.97449E-3	-159.113E-12	663.179E-3	20.1854E-3	-162.762E-12	701.512E-3	9.49796E-3
-3.97949E-3	-159.286E-12	676.140E-3	10.4332E-3	-163.117E-12	719.927E-3	3.28224E-3
-3.98449E-3	-159.965E-12	721.279E-3	3.91026E-3	-163.532E-12	714.685E-3	-31.3060E-3
-3.98949E-3	-160.864E-12	736.053E-3	14.8517E-3	-163.852E-12	709.607E-3	-37.8491E-3
-3.99450E-3	-161.058E-12	696.271E-3	24.3478E-3	-163.456E-12	728.257E-3	-18.8422E-3
-3.99950E-3	-162.487E-12	672.672E-3	14.0629E-3	-163.995E-12	724.975E-3	-28.7063E-3
-4.00450E-3	-163.513E-12	673.134E-3	-9.15483E-3	-164.008E-12	695.299E-3	-57.6594E-3
-4.00950E-3	-163.806E-12	684.371E-3	-12.6552E-3	-164.174E-12	691.537E-3	-65.2323E-3
-4.01451E-3	-164.862E-12	715.848E-3	-5.46872E-3	-163.483E-12	699.467E-3	-59.8131E-3
-4.01951E-3	-165.791E-12	725.122E-3	-13.5735E-3	-164.879E-12	695.101E-3	-31.9352E-3
-4.02451E-3	-166.501E-12	714.081E-3	-11.2546E-3	-164.666E-12	705.822E-3	-2.97879E-3
-4.02951E-3	-166.852E-12	719.537E-3	-8.74051E-3	-164.564E-12	709.947E-3	-20.3945E-3
-4.03452E-3	-167.030E-12	730.660E-3	-9.94893E-3	-164.817E-12	687.304E-3	-24.7930E-3
-4.03952E-3	-167.182E-12	734.280E-3	-11.3834E-3	-165.821E-12	688.296E-3	-5.49618E-3
-4.04452E-3	-166.435E-12	723.446E-3	-22.2479E-3	-165.931E-12	721.440E-3	-14.0801E-3
-4.04952E-3	-166.738E-12	711.624E-3	-11.4921E-3	-168.042E-12	722.781E-3	-11.9484E-3
-4.05453E-3	-165.388E-12	707.170E-3	2.09410E-3	-168.074E-12	697.748E-3	1.03548E-3
-4.05953E-3	-165.811E-12	700.609E-3	11.9981E-3	-168.897E-12	683.885E-3	-11.8973E-3
-4.06453E-3	-165.152E-12	702.099E-3	23.4157E-3	-169.821E-12	670.306E-3	-26.7234E-3
-4.06953E-3	-165.095E-12	720.968E-3	7.64628E-3	-170.056E-12	700.086E-3	-34.8365E-3
-4.07454E-3	-164.516E-12	714.555E-3	-5.20413E-3	-170.336E-12	739.003E-3	-38.0274E-3
-4.07954E-3	-165.990E-12	660.412E-3	-297.493E-6	-170.770E-12	711.245E-3	-26.3685E-3
-4.08454E-3	-165.740E-12	636.553E-3	-5.88001E-3	-170.643E-12	681.001E-3	-14.9767E-3
-4.08954E-3	-166.088E-12	664.430E-3	-6.41350E-3	-170.038E-12	679.006E-3	-23.5589E-3
-4.09455E-3	-167.396E-12	663.549E-3	-673.758E-6	-169.858E-12	685.399E-3	-24.2414E-3
-4.09955E-3	-167.898E-12	660.101E-3	8.53418E-3	-170.168E-12	694.691E-3	7.90453E-3
-4.10455E-3	-168.836E-12	681.797E-3	20.5928E-3	-167.920E-12	685.310E-3	25.0913E-3
-4.10955E-3	-168.966E-12	682.551E-3	-3.41392E-3	-167.676E-12	654.003E-3	13.6647E-3
-4.11456E-3	-170.662E-12	683.273E-3	-26.5423E-3	-167.638E-12	636.012E-3	10.6478E-3
-4.11956E-3	-169.687E-12	702.755E-3	-10.4378E-3	-166.554E-12	651.901E-3	3.99109E-3
-4.12456E-3	-170.826E-12	708.897E-3	-5.46954E-3	-165.728E-12	664.722E-3	-2.73632E-3
-4.12956E-3	-169.893E-12	700.868E-3	-21.6649E-3	-166.166E-12	661.276E-3	-1.59203E-3
-4.13457E-3	-170.537E-12	708.152E-3	-27.8015E-3	-166.300E-12	656.738E-3	-27.6635E-3
-4.13957E-3	-170.920E-12	705.542E-3	-21.8839E-3	-166.741E-12	655.625E-3	-51.0359E-3
-4.14457E-3	-170.611E-12	689.602E-3	-23.9790E-3	-167.462E-12	678.140E-3	-22.7291E-3
-4.14957E-3	-171.069E-12	687.228E-3	-40.3374E-3	-168.914E-12	697.620E-3	6.04770E-3
-4.15458E-3	-171.035E-12	677.550E-3	-39.2448E-3	-169.552E-12	678.901E-3	9.92688E-3
-4.15958E-3	-171.226E-12	663.672E-3	-12.0678E-3	-170.997E-12	670.685E-3	24.0279E-3
-4.16458E-3	-170.315E-12	677.181E-3	13.5917E-3	-171.689E-12	682.603E-3	-276.071E-6
-4.16958E-3	-171.244E-12	691.991E-3	29.1899E-3	-172.094E-12	666.800E-3	-40.8074E-3
-4.17459E-3	-171.686E-12	687.227E-3	27.6888E-3	-172.075E-12	663.172E-3	-18.5159E-3
-4.17959E-3	-172.227E-12	674.820E-3	7.81863E-3	-171.804E-12	693.628E-3	-1.49013E-3
-4.18459E-3	-171.448E-12	653.115E-3	10.6520E-3	-172.312E-12	687.295E-3	-5.42085E-3
-4.18959E-3	-172.175E-12	631.626E-3	27.1988E-3	-171.676E-12	661.249E-3	16.3865E-3
-4.19460E-3	-171.906E-12	638.599E-3	6.72865E-3	-170.846E-12	672.677E-3	21.6640E-3
-4.19960E-3	-171.705E-12	673.685E-3	-21.2546E-3	-170.522E-12	680.638E-3	13.4416E-3
-4.20460E-3	-171.369E-12	691.937E-3	-29.7974E-3	-170.396E-12	680.790E-3	5.33926E-3
-4.20960E-3	-172.128E-12	676.474E-3	-40.1946E-3	-169.522E-12	688.296E-3	-27.8600E-3
-4.21461E-3	-171.411E-12	671.932E-3	-33.4934E-3	-169.088E-12	666.400E-3	-57.7088E-3
-4.21961E-3	-172.332E-12	682.473E-3	-13.3759E-3	-169.328E-12	639.313E-3	-47.2185E-3
-4.22461E-3	-172.828E-12	676.705E-3	-1.62547E-3	-170.647E-12	639.627E-3	-28.5756E-3
-4.22961E-3	-173.604E-12	669.372E-3	9.05751E-3	-170.968E-12	630.696E-3	-37.9325E-3
-4.23462E-3	-173.769E-12	662.367E-3	13.2049E-3	-173.011E-12	614.439E-3	-51.0614E-3
-4.23962E-3	-173.833E-12	664.872E-3	10.9021E-3	-173.650E-12	629.942E-3	-45.0398E-3
-4.24462E-3	-174.806E-12	673.965E-3	6.83724E-3	-174.913E-12	666.700E-3	-31.5828E-3
-4.24962E-3	-175.348E-12	656.514E-3	15.9766E-3	-175.683E-12	691.805E-3	-15.6366E-3
-4.25463E-3	-176.266E-12	633.801E-3	21.5474E-3	-177.026E-12	683.525E-3	600.828E-6
-4.25963E-3	-176.189E-12	645.280E-3	4.80157E-3	-178.097E-12	669.163E-3	-5.56326E-3
-4.26463E-3	-177.327E-12	681.020E-3	1.22379E-3	-178.808E-12	672.986E-3	-14.8035E-3
-4.26963E-3	-177.014E-12	688.300E-3	3.37715E-3	-179.758E-12	678.710E-3	-11.3272E-3
-4.27464E-3	-177.184E-12	678.143E-3	-4.14299E-3	-178.628E-12	665.987E-3	-23.2173E-3
-4.27964E-3	-177.857E-12	693.920E-3	-4.09910E-3	-178.999E-12	650.596E-3	-15.5132E-3
-4.28464E-3	-177.596E-12	705.305E-3	7.06678E-3	-177.411E-12	678.679E-3	16.0095E-3
-4.28964E-3	-177.062E-12	689.382E-3	-13.9592E-3	-177.249E-12	710.461E-3	2.87942E-3
-4.29465E-3	-176.648E-12	678.693E-3	-52.1720E-3	-176.277E-12	691.202E-3	-15.7357E-3
-4.29965E-3	-176.633E-12	669.246E-3	-37.8996E-3	-175.884E-12	671.671E-3	-12.8562E-3
-4.30465E-3	-176.011E-12	662.252E-3	-32.3670E-3	-175.348E-12	687.813E-3	-23.9212E-3
-4.30965E-3	-175.538E-12	691.107E-3	-51.9127E-3	-174.657E-12	682.583E-3	-22.5376E-3
-4.31466E-3	-175.245E-12	707.255E-3	-28.4180E-3	-176.562E-12	650.098E-3	5.57379E-3
-4.31966E-3	-175.913E-12	682.230E-3	-7.43418E-3	-175.402E-12	662.992E-3	11.6170E-3
-4.32466E-3	-176.023E-12	664.288E-3	-26.0720E-3	-176.497E-12	693.225E-3	-11.2827E-3
-4.32966E-3	-176.544E-12	648.243E-3	-41.8621E-3	-177.386E-12	706.354E-3	3.67921E-3
-4.33467E-3	-177.062E-12	648.863E-3	-39.1906E-3	-178.436E-12	712.893E-3	19.8664E-3
-4.33967E-3	-176.784E-12	683.803E-3	-21.3455E-3	-178.957E-12	697.533E-3	-9.35018E-3
-4.34467E-3	-178.198E-12	708.730E-3	-18.8138E-3	-180.264E-12	682.761E-3	-24.6713E-3
-4.34967E-3	-179.374E-12	693.049E-3	-30.4510E-3	-181.235E-12	694.047E-3	-27.1873E-3
-4.35468E-3	-179.662E-12	661.466E-3	-22.5071E-3	-182.278E-12	692.853E-3	-34.0415E-3
-4.35968E-3	-180.235E-12	669.237E-3	-1.02067E-3	-182.484E-12	681.049E-3	-3.18661E-3
-4.36468E-3	-180.228E-12	677.256E-3	21.9279E-3	-183.449E-12	692.758E-3	12.7531E-3
-4.36968E-3	-180.802E-12	660.258E-3	19.8986E-3	-184.288E-12	702.968E-3	-21.5026E-3
-4.37469E-3	-179.990E-12	651.033E-3	-251.849E-6	-183.504E-12	700.721E-3	-22.5991E-3
-4.37969E-3	-180.062E-12	641.561E-3	-3.21461E-3	-182.645E-12	690.410E-3	6.31231E-3
-4.38469E-3	-179.934E-12	630.930E-3	1.18223E-3	-182.301E-12	671.534E-3	-9.46170E-3
-4.38969E-3	-180.342E-12	621.453E-3	1.70362E-3	-181.513E-12	658.969E-3	-50.1012E-3
-4.39470E-3	-178.992E-12	627.701E-3	-11.2076E-3	-181.017E-12	663.844E-3	-44.7998E-3
-4.39970E-3	-178.852E-12	642.760E-3	-29.6480E-3	-180.618E-12	657.897E-3	-22.7522E-3
-4.40470E-3	-178.299E-12	663.284E-3	-20.0588E-3	-181.496E-12	654.667E-3	-22.3191E-3
-4.40970E-3	-178.504E-12	688.984E-3	-14.1312E-3	-180.653E-12	688.540E-3	-7.31352E-3
-4.41471E-3	-179.118E-12	684.628E-3	-22.2197E-3	-182.566E-12	690.268E-3	4.74887E-3
-4.41971E-3	-179.918E-12	670.535E-3	-20.7195E-3	-182.090E-12	639.590E-3	-8.43874E-3
-4.42471E-3	-181.666E-12	649.381E-3	-12.0332E-3	-183.138E-12	650.919E-3	-27.7741E-3
-4.42971E-3	-183.182E-12	628.697E-3	3.83540E-3	-184.027E-12	688.980E-3	-48.2477E-3
-4.43472E-3	-184.285E-12	637.932E-3	-2.03528E-3	-181.916E-12	660.775E-3	-42.6052E-3
-4.43972E-3	-186.549E-12	655.402E-3	-31.8688E-3	-183.693E-12	672.594E-3	-31.4184E-3
-4.44472E-3	-186.962E-12	676.173E-3	-43.0128E-3	-183.752E-12	709.246E-3	-25.0912E-3
-4.44972E-3	-187.465E-12	703.126E-3	-30.5892E-3	-184.294E-12	674.092E-3	-6.08308E-3
-4.45473E-3	-187.502E-12	701.952E-3	-15.1575E-3	-184.201E-12	657.727E-3	-12.0353E-3
-4.45973E-3	-188.998E-12	678.310E-3	-14.1328E-3	-185.362E-12	665.305E-3	-39.4490E-3
-4.46473E-3	-188.312E-12	655.092E-3	-36.9156E-3	-184.854E-12	641.184E-3	-34.5976E-3
-4.46973E-3	-188.199E-12	630.251E-3	-43.1409E-3	-184.269E-12	633.234E-3	-17.4515E-3
-4.47474E-3	-186.630E-12	642.719E-3	-21.6895E-3	-184.566E-12	650.175E-3	-26.0953E-3
-4.47974E-3	-186.644E-12	682.218E-3	-9.16809E-3	-184.821E-12	649.269E-3	-30.0863E-3
-4.48474E-3	-184.498E-12	679.948E-3	-22.2720E-3	-185.074E-12	634.509E-3	-28.4409E-3
-4.48974E-3	-183.941E-12	648.615E-3	-43.4931E-3	-185.684E-12	650.613E-3	-31.7968E-3
-4.49475E-3	-183.158E-12	641.244E-3	-31.5953E-3	-185.734E-12	671.874E-3	-18.7865E-3
-4.49975E-3	-184.155E-12	665.018E-3	-14.8730E-3	-187.449E-12	669.368E-3	-1.65005E-3
-4.50475E-3	-183.313E-12	690.467E-3	-18.3303E-3	-187.507E-12	674.584E-3	-15.7822E-3
-4.50975E-3	-183.737E-12	699.523E-3	-8.83033E-3	-187.831E-12	686.500E-3	-63.1666E-3
-4.51476E-3	-184.068E-12	691.179E-3	7.72176E-3	-188.088E-12	688.725E-3	-69.0485E-3
-4.51976E-3	-184.890E-12	692.619E-3	6.23693E-3	-189.529E-12	673.264E-3	-37.5156E-3
-4.52476E-3	-185.743E-12	690.729E-3	10.6191E-3	-188.343E-12	663.335E-3	-47.7324E-3
-4.52976E-3	-186.297E-12	677.563E-3	17.7455E-3	-187.603E-12	663.596E-3	-48.9766E-3
-4.53477E-3	-187.794E-12	692.681E-3	-3.68496E-3	-188.444E-12	671.072E-3	-8.92814E-3
-4.53977E-3	-189.106E-12	683.529E-3	-15.6318E-3	-187.911E-12	687.323E-3	-4.45480E-3
-4.54477E-3	-189.185E-12	655.195E-3	-14.9573E-3	-187.019E-12	669.756E-3	-32.2742E-3
-4.54977E-3	-189.402E-12	664.542E-3	-29.1480E-3	-187.837E-12	651.018E-3	-43.7520E-3
-4.55478E-3	-189.643E-12	680.181E-3	-22.4154E-3	-188.597E-12	673.389E-3	-27.9157E-3
-4.55978E-3	-189.862E-12	681.567E-3	8.79347E-3	-187.567E-12	704.426E-3	-6.99847E-3
-4.56478E-3	-188.842E-12	670.737E-3	22.2162E-3	-188.371E-12	723.388E-3	-17.1293E-3
-4.56978E-3	-188.993E-12	651.513E-3	3.78708E-3	-188.392E-12	718.630E-3	-33.2613E-3
-4.57479E-3	-188.814E-12	639.368E-3	-6.40895E-3	-188.449E-12	703.436E-3	-30.1010E-3
-4.57979E-3	-189.346E-12	633.001E-3	18.5968E-3	-189.388E-12	706.037E-3	-43.3694E-3
-4.58479E-3	-188.017E-12	636.381E-3	23.2494E-3	-190.619E-12	705.336E-3	-72.8192E-3
-4.58979E-3	-188.817E-12	639.045E-3	-12.2147E-3	-191.974E-12	680.851E-3	-55.5127E-3
-4.59480E-3	-189.199E-12	635.426E-3	-31.9844E-3	-194.024E-12	670.594E-3	-15.7124E-3
-4.59980E-3	-189.035E-12	646.516E-3	-33.5597E-3	-194.149E-12	653.511E-3	-14.2718E-3
-4.60480E-3	-190.727E-12	663.900E-3	-35.5064E-3	-193.688E-12	637.691E-3	-24.4009E-3
-4.60980E-3	-190.524E-12	646.223E-3	-29.4678E-3	-193.921E-12	671.828E-3	-17.3878E-3
-4.61481E-3	-190.729E-12	611.848E-3	-25.4355E-3	-193.572E-12	689.381E-3	-22.7971E-3
-4.61981E-3	-191.507E-12	620.814E-3	-10.1400E-3	-192.227E-12	673.390E-3	-43.9435E-3
-4.62481E-3	-192.233E-12	648.957E-3	9.81873E-3	-191.593E-12	668.839E-3	-51.4719E-3
-4.62981E-3	-191.778E-12	680.432E-3	10.1224E-3	-191.311E-12	668.618E-3	-49.7233E-3
-4.63482E-3	-191.408E-12	701.413E-3	8.21517E-3	-189.338E-12	662.359E-3	-44.7629E-3
-4.63982E-3	-192.540E-12	691.149E-3	4.95388E-3	-189.810E-12	657.935E-3	-28.2613E-3
-4.64482E-3	-192.839E-12	680.591E-3	5.92426E-3	-189.362E-12	655.449E-3	-7.02876E-3
-4.64982E-3	-192.585E-12	672.852E-3	-12.0371E-3	-190.071E-12	645.775E-3	4.35129E-3
-4.65483E-3	-191.412E-12	670.987E-3	-39.6464E-3	-191.573E-12	659.095E-3	14.1879E-3
-4.65983E-3	-191.886E-12	670.978E-3	-34.4672E-3	-192.469E-12	689.369E-3	19.1692E-3
-4.66483E-3	-191.871E-12	658.214E-3	-38.8672E-3	-193.195E-12	684.317E-3	14.1755E-3
-4.66983E-3	-191.916E-12	647.201E-3	-48.3708E-3	-195.039E-12	680.134E-3	-3.31435E-3
-4.67484E-3	-192.584E-12	670.417E-3	-36.5473E-3	-196.636E-12	732.924E-3	-39.2311E-3
-4.67984E-3	-193.421E-12	694.854E-3	-18.6631E-3	-198.611E-12	782.312E-3	-64.9963E-3
-4.68484E-3	-193.799E-12	692.571E-3	-16.5339E-3	-199.351E-12	778.039E-3	-51.8819E-3
-4.68984E-3	-195.032E-12	692.603E-3	-19.7119E-3	-199.584E-12	726.943E-3	-29.4566E-3
-4.69485E-3	-195.332E-12	700.007E-3	-14.3506E-3	-201.041E-12	671.709E-3	-17.9338E-3
-4.69985E-3	-196.079E-12	706.788E-3	-20.0570E-3	-201.177E-12	668.143E-3	16.9665E-3
-4.70485E-3	-195.984E-12	705.319E-3	-23.5702E-3	-200.871E-12	688.155E-3	45.2433E-3
-4.70985E-3	-196.072E-12	703.710E-3	-27.5199E-3	-199.506E-12	678.262E-3	28.2745E-3
-4.71486E-3	-195.737E-12	686.872E-3	-32.1138E-3	-197.734E-12	657.670E-3	-4.82653E-3
-4.71986E-3	-196.483E-12	668.620E-3	-34.8643E-3	-196.119E-12	677.793E-3	-28.0889E-3
-4.72486E-3	-195.126E-12	668.123E-3	-41.0557E-3	-194.875E-12	702.097E-3	-36.5760E-3
-4.72986E-3	-195.334E-12	664.177E-3	-47.1886E-3	-193.895E-12	675.402E-3	-31.0572E-3
-4.73487E-3	-194.986E-12	660.242E-3	-62.8165E-3	-192.875E-12	656.485E-3	-26.0059E-3
-4.73987E-3	-194.815E-12	644.041E-3	-72.5976E-3	-191.778E-12	647.404E-3	-38.1645E-3
-4.74487E-3	-193.973E-12	626.484E-3	-72.2317E-3	-192.009E-12	619.684E-3	-44.8116E-3
-4.74988E-3	-195.440E-12	639.302E-3	-76.1903E-3	-192.830E-12	640.290E-3	-61.5994E-3
-4.75488E-3	-196.478E-12	671.163E-3	-72.9879E-3	-193.549E-12	681.845E-3	-90.2422E-3
-4.75988E-3	-197.946E-12	715.088E-3	-44.6700E-3	-194.541E-12	708.086E-3	-74.0136E-3
-4.76488E-3	-197.940E-12	737.916E-3	-6.08250E-3	-196.668E-12	731.710E-3	-36.7623E-3
-4.76988E-3	-198.728E-12	698.132E-3	4.00801E-3	-198.360E-12	711.002E-3	-44.0850E-3
-4.77489E-3	-200.702E-12	650.554E-3	-15.0833E-3	-199.810E-12	656.801E-3	-80.4670E-3
-4.77989E-3	-200.131E-12	647.449E-3	-26.3894E-3	-199.983E-12	627.996E-3	-74.9471E-3
-4.78489E-3	-200.552E-12	665.981E-3	-32.0748E-3	-201.876E-12	650.287E-3	-45.2521E-3
-4.78989E-3	-202.115E-12	683.767E-3	-52.8723E-3	-202.088E-12	681.191E-3	-36.5258E-3
-4.79490E-3	-202.544E-12	712.828E-3	-63.1569E-3	-202.273E-12	692.482E-3	-40.9894E-3
-4.79990E-3	-200.534E-12	732.588E-3	-33.4161E-3	-201.830E-12	695.638E-3	-40.1309E-3
-4.80490E-3	-200.649E-12	701.365E-3	-3.65874E-3	-202.473E-12	676.033E-3	-13.2515E-3
-4.80990E-3	-200.870E-12	672.546E-3	-24.0429E-3	-202.687E-12	659.211E-3	46.2357E-3
-4.81491E-3	-199.216E-12	687.030E-3	-25.6824E-3	-200.418E-12	661.314E-3	77.8173E-3
-4.81991E-3	-199.114E-12	704.629E-3	19.5410E-3	-200.823E-12	637.816E-3	39.8116E-3
-4.82491E-3	-198.005E-12	700.262E-3	34.3240E-3	-200.158E-12	617.602E-3	-8.33451E-3
-4.82991E-3	-197.762E-12	692.398E-3	14.2395E-3	-200.397E-12	646.759E-3	-14.7004E-3
-4.83492E-3	-197.584E-12	682.756E-3	-1.64143E-3	-199.065E-12	689.782E-3	-9.70007E-3
-4.83992E-3	-198.087E-12	672.283E-3	-14.2647E-3	-200.539E-12	712.801E-3	-26.1078E-3
-4.84492E-3	-200.623E-12	696.990E-3	-6.89006E-3	-201.573E-12	717.746E-3	-32.6255E-3
-4.84992E-3	-200.659E-12	705.929E-3	24.2028E-3	-201.313E-12	697.979E-3	-27.3786E-3
-4.85493E-3	-202.697E-12	660.984E-3	23.1095E-3	-202.050E-12	690.262E-3	-28.6231E-3
-4.85993E-3	-203.872E-12	658.959E-3	-2.16999E-3	-203.200E-12	683.292E-3	-38.7477E-3
-4.86493E-3	-205.814E-12	696.761E-3	-5.13653E-3	-203.523E-12	660.838E-3	-53.5268E-3
-4.86993E-3	-208.031E-12	685.281E-3	8.44530E-3	-203.916E-12	683.155E-3	-50.6632E-3
-4.87494E-3	-208.697E-12	654.408E-3	8.76902E-3	-203.652E-12	695.767E-3	-38.2114E-3
-4.87994E-3	-209.104E-12	646.636E-3	-15.0844E-3	-204.162E-12	670.622E-3	-29.7842E-3
-4.88494E-3	-209.619E-12	650.986E-3	-39.3308E-3	-205.123E-12	687.164E-3	-28.1592E-3
-4.88995E-3	-209.613E-12	676.122E-3	-33.8591E-3	-204.064E-12	705.692E-3	-13.2260E-3
-4.89495E-3	-207.808E-12	729.984E-3	-6.90944E-3	-203.123E-12	665.619E-3	26.3611E-3
-4.89995E-3	-206.993E-12	767.172E-3	-395.291E-6	-203.592E-12	628.891E-3	25.1510E-3
-4.90495E-3	-206.215E-12	759.982E-3	-6.47807E-3	-204.068E-12	644.681E-3	-28.0375E-3
-4.90995E-3	-204.779E-12	737.520E-3	10.4063E-3	-203.357E-12	684.131E-3	-58.8335E-3
-4.91496E-3	-203.441E-12	706.519E-3	25.6260E-3	-204.774E-12	708.171E-3	-43.7341E-3
-4.91996E-3	-202.282E-12	671.140E-3	-5.68244E-3	-204.776E-12	713.808E-3	-16.2761E-3
-4.92496E-3	-201.478E-12	658.213E-3	-36.5782E-3	-205.313E-12	692.340E-3	-15.7488E-3
-4.92996E-3	-201.015E-12	673.369E-3	-29.2479E-3	-206.756E-12	674.562E-3	-27.5356E-3
-4.93497E-3	-200.576E-12	686.649E-3	-19.1320E-3	-207.766E-12	706.925E-3	-43.0655E-3
-4.93997E-3	-202.375E-12	679.802E-3	-15.5075E-3	-208.701E-12	721.228E-3	-55.6240E-3
-4.94497E-3	-202.449E-12	638.112E-3	-25.6488E-3	-209.085E-12	676.281E-3	-34.9587E-3
-4.94997E-3	-204.959E-12	589.563E-3	-49.7261E-3	-209.366E-12	671.094E-3	-35.0248E-3
-4.95498E-3	-205.494E-12	611.888E-3	-37.9896E-3	-209.884E-12	703.823E-3	-45.2847E-3
-4.95998E-3	-208.075E-12	647.063E-3	-263.383E-6	-209.169E-12	705.253E-3	-15.5849E-3
-4.96498E-3	-207.339E-12	667.478E-3	7.42200E-3	-208.615E-12	701.702E-3	18.4546E-3
-4.96998E-3	-209.574E-12	720.928E-3	-12.2415E-3	-207.499E-12	681.444E-3	18.6092E-3
-4.97499E-3	-209.415E-12	737.594E-3	-16.9125E-3	-207.517E-12	678.276E-3	-12.4381E-3
-4.97999E-3	-209.194E-12	712.236E-3	-705.375E-6	-207.361E-12	721.492E-3	-30.0386E-3
-4.98499E-3	-210.003E-12	712.868E-3	-14.0828E-3	-207.312E-12	721.003E-3	-25.6007E-3
-4.98999E-3	-208.375E-12	705.100E-3	-34.3228E-3	-207.779E-12	687.762E-3	-19.8800E-3
-4.99500E-3	-208.314E-12	689.272E-3	-14.3823E-3	-207.531E-12	697.456E-3	-12.1572E-3
-5.00000E-3	-207.626E-12	711.347E-3	5.10040E-3	-208.382E-12	722.960E-3	78.9618E-6
