Experiment	bias spectroscopy	
Date	19.01.2016 20:32:13	
User		
X (m)	50.0269E-9	
Y (m)	256.934E-9	
Z (m)	-132.494E-9	
Z offset (m)	0E+0	
Settling time (s)	200E-6	
Integration time (s)	5E-3	
Z-Ctrl hold	TRUE	
Final Z (m)	N/A	
Filter type	None	
Order		
Cutoff frq		
Comment01	MnPc/Pb(111)	
Comment02	dz =00pm	
Comment03	7 Sweeps	
Comment04	MagField =0.T	
Comment05	Divider 1:10	
Comment06	Setpoint:5mV,200 pA	
Comment07	Lockin: 50uVrms,5ms,5mV	
Comment08	Gain:9; 912Hz modulation	
Comment09	T=1.06K	
Bias>Bias (V)	5E-3	
Bias>Calibration (V/V)	81.475E-3	
Bias>Offset (V)	1.046E-3	
Bias Spectroscopy>Sweep Start (V)	5E-3	
Bias Spectroscopy>Sweep End (V)	-5E-3	
Bias Spectroscopy>Num Pixel	2000	
Bias Spectroscopy>Z Avg time (s)	500E-3	
Bias Spectroscopy>Z offset (m)	0E+0	
Bias Spectroscopy>1st Settling time (s)	500E-3	
Bias Spectroscopy>Settling time (s)	200E-6	
Bias Spectroscopy>Integration time (s)	5E-3	
Bias Spectroscopy>End Settling time (s)	500E-3	
Bias Spectroscopy>Z control time (s)	500E-3	
Bias Spectroscopy>Max Slew rate (V/s)	Inf	
Bias Spectroscopy>backward sweep	TRUE	
Bias Spectroscopy>Z-controller hold	TRUE	
Bias Spectroscopy>Number of sweeps	7	
Bias Spectroscopy>Channels	Current (A);X% LockIn (V);Y% LockIn (V)	
Bias Spectroscopy>Reset Bias	TRUE	
Bias Spectroscopy>Record final Z	FALSE	
Bias Spectroscopy>Lock-In run	FALSE	
Bias Spectroscopy>Sweep mode	Linear	
Bias Spectroscopy>MultiLine Settings : Segment Start (V), Segment End (V), Settling (s), Integration (s), Steps (xn)	100E-3,3.3E-3,100E-6,10E-3,2500;3.3E-3,-3.3E-3,100E-6,10E-3,10;-3.3E-3,-100E-3,100E-6,10E-3,2500	
Current>Current (A)	200.017E-12	
Current>Calibration (A/V)	999.99900E-12	
Current>Offset (A)	-455.429E-15	
Current>Gain	LN 10^9	
Z-Controller>Z (m)	-132.496E-9	
Z-Controller>Controller name	log Current	
Z-Controller>Controller status	ON	
Z-Controller>Setpoint	200E-12	
Z-Controller>Setpoint unit	A	
Z-Controller>P gain	2.96994E-12	
Z-Controller>I gain	67.0321E-9	
Z-Controller>Time const (s)	44.3062E-6	
Z-Controller>TipLift (m)	0E+0	
Z-Controller>Switch off delay (s)	50E-3	
Current (A)	200.545E-12	
Z (m)	-132.496E-9	

[DATA]
Bias calc (V)	Current (A)	X% LockIn (V)	Y% LockIn (V)	Current [bwd] (A)	X% LockIn [bwd] (V)	Y% LockIn [bwd] (V)
5.00000E-3	197.180E-12	510.078E-3	-47.2506E-3	201.791E-12	501.403E-3	21.3568E-3
4.99500E-3	197.837E-12	485.950E-3	-69.3646E-3	201.663E-12	509.341E-3	-7.95305E-3
4.98999E-3	195.791E-12	483.735E-3	-67.0983E-3	202.065E-12	520.274E-3	-11.8585E-3
4.98499E-3	195.759E-12	496.476E-3	-45.0172E-3	202.341E-12	513.769E-3	-13.8267E-3
4.97999E-3	195.922E-12	497.747E-3	-13.9657E-3	201.221E-12	492.863E-3	-31.0552E-3
4.97499E-3	198.483E-12	491.600E-3	6.72487E-3	199.407E-12	482.658E-3	-48.4782E-3
4.96998E-3	198.819E-12	479.607E-3	11.1151E-3	198.309E-12	479.275E-3	-52.9499E-3
4.96498E-3	199.543E-12	464.057E-3	-3.40787E-3	197.766E-12	477.989E-3	-19.3225E-3
4.95998E-3	199.796E-12	479.949E-3	-31.0739E-3	197.896E-12	487.434E-3	15.4905E-3
4.95498E-3	201.875E-12	511.165E-3	-36.0242E-3	196.930E-12	493.977E-3	11.2992E-3
4.94997E-3	202.695E-12	514.416E-3	-18.8989E-3	196.957E-12	492.789E-3	-1.79563E-3
4.94497E-3	202.600E-12	496.590E-3	-25.1543E-3	195.387E-12	508.968E-3	-21.8662E-3
4.93997E-3	203.142E-12	485.527E-3	-27.6897E-3	196.567E-12	523.554E-3	-35.6271E-3
4.93497E-3	202.318E-12	506.133E-3	-20.9748E-3	196.513E-12	529.004E-3	-22.3279E-3
4.92996E-3	202.591E-12	523.036E-3	-25.0648E-3	197.417E-12	531.284E-3	-3.21870E-3
4.92496E-3	200.342E-12	532.069E-3	-31.9623E-3	196.253E-12	504.621E-3	21.3976E-3
4.91996E-3	198.994E-12	538.899E-3	-57.8918E-3	196.418E-12	495.240E-3	29.4200E-3
4.91496E-3	196.874E-12	525.256E-3	-71.1865E-3	196.351E-12	501.818E-3	8.01595E-3
4.90995E-3	196.628E-12	501.729E-3	-48.8868E-3	197.373E-12	487.677E-3	3.46068E-3
4.90495E-3	195.289E-12	492.279E-3	-34.4898E-3	196.785E-12	467.576E-3	23.8609E-3
4.89995E-3	194.136E-12	490.170E-3	-29.6536E-3	196.123E-12	461.569E-3	28.7691E-3
4.89495E-3	193.498E-12	478.017E-3	-20.3265E-3	196.213E-12	491.397E-3	13.0289E-3
4.88995E-3	191.611E-12	469.285E-3	-24.6385E-3	196.427E-12	519.427E-3	13.5279E-3
4.88494E-3	192.834E-12	478.458E-3	-50.0457E-3	197.316E-12	542.560E-3	19.4842E-3
4.87994E-3	190.925E-12	505.470E-3	-60.3735E-3	195.555E-12	572.626E-3	-14.5158E-3
4.87494E-3	192.397E-12	520.643E-3	-28.1123E-3	195.812E-12	550.482E-3	-50.1404E-3
4.86993E-3	192.499E-12	510.775E-3	-32.8227E-3	196.219E-12	509.276E-3	-35.0060E-3
4.86493E-3	193.538E-12	508.827E-3	-51.7987E-3	197.065E-12	486.797E-3	-20.8012E-3
4.85993E-3	194.710E-12	505.118E-3	-26.8972E-3	196.259E-12	465.339E-3	-36.1313E-3
4.85493E-3	195.838E-12	505.771E-3	-18.0883E-3	192.827E-12	478.904E-3	-36.6479E-3
4.84992E-3	195.419E-12	525.088E-3	-19.6548E-3	193.976E-12	496.673E-3	-27.3783E-3
4.84492E-3	195.800E-12	503.825E-3	-22.8715E-3	193.683E-12	485.233E-3	-32.2054E-3
4.83992E-3	197.385E-12	478.201E-3	-33.5015E-3	194.548E-12	482.441E-3	-39.1722E-3
4.83492E-3	197.015E-12	498.065E-3	-21.3461E-3	191.197E-12	495.205E-3	-39.0399E-3
4.82991E-3	196.325E-12	518.356E-3	3.36951E-3	191.246E-12	505.727E-3	-16.3784E-3
4.82491E-3	194.850E-12	518.767E-3	16.5150E-3	192.305E-12	495.517E-3	20.9518E-3
4.81991E-3	195.060E-12	506.258E-3	15.2686E-3	192.010E-12	476.201E-3	36.0465E-3
4.81491E-3	195.729E-12	484.402E-3	-10.9869E-3	192.015E-12	475.688E-3	29.8365E-3
4.80990E-3	193.348E-12	467.545E-3	-34.4513E-3	190.724E-12	493.272E-3	7.44143E-3
4.80490E-3	193.516E-12	458.857E-3	-44.2655E-3	191.933E-12	500.479E-3	-20.9996E-3
4.79990E-3	192.573E-12	461.945E-3	-44.8090E-3	192.390E-12	508.481E-3	-24.1425E-3
4.79490E-3	193.769E-12	484.084E-3	-26.9498E-3	194.917E-12	513.828E-3	-14.8506E-3
4.78989E-3	191.541E-12	505.030E-3	-17.6500E-3	194.319E-12	492.559E-3	-21.7744E-3
4.78489E-3	190.976E-12	520.368E-3	-22.3533E-3	194.731E-12	477.149E-3	-34.2072E-3
4.77989E-3	191.107E-12	511.480E-3	-14.5483E-3	195.779E-12	476.640E-3	-36.4835E-3
4.77489E-3	192.087E-12	485.117E-3	-22.6200E-3	198.350E-12	494.651E-3	-42.6666E-3
4.76988E-3	190.777E-12	491.130E-3	-48.1320E-3	198.698E-12	503.269E-3	-45.6904E-3
4.76488E-3	189.655E-12	512.789E-3	-37.4831E-3	197.342E-12	487.215E-3	-30.2185E-3
4.75988E-3	190.642E-12	494.233E-3	-26.6863E-3	196.562E-12	496.897E-3	-6.65074E-3
4.75488E-3	191.707E-12	469.460E-3	-31.2692E-3	195.862E-12	514.127E-3	26.9854E-3
4.74988E-3	191.100E-12	485.413E-3	-19.8122E-3	194.841E-12	519.458E-3	20.7225E-3
4.74487E-3	188.258E-12	513.580E-3	-17.0707E-3	192.449E-12	536.240E-3	-19.9281E-3
4.73987E-3	188.877E-12	530.952E-3	-17.0919E-3	191.039E-12	542.397E-3	-26.3520E-3
4.73487E-3	191.129E-12	536.972E-3	3.95657E-3	189.572E-12	530.346E-3	-14.8679E-3
4.72986E-3	193.380E-12	533.958E-3	17.4050E-3	188.792E-12	520.006E-3	-8.28210E-3
4.72486E-3	192.190E-12	522.657E-3	10.5173E-3	188.056E-12	510.076E-3	-15.7980E-3
4.71986E-3	192.223E-12	510.087E-3	4.70465E-3	188.000E-12	510.608E-3	-19.3349E-3
4.71486E-3	193.189E-12	511.881E-3	-16.8934E-3	188.831E-12	509.770E-3	-7.44878E-3
4.70985E-3	192.512E-12	530.162E-3	-56.0146E-3	188.435E-12	487.535E-3	-11.0785E-3
4.70485E-3	191.470E-12	530.325E-3	-57.1069E-3	189.400E-12	475.050E-3	-16.8645E-3
4.69985E-3	188.101E-12	504.772E-3	-28.6252E-3	189.959E-12	483.741E-3	-21.1783E-3
4.69485E-3	189.714E-12	488.280E-3	-26.8239E-3	191.140E-12	493.021E-3	-34.1566E-3
4.68984E-3	191.133E-12	493.430E-3	-41.5719E-3	190.748E-12	491.278E-3	-43.9556E-3
4.68484E-3	191.389E-12	493.246E-3	-35.2174E-3	191.358E-12	482.938E-3	-37.3022E-3
4.67984E-3	189.054E-12	478.318E-3	-15.3167E-3	193.206E-12	497.983E-3	-25.2471E-3
4.67484E-3	186.851E-12	478.803E-3	-4.82891E-3	193.145E-12	528.387E-3	-23.7124E-3
4.66983E-3	188.745E-12	498.248E-3	8.82199E-3	192.061E-12	533.501E-3	-15.7399E-3
4.66483E-3	189.612E-12	519.081E-3	13.8532E-3	191.042E-12	527.438E-3	-13.3199E-3
4.65983E-3	188.501E-12	505.390E-3	-12.4387E-3	190.451E-12	534.975E-3	-22.4518E-3
4.65483E-3	184.495E-12	478.453E-3	-29.8057E-3	188.507E-12	533.892E-3	-24.4533E-3
4.64982E-3	186.050E-12	484.602E-3	-26.0797E-3	187.162E-12	521.286E-3	-24.3611E-3
4.64482E-3	188.351E-12	487.024E-3	-19.5830E-3	186.168E-12	521.724E-3	-3.51676E-3
4.63982E-3	187.595E-12	491.058E-3	-20.3576E-3	185.982E-12	529.915E-3	18.7203E-3
4.63482E-3	185.562E-12	511.265E-3	-15.1232E-3	184.515E-12	523.045E-3	29.7744E-3
4.62981E-3	185.247E-12	522.177E-3	-10.4213E-3	184.552E-12	507.314E-3	51.2928E-3
4.62481E-3	188.855E-12	524.116E-3	-21.3200E-3	184.419E-12	512.850E-3	38.6184E-3
4.61981E-3	189.935E-12	537.142E-3	-26.1249E-3	184.621E-12	512.504E-3	9.09868E-3
4.61481E-3	188.463E-12	558.257E-3	-34.6691E-3	183.730E-12	492.365E-3	-5.88115E-3
4.60980E-3	186.348E-12	547.196E-3	-43.6696E-3	184.685E-12	475.521E-3	-8.68832E-3
4.60480E-3	188.815E-12	516.025E-3	-37.4492E-3	185.517E-12	476.361E-3	-2.08687E-3
4.59980E-3	189.548E-12	505.512E-3	-15.4773E-3	187.198E-12	503.823E-3	-7.90266E-3
4.59480E-3	188.147E-12	499.837E-3	-4.27080E-3	187.660E-12	531.777E-3	-11.5389E-3
4.58979E-3	186.642E-12	502.304E-3	-17.9060E-3	189.165E-12	542.735E-3	-19.8599E-3
4.58479E-3	184.640E-12	517.150E-3	-19.7034E-3	189.229E-12	535.129E-3	-49.8789E-3
4.57979E-3	186.695E-12	519.271E-3	-9.43921E-3	189.028E-12	529.431E-3	-59.8065E-3
4.57479E-3	185.903E-12	525.996E-3	-12.5794E-3	188.348E-12	537.988E-3	-34.2404E-3
4.56978E-3	184.864E-12	543.607E-3	-3.20141E-3	188.189E-12	527.276E-3	-17.4098E-3
4.56478E-3	183.010E-12	530.019E-3	14.1382E-3	187.389E-12	488.505E-3	-18.9543E-3
4.55978E-3	184.106E-12	507.214E-3	11.4738E-3	186.042E-12	471.975E-3	-12.1824E-3
4.55478E-3	184.802E-12	509.824E-3	-15.8080E-3	184.525E-12	492.154E-3	6.22176E-3
4.54977E-3	184.266E-12	505.137E-3	-36.1026E-3	184.608E-12	504.401E-3	16.7448E-3
4.54477E-3	183.468E-12	508.165E-3	-33.0904E-3	183.624E-12	498.054E-3	13.2987E-3
4.53977E-3	184.668E-12	517.685E-3	-49.8713E-3	183.546E-12	465.335E-3	-10.5220E-3
4.53477E-3	186.061E-12	517.757E-3	-68.4051E-3	183.526E-12	430.080E-3	-19.8418E-3
4.52976E-3	186.305E-12	509.082E-3	-57.0461E-3	184.090E-12	443.423E-3	-2.32142E-3
4.52476E-3	187.289E-12	502.666E-3	-39.2065E-3	183.269E-12	467.710E-3	4.21359E-3
4.51976E-3	186.695E-12	508.882E-3	-29.7848E-3	184.114E-12	470.833E-3	9.14253E-3
4.51476E-3	187.782E-12	503.437E-3	-15.5826E-3	184.976E-12	495.615E-3	3.37597E-3
4.50975E-3	187.195E-12	500.804E-3	-20.8204E-3	186.537E-12	522.718E-3	-33.2264E-3
4.50475E-3	187.004E-12	488.941E-3	-42.5094E-3	185.985E-12	504.885E-3	-59.9991E-3
4.49975E-3	186.563E-12	474.636E-3	-34.1425E-3	186.234E-12	490.091E-3	-56.0705E-3
4.49475E-3	185.846E-12	502.300E-3	-20.0216E-3	187.063E-12	495.495E-3	-70.2297E-3
4.48974E-3	184.083E-12	529.530E-3	-6.24278E-3	188.019E-12	512.007E-3	-73.8478E-3
4.48474E-3	182.806E-12	497.373E-3	9.46974E-3	186.572E-12	528.256E-3	-42.1918E-3
4.47974E-3	182.330E-12	448.827E-3	-23.1374E-3	186.006E-12	516.062E-3	-31.2953E-3
4.47474E-3	181.015E-12	461.705E-3	-49.5960E-3	185.935E-12	507.843E-3	-50.1124E-3
4.46973E-3	181.302E-12	493.908E-3	-22.1640E-3	186.867E-12	500.325E-3	-53.5070E-3
4.46473E-3	180.330E-12	499.598E-3	-17.5830E-3	186.421E-12	468.591E-3	-37.7836E-3
4.45973E-3	179.308E-12	493.019E-3	-36.5922E-3	185.458E-12	466.000E-3	-52.8796E-3
4.45473E-3	179.768E-12	471.670E-3	-37.5586E-3	184.038E-12	500.085E-3	-74.1637E-3
4.44972E-3	180.452E-12	462.297E-3	-31.9061E-3	184.208E-12	533.169E-3	-59.4505E-3
4.44472E-3	180.455E-12	500.149E-3	-32.2017E-3	183.891E-12	536.056E-3	-31.1226E-3
4.43972E-3	180.301E-12	554.184E-3	-23.8857E-3	183.593E-12	517.820E-3	2.53173E-3
4.43472E-3	182.507E-12	561.767E-3	-641.401E-6	182.931E-12	519.855E-3	9.45866E-3
4.42971E-3	183.329E-12	521.877E-3	-1.75976E-3	182.127E-12	516.408E-3	-5.11036E-3
4.42471E-3	183.721E-12	491.041E-3	-28.3859E-3	181.736E-12	492.231E-3	-1.72423E-3
4.41971E-3	184.750E-12	498.095E-3	-20.1310E-3	182.058E-12	452.548E-3	-895.186E-6
4.41471E-3	184.368E-12	524.943E-3	9.82126E-3	180.135E-12	442.796E-3	-9.05614E-3
4.40970E-3	184.180E-12	541.764E-3	-28.3770E-3	180.101E-12	489.943E-3	-7.62179E-3
4.40470E-3	182.648E-12	510.697E-3	-78.6555E-3	180.283E-12	512.998E-3	-4.07317E-3
4.39970E-3	182.369E-12	466.140E-3	-54.6599E-3	180.879E-12	503.913E-3	-14.6105E-3
4.39470E-3	180.509E-12	470.076E-3	-12.8663E-3	179.509E-12	516.994E-3	-23.0757E-3
4.38969E-3	180.159E-12	506.810E-3	-11.6059E-3	178.394E-12	538.983E-3	-32.6522E-3
4.38469E-3	179.697E-12	544.545E-3	-36.7639E-3	179.796E-12	545.236E-3	-36.1594E-3
4.37969E-3	178.754E-12	547.051E-3	-42.6394E-3	180.364E-12	541.653E-3	-28.1320E-3
4.37469E-3	178.472E-12	507.714E-3	-38.1509E-3	180.387E-12	532.933E-3	-27.9800E-3
4.36968E-3	177.686E-12	486.531E-3	-49.4707E-3	179.452E-12	524.106E-3	-31.7300E-3
4.36468E-3	179.133E-12	500.300E-3	-41.6438E-3	179.853E-12	506.829E-3	-16.4251E-3
4.35968E-3	179.242E-12	496.887E-3	-16.9675E-3	180.595E-12	482.375E-3	3.07825E-3
4.35468E-3	179.413E-12	485.670E-3	-26.1509E-3	180.569E-12	479.414E-3	-12.4059E-3
4.34967E-3	178.661E-12	501.304E-3	-24.6293E-3	179.334E-12	508.376E-3	-46.2421E-3
4.34467E-3	178.992E-12	517.654E-3	-20.0601E-3	178.939E-12	548.136E-3	-52.7936E-3
4.33967E-3	180.254E-12	525.037E-3	-32.9552E-3	178.529E-12	532.763E-3	-29.6097E-3
4.33467E-3	180.704E-12	518.928E-3	-19.6669E-3	179.440E-12	483.324E-3	-12.8887E-3
4.32966E-3	180.266E-12	499.348E-3	-2.64538E-3	178.177E-12	479.358E-3	2.99645E-3
4.32466E-3	179.722E-12	499.962E-3	-7.85243E-3	176.531E-12	487.732E-3	13.9357E-3
4.31966E-3	180.454E-12	507.451E-3	-18.1789E-3	175.019E-12	477.938E-3	6.42657E-3
4.31466E-3	179.127E-12	510.193E-3	-9.49003E-3	176.117E-12	480.558E-3	-6.10791E-3
4.30965E-3	179.273E-12	502.555E-3	12.7003E-3	175.014E-12	502.155E-3	-33.3452E-3
4.30465E-3	177.692E-12	474.129E-3	12.8985E-3	174.405E-12	508.220E-3	-53.4993E-3
4.29965E-3	179.707E-12	460.914E-3	-9.99090E-3	173.874E-12	510.551E-3	-34.9379E-3
4.29465E-3	178.777E-12	476.118E-3	-20.2313E-3	173.875E-12	526.580E-3	-19.1078E-3
4.28964E-3	178.305E-12	498.673E-3	-19.5341E-3	175.014E-12	513.603E-3	-24.3771E-3
4.28464E-3	177.002E-12	498.361E-3	-21.9091E-3	175.459E-12	500.247E-3	-15.5041E-3
4.27964E-3	177.886E-12	491.491E-3	-19.0937E-3	175.771E-12	507.511E-3	-1.89035E-3
4.27464E-3	177.685E-12	505.432E-3	-8.42569E-3	177.136E-12	506.316E-3	-8.40260E-3
4.26963E-3	176.979E-12	512.857E-3	-8.66771E-3	178.379E-12	516.917E-3	-11.2039E-3
4.26463E-3	175.794E-12	493.010E-3	-25.5044E-3	178.845E-12	527.535E-3	-17.2224E-3
4.25963E-3	175.568E-12	473.554E-3	-26.8801E-3	179.541E-12	520.518E-3	-22.6258E-3
4.25463E-3	174.945E-12	488.324E-3	-10.0197E-3	178.405E-12	517.866E-3	-13.7394E-3
4.24962E-3	176.518E-12	524.701E-3	-31.7206E-3	178.494E-12	518.404E-3	-17.3849E-3
4.24462E-3	174.911E-12	521.362E-3	-70.4616E-3	177.430E-12	525.536E-3	-20.3488E-3
4.23962E-3	174.653E-12	480.871E-3	-62.7052E-3	177.007E-12	537.975E-3	-6.60468E-3
4.23462E-3	173.311E-12	468.455E-3	-43.7550E-3	175.782E-12	534.812E-3	-6.91970E-3
4.22961E-3	174.861E-12	486.426E-3	-31.8017E-3	175.062E-12	500.103E-3	-29.4170E-3
4.22461E-3	174.011E-12	491.960E-3	-24.4376E-3	173.705E-12	475.999E-3	-39.3513E-3
4.21961E-3	173.884E-12	486.563E-3	-20.7567E-3	172.138E-12	507.920E-3	-34.9184E-3
4.21461E-3	172.227E-12	489.794E-3	-8.58259E-3	172.108E-12	527.767E-3	-29.8340E-3
4.20960E-3	173.337E-12	487.150E-3	-7.57203E-3	171.210E-12	495.350E-3	-29.8750E-3
4.20460E-3	173.151E-12	482.197E-3	-9.80483E-3	170.528E-12	471.182E-3	-33.6459E-3
4.19960E-3	173.077E-12	481.311E-3	2.13535E-3	170.518E-12	484.642E-3	-52.2426E-3
4.19460E-3	173.458E-12	492.302E-3	28.5815E-3	171.561E-12	500.075E-3	-54.9767E-3
4.18959E-3	174.551E-12	505.981E-3	33.9866E-3	171.992E-12	501.322E-3	-27.5591E-3
4.18459E-3	174.922E-12	510.661E-3	-10.1546E-3	171.682E-12	499.006E-3	-9.04676E-3
4.17959E-3	174.545E-12	527.332E-3	-33.7057E-3	174.299E-12	482.291E-3	18.5131E-3
4.17459E-3	174.748E-12	529.852E-3	-603.054E-6	175.875E-12	456.774E-3	42.3997E-3
4.16958E-3	174.653E-12	495.564E-3	16.6377E-3	175.410E-12	467.272E-3	11.5959E-3
4.16458E-3	173.442E-12	468.164E-3	18.0105E-3	174.642E-12	515.707E-3	-27.8872E-3
4.15958E-3	172.712E-12	461.589E-3	26.6662E-3	176.476E-12	539.577E-3	-19.5150E-3
4.15458E-3	172.724E-12	464.862E-3	5.00089E-3	177.167E-12	523.826E-3	-9.35287E-3
4.14957E-3	171.966E-12	478.878E-3	-21.5246E-3	175.532E-12	509.750E-3	-33.2669E-3
4.14457E-3	170.501E-12	489.976E-3	-13.5610E-3	172.567E-12	504.767E-3	-47.1772E-3
4.13957E-3	171.636E-12	501.849E-3	-13.6136E-3	172.988E-12	489.022E-3	-28.9581E-3
4.13457E-3	171.225E-12	486.396E-3	-28.0370E-3	172.435E-12	482.089E-3	-8.86885E-3
4.12956E-3	171.241E-12	458.878E-3	-23.8157E-3	170.359E-12	498.158E-3	-15.2363E-3
4.12456E-3	170.530E-12	467.301E-3	-21.3875E-3	167.575E-12	496.928E-3	-30.0070E-3
4.11956E-3	170.129E-12	485.447E-3	-34.9813E-3	167.106E-12	477.563E-3	-21.0540E-3
4.11456E-3	171.841E-12	494.426E-3	-33.2126E-3	167.478E-12	491.547E-3	-1.09442E-3
4.10955E-3	172.349E-12	490.358E-3	-11.7574E-3	167.456E-12	528.723E-3	8.47607E-3
4.10455E-3	172.490E-12	497.837E-3	-4.72397E-3	165.600E-12	526.574E-3	-3.25795E-3
4.09955E-3	172.425E-12	517.592E-3	-13.9886E-3	165.617E-12	500.150E-3	-25.2257E-3
4.09455E-3	172.612E-12	515.119E-3	-15.6851E-3	166.905E-12	494.747E-3	-38.4173E-3
4.08954E-3	173.266E-12	505.059E-3	-12.1342E-3	168.647E-12	502.141E-3	-23.2792E-3
4.08454E-3	173.114E-12	514.704E-3	-20.1564E-3	169.619E-12	520.369E-3	5.22457E-3
4.07954E-3	172.899E-12	525.028E-3	-39.2899E-3	169.000E-12	539.801E-3	-4.14854E-3
4.07454E-3	171.855E-12	522.025E-3	-46.0134E-3	169.660E-12	546.522E-3	-29.3212E-3
4.06953E-3	170.044E-12	526.523E-3	-11.7232E-3	170.631E-12	559.168E-3	-33.9683E-3
4.06453E-3	169.991E-12	531.632E-3	18.4875E-3	171.945E-12	548.104E-3	-42.4194E-3
4.05953E-3	168.812E-12	533.297E-3	-14.8617E-3	171.006E-12	501.743E-3	-28.2031E-3
4.05453E-3	168.239E-12	533.515E-3	-60.6632E-3	170.693E-12	484.124E-3	361.817E-6
4.04952E-3	166.365E-12	521.973E-3	-46.0181E-3	170.088E-12	503.402E-3	-18.8432E-3
4.04452E-3	166.876E-12	514.381E-3	6.85216E-3	170.921E-12	522.133E-3	-49.8162E-3
4.03952E-3	165.298E-12	528.729E-3	15.6424E-3	169.067E-12	556.582E-3	-38.9104E-3
4.03452E-3	165.285E-12	546.218E-3	-10.8350E-3	167.777E-12	571.362E-3	-23.4671E-3
4.02951E-3	165.753E-12	538.332E-3	-29.5276E-3	166.728E-12	526.632E-3	-30.7966E-3
4.02451E-3	165.928E-12	497.230E-3	-45.9922E-3	166.671E-12	494.735E-3	-25.7248E-3
4.01951E-3	166.301E-12	479.918E-3	-53.0840E-3	165.837E-12	506.250E-3	-24.3996E-3
4.01451E-3	165.874E-12	494.197E-3	-39.4225E-3	165.970E-12	516.341E-3	-46.3893E-3
4.00950E-3	167.129E-12	492.147E-3	-22.0275E-3	165.961E-12	506.068E-3	-42.4980E-3
4.00450E-3	168.618E-12	480.088E-3	-25.9509E-3	165.717E-12	490.233E-3	-12.5322E-3
3.99950E-3	169.060E-12	479.223E-3	-31.9196E-3	165.524E-12	474.916E-3	5.14961E-3
3.99450E-3	169.308E-12	511.645E-3	-25.9936E-3	165.602E-12	471.775E-3	11.0320E-3
3.98949E-3	168.867E-12	536.002E-3	-23.2419E-3	165.718E-12	508.139E-3	7.80632E-3
3.98449E-3	168.871E-12	524.809E-3	-31.5698E-3	164.941E-12	538.803E-3	-5.89512E-3
3.97949E-3	168.883E-12	506.209E-3	-31.3975E-3	164.777E-12	519.094E-3	-17.3913E-3
3.97449E-3	169.348E-12	489.645E-3	-7.47112E-3	165.864E-12	501.099E-3	-21.0459E-3
3.96948E-3	167.271E-12	492.273E-3	11.3220E-3	167.417E-12	508.936E-3	-21.6331E-3
3.96448E-3	166.216E-12	512.510E-3	22.0249E-6	166.462E-12	533.415E-3	-15.3911E-3
3.95948E-3	165.326E-12	518.825E-3	-24.1043E-3	165.606E-12	533.476E-3	-10.9801E-3
3.95448E-3	164.523E-12	513.828E-3	-22.7660E-3	166.179E-12	514.068E-3	-82.2141E-6
3.94947E-3	163.062E-12	513.928E-3	7.63578E-3	166.742E-12	527.291E-3	9.55992E-3
3.94447E-3	161.537E-12	527.423E-3	17.1874E-3	167.586E-12	527.144E-3	-10.6492E-3
3.93947E-3	162.883E-12	521.975E-3	-15.0107E-3	166.180E-12	514.649E-3	-36.9788E-3
3.93447E-3	163.273E-12	505.262E-3	-49.6862E-3	166.843E-12	512.661E-3	-49.7748E-3
3.92946E-3	163.022E-12	530.956E-3	-59.8643E-3	166.761E-12	512.702E-3	-42.2072E-3
3.92446E-3	162.569E-12	550.436E-3	-47.8778E-3	167.529E-12	525.000E-3	-3.96832E-3
3.91946E-3	163.042E-12	529.992E-3	-33.7950E-3	166.869E-12	525.777E-3	17.7193E-3
3.91446E-3	163.467E-12	506.426E-3	-25.2307E-3	165.710E-12	505.993E-3	-10.5688E-3
3.90945E-3	165.452E-12	503.477E-3	-20.2516E-3	165.118E-12	490.814E-3	-25.6218E-3
3.90445E-3	165.108E-12	522.791E-3	-19.5159E-3	164.262E-12	499.328E-3	-11.0978E-3
3.89945E-3	165.305E-12	527.884E-3	-7.46355E-3	163.620E-12	508.313E-3	-12.8984E-3
3.89445E-3	165.204E-12	510.552E-3	4.12995E-3	162.283E-12	499.518E-3	-25.2833E-3
3.88944E-3	165.303E-12	512.298E-3	-253.610E-6	161.597E-12	497.544E-3	-20.6732E-3
3.88444E-3	165.434E-12	524.829E-3	-17.2546E-3	161.041E-12	519.023E-3	-1.71022E-3
3.87944E-3	164.601E-12	520.443E-3	-44.8692E-3	161.088E-12	527.974E-3	14.1352E-3
3.87444E-3	163.910E-12	518.479E-3	-68.1291E-3	160.509E-12	509.300E-3	8.13321E-3
3.86943E-3	163.532E-12	532.053E-3	-74.0990E-3	160.703E-12	503.054E-3	-21.7158E-3
3.86443E-3	163.385E-12	553.027E-3	-61.9708E-3	161.091E-12	510.651E-3	-41.1307E-3
3.85943E-3	161.957E-12	558.203E-3	-49.2753E-3	161.495E-12	510.202E-3	-43.8402E-3
3.85443E-3	160.622E-12	540.119E-3	-52.6821E-3	161.484E-12	510.296E-3	-41.0184E-3
3.84942E-3	159.987E-12	523.600E-3	-32.2256E-3	162.388E-12	516.055E-3	-31.6638E-3
3.84442E-3	160.318E-12	520.206E-3	6.82677E-3	162.866E-12	528.740E-3	-17.1121E-3
3.83942E-3	160.086E-12	511.076E-3	29.1214E-3	163.539E-12	531.096E-3	-10.2523E-3
3.83442E-3	159.257E-12	500.218E-3	28.7780E-3	163.627E-12	515.083E-3	-16.7453E-3
3.82941E-3	159.967E-12	482.287E-3	-7.67750E-3	164.097E-12	507.430E-3	-17.6311E-3
3.82441E-3	160.284E-12	473.562E-3	-26.3310E-3	163.549E-12	520.265E-3	-17.5297E-3
3.81941E-3	160.523E-12	488.039E-3	-14.6169E-3	162.643E-12	534.157E-3	-30.7906E-3
3.81441E-3	160.794E-12	491.620E-3	-27.2403E-3	162.006E-12	526.475E-3	-40.9411E-3
3.80940E-3	159.758E-12	492.048E-3	-51.8214E-3	161.318E-12	514.066E-3	-21.7787E-3
3.80440E-3	159.390E-12	498.256E-3	-50.8258E-3	160.576E-12	517.095E-3	-9.26065E-3
3.79940E-3	159.406E-12	502.301E-3	-38.3308E-3	158.912E-12	516.856E-3	-37.7037E-3
3.79440E-3	160.318E-12	508.601E-3	-25.8381E-3	157.199E-12	505.583E-3	-58.1140E-3
3.78939E-3	159.669E-12	523.591E-3	-12.5685E-3	155.901E-12	512.417E-3	-36.7936E-3
3.78439E-3	158.272E-12	531.209E-3	-20.5980E-3	155.915E-12	539.401E-3	-14.0547E-3
3.77939E-3	158.920E-12	525.007E-3	-29.2478E-3	155.031E-12	549.074E-3	-633.921E-6
3.77439E-3	159.518E-12	500.952E-3	-7.13916E-3	153.653E-12	535.821E-3	-3.41160E-3
3.76938E-3	159.021E-12	471.813E-3	4.66854E-3	153.130E-12	529.619E-3	-28.0543E-3
3.76438E-3	157.353E-12	485.303E-3	-3.60148E-3	154.528E-12	528.912E-3	-27.3937E-3
3.75938E-3	157.943E-12	518.934E-3	-3.94679E-3	156.333E-12	528.878E-3	-24.2727E-3
3.75438E-3	157.882E-12	507.080E-3	-15.0757E-3	156.518E-12	522.203E-3	-40.1645E-3
3.74937E-3	157.986E-12	481.481E-3	-14.5320E-3	156.075E-12	515.704E-3	-48.3102E-3
3.74437E-3	157.815E-12	488.724E-3	16.3204E-3	157.455E-12	546.639E-3	-44.9056E-3
3.73937E-3	156.744E-12	510.828E-3	19.4339E-3	159.522E-12	556.904E-3	-39.7919E-3
3.73437E-3	157.316E-12	542.379E-3	-19.4680E-3	160.358E-12	531.384E-3	-34.4891E-3
3.72936E-3	156.195E-12	554.000E-3	-32.8797E-3	158.902E-12	525.032E-3	-35.2644E-3
3.72436E-3	156.995E-12	543.886E-3	-19.8399E-3	157.068E-12	518.980E-3	-49.7340E-3
3.71936E-3	156.102E-12	542.489E-3	-9.87231E-3	157.869E-12	516.175E-3	-46.5617E-3
3.71436E-3	155.734E-12	544.450E-3	3.24365E-3	158.468E-12	534.511E-3	-28.3479E-3
3.70935E-3	156.047E-12	547.874E-3	-6.91161E-3	156.705E-12	553.116E-3	-15.2908E-3
3.70435E-3	156.611E-12	550.889E-3	-25.7891E-3	154.109E-12	541.967E-3	-12.7845E-3
3.69935E-3	156.992E-12	533.188E-3	-24.8890E-3	152.349E-12	524.568E-3	-31.4519E-3
3.69435E-3	154.794E-12	514.681E-3	-23.0269E-3	153.360E-12	525.690E-3	-38.8577E-3
3.68934E-3	155.706E-12	531.149E-3	-17.0878E-3	153.577E-12	523.036E-3	-13.0956E-3
3.68434E-3	155.762E-12	558.403E-3	-13.0233E-3	151.377E-12	514.553E-3	26.7669E-3
3.67934E-3	158.185E-12	570.166E-3	-18.8709E-3	149.018E-12	514.473E-3	31.8007E-3
3.67434E-3	156.941E-12	564.434E-3	-18.7563E-3	150.553E-12	521.744E-3	-7.98583E-3
3.66933E-3	157.276E-12	549.970E-3	-15.3776E-3	152.832E-12	529.174E-3	-25.1011E-3
3.66433E-3	157.669E-12	535.112E-3	-13.0754E-3	154.023E-12	534.871E-3	-23.8937E-3
3.65933E-3	157.719E-12	519.080E-3	6.60069E-3	153.524E-12	529.373E-3	-10.3718E-3
3.65433E-3	156.821E-12	499.199E-3	28.6364E-3	153.235E-12	518.872E-3	20.2621E-3
3.64932E-3	155.361E-12	493.120E-3	16.5816E-3	156.227E-12	536.293E-3	6.99574E-3
3.64432E-3	155.666E-12	519.051E-3	-6.69012E-3	158.699E-12	566.504E-3	-20.2612E-3
3.63932E-3	154.976E-12	542.150E-3	-4.80389E-3	158.124E-12	562.489E-3	-22.5739E-3
3.63432E-3	154.821E-12	532.486E-3	13.4033E-3	157.138E-12	551.488E-3	-15.0866E-3
3.62931E-3	153.192E-12	508.114E-3	11.3979E-3	156.772E-12	548.786E-3	2.56361E-3
3.62431E-3	152.611E-12	491.307E-3	-12.0663E-3	158.262E-12	539.297E-3	-8.95137E-3
3.61931E-3	150.629E-12	489.926E-3	4.86193E-3	156.156E-12	535.526E-3	-36.1664E-3
3.61431E-3	149.813E-12	512.813E-3	29.4577E-3	155.000E-12	543.817E-3	-22.6983E-3
3.60930E-3	148.868E-12	539.762E-3	5.83316E-3	154.453E-12	553.440E-3	15.1269E-3
3.60430E-3	148.199E-12	538.367E-3	-8.64923E-3	153.964E-12	551.661E-3	16.6730E-3
3.59930E-3	148.147E-12	513.577E-3	-10.9145E-3	152.792E-12	539.370E-3	-13.2151E-3
3.59430E-3	149.495E-12	493.253E-3	-12.4297E-3	150.916E-12	523.715E-3	-13.9224E-3
3.58929E-3	150.919E-12	491.589E-3	1.31069E-3	149.701E-12	517.355E-3	1.78760E-3
3.58429E-3	150.314E-12	495.605E-3	19.4497E-3	149.303E-12	517.586E-3	12.0132E-3
3.57929E-3	151.719E-12	504.100E-3	17.4018E-3	148.910E-12	511.650E-3	3.32070E-3
3.57429E-3	153.264E-12	496.199E-3	-5.59785E-3	149.437E-12	510.919E-3	-38.2561E-3
3.56928E-3	153.589E-12	488.728E-3	-24.2484E-3	147.994E-12	517.348E-3	-71.4882E-3
3.56428E-3	153.232E-12	531.519E-3	-19.6073E-3	148.240E-12	523.050E-3	-64.7966E-3
3.55928E-3	153.908E-12	576.603E-3	-10.6822E-3	149.036E-12	527.652E-3	-37.9082E-3
3.55428E-3	154.484E-12	578.839E-3	-16.7026E-3	149.403E-12	528.505E-3	-13.2913E-3
3.54927E-3	153.281E-12	559.790E-3	-22.6310E-3	149.014E-12	538.164E-3	1.97447E-3
3.54427E-3	152.868E-12	532.497E-3	-20.7213E-3	149.412E-12	538.213E-3	-9.92739E-3
3.53927E-3	151.516E-12	510.804E-3	-17.5546E-3	151.294E-12	526.852E-3	-28.7609E-3
3.53427E-3	151.451E-12	522.662E-3	-32.8179E-3	150.004E-12	524.385E-3	-36.2646E-3
3.52926E-3	149.020E-12	554.454E-3	-40.6910E-3	150.208E-12	518.182E-3	-38.9709E-3
3.52426E-3	148.737E-12	558.623E-3	-18.3435E-3	149.854E-12	527.728E-3	-34.2522E-3
3.51926E-3	148.052E-12	543.520E-3	-486.285E-6	151.210E-12	545.223E-3	-30.4374E-3
3.51426E-3	148.046E-12	534.544E-3	4.63772E-3	149.889E-12	530.722E-3	-21.5106E-3
3.50925E-3	147.434E-12	501.664E-3	6.16299E-3	149.591E-12	509.555E-3	-22.9021E-3
3.50425E-3	148.069E-12	482.176E-3	-12.5075E-3	148.644E-12	520.895E-3	-28.0682E-3
3.49925E-3	147.966E-12	504.188E-3	-26.3100E-3	148.594E-12	542.796E-3	-935.241E-6
3.49425E-3	148.401E-12	509.310E-3	-32.8549E-3	148.285E-12	547.097E-3	22.0863E-3
3.48924E-3	149.194E-12	507.037E-3	-51.0900E-3	147.287E-12	542.802E-3	9.36092E-3
3.48424E-3	149.512E-12	514.414E-3	-32.6009E-3	146.814E-12	537.029E-3	-14.6324E-3
3.47924E-3	150.437E-12	506.643E-3	5.09509E-3	146.103E-12	522.207E-3	-34.5141E-3
3.47424E-3	151.028E-12	509.757E-3	6.35191E-3	146.540E-12	495.689E-3	-31.7173E-3
3.46923E-3	152.453E-12	527.324E-3	-5.26296E-3	144.964E-12	487.673E-3	-9.05256E-3
3.46423E-3	152.783E-12	543.733E-3	-14.2271E-3	144.965E-12	495.166E-3	-5.76209E-3
3.45923E-3	151.523E-12	562.504E-3	-28.2221E-3	145.516E-12	498.403E-3	-13.0037E-3
3.45423E-3	150.517E-12	565.928E-3	-26.4096E-3	145.427E-12	520.780E-3	-21.4602E-3
3.44922E-3	149.541E-12	553.616E-3	-7.89177E-3	145.877E-12	549.845E-3	-31.0460E-3
3.44422E-3	148.831E-12	537.467E-3	2.45619E-3	145.266E-12	560.072E-3	-18.6699E-3
3.43922E-3	146.597E-12	520.444E-3	-3.12186E-3	146.521E-12	555.934E-3	-8.13871E-3
3.43422E-3	146.039E-12	525.712E-3	420.951E-6	147.960E-12	546.481E-3	-14.1241E-3
3.42921E-3	145.529E-12	540.705E-3	-3.11722E-3	148.287E-12	544.621E-3	-9.30632E-3
3.42421E-3	145.816E-12	531.229E-3	-27.1655E-3	149.001E-12	543.078E-3	804.547E-6
3.41921E-3	143.910E-12	506.657E-3	-19.0172E-3	149.424E-12	537.716E-3	-4.35667E-3
3.41421E-3	143.244E-12	486.423E-3	15.9655E-3	148.672E-12	539.648E-3	-23.0374E-3
3.40920E-3	144.352E-12	481.284E-3	24.6454E-3	148.846E-12	530.543E-3	-49.6170E-3
3.40420E-3	144.202E-12	493.879E-3	2.30567E-3	149.109E-12	525.782E-3	-63.1905E-3
3.39920E-3	145.018E-12	521.261E-3	-18.3327E-3	148.717E-12	544.082E-3	-38.8911E-3
3.39420E-3	143.831E-12	550.514E-3	-19.1896E-3	148.718E-12	552.776E-3	-14.6877E-3
3.38919E-3	144.661E-12	543.135E-3	-11.7135E-3	147.632E-12	547.784E-3	-12.4437E-3
3.38419E-3	145.329E-12	506.331E-3	-20.7258E-3	146.882E-12	530.488E-3	455.854E-6
3.37919E-3	146.205E-12	491.780E-3	-35.6764E-3	146.259E-12	512.949E-3	6.40850E-3
3.37419E-3	145.912E-12	506.195E-3	-44.0437E-3	144.956E-12	521.215E-3	-9.01288E-3
3.36918E-3	145.023E-12	519.910E-3	-49.7838E-3	142.945E-12	532.071E-3	-12.5399E-3
3.36418E-3	146.033E-12	517.545E-3	-46.6288E-3	142.360E-12	514.264E-3	-12.0000E-3
3.35918E-3	145.613E-12	509.660E-3	-35.4860E-3	143.049E-12	496.121E-3	-21.7799E-3
3.35418E-3	144.417E-12	523.780E-3	-20.4216E-3	141.972E-12	508.923E-3	-13.1708E-3
3.34917E-3	143.790E-12	553.315E-3	-5.55646E-3	141.480E-12	537.173E-3	1.56130E-3
3.34417E-3	144.198E-12	572.595E-3	5.67501E-3	140.759E-12	553.398E-3	-12.5887E-3
3.33917E-3	143.612E-12	559.341E-3	11.6437E-3	142.808E-12	557.077E-3	-42.2332E-3
3.33417E-3	143.302E-12	539.895E-3	9.29871E-3	144.463E-12	567.094E-3	-50.7188E-3
3.32916E-3	142.948E-12	537.199E-3	2.41769E-3	144.754E-12	568.746E-3	-35.0060E-3
3.32416E-3	142.884E-12	516.649E-3	7.78630E-3	145.000E-12	537.422E-3	-25.1787E-3
3.31916E-3	142.591E-12	499.777E-3	9.17913E-3	146.564E-12	521.161E-3	-32.9085E-3
3.31416E-3	142.381E-12	506.940E-3	-2.59320E-3	147.137E-12	534.206E-3	-38.2338E-3
3.30915E-3	142.668E-12	523.640E-3	-19.4998E-3	146.092E-12	536.143E-3	-29.2472E-3
3.30415E-3	142.039E-12	530.627E-3	-30.9142E-3	145.132E-12	541.931E-3	-11.4445E-3
3.29915E-3	141.672E-12	539.880E-3	-22.9879E-3	145.416E-12	550.329E-3	-2.27529E-3
3.29415E-3	141.289E-12	550.858E-3	-22.5924E-3	145.684E-12	552.893E-3	-13.7239E-3
3.28914E-3	142.378E-12	548.065E-3	-37.5685E-3	145.464E-12	551.345E-3	-28.1925E-3
3.28414E-3	141.781E-12	535.333E-3	-39.2985E-3	143.400E-12	542.670E-3	-30.3848E-3
3.27914E-3	140.756E-12	509.743E-3	-24.5604E-3	142.504E-12	522.837E-3	-22.8514E-3
3.27414E-3	141.799E-12	509.250E-3	-25.5883E-3	140.912E-12	500.796E-3	-5.62150E-3
3.26913E-3	142.395E-12	537.197E-3	-45.9499E-3	140.179E-12	517.083E-3	-12.0666E-3
3.26413E-3	142.083E-12	530.598E-3	-44.0900E-3	138.802E-12	549.568E-3	-43.1541E-3
3.25913E-3	141.037E-12	512.305E-3	-23.6194E-3	136.642E-12	544.166E-3	-42.2545E-3
3.25413E-3	140.966E-12	538.011E-3	-26.7710E-3	134.958E-12	526.707E-3	-18.4247E-3
3.24912E-3	142.133E-12	554.386E-3	-45.3505E-3	135.231E-12	527.745E-3	-17.6325E-3
3.24412E-3	143.618E-12	544.722E-3	-43.7815E-3	136.269E-12	526.279E-3	-28.1709E-3
3.23912E-3	142.890E-12	546.395E-3	-11.3877E-3	135.699E-12	521.553E-3	-26.1994E-3
3.23412E-3	142.909E-12	545.938E-3	27.9617E-3	136.145E-12	527.070E-3	-11.1638E-3
3.22911E-3	142.386E-12	535.924E-3	26.7831E-3	136.497E-12	525.865E-3	10.2456E-3
3.22411E-3	143.130E-12	536.417E-3	-9.96172E-3	138.536E-12	534.878E-3	19.7181E-3
3.21911E-3	142.357E-12	546.483E-3	-30.2120E-3	139.629E-12	550.198E-3	20.2035E-3
3.21411E-3	141.967E-12	536.967E-3	-18.4051E-3	140.691E-12	537.847E-3	17.5585E-3
3.20910E-3	140.395E-12	529.928E-3	-14.2902E-3	140.976E-12	543.337E-3	11.3378E-3
3.20410E-3	139.494E-12	554.267E-3	-35.3841E-3	141.760E-12	561.680E-3	11.6357E-3
3.19910E-3	139.163E-12	554.536E-3	-50.3049E-3	142.124E-12	549.509E-3	-2.53008E-3
3.19410E-3	138.930E-12	528.764E-3	-33.4359E-3	141.865E-12	537.965E-3	-23.9551E-3
3.18909E-3	137.058E-12	525.657E-3	-10.2322E-3	141.153E-12	528.028E-3	-28.7215E-3
3.18409E-3	135.538E-12	512.089E-3	-10.7879E-3	140.704E-12	499.743E-3	-21.2536E-3
3.17909E-3	135.682E-12	492.148E-3	-15.4194E-3	139.698E-12	481.129E-3	13.2129E-3
3.17409E-3	135.146E-12	489.036E-3	-13.6814E-3	138.492E-12	490.129E-3	29.1981E-3
3.16908E-3	133.899E-12	491.388E-3	-13.6393E-3	137.263E-12	502.228E-3	9.56063E-3
3.16408E-3	134.341E-12	505.770E-3	-34.1320E-3	136.281E-12	499.109E-3	-3.58494E-3
3.15908E-3	135.604E-12	507.576E-3	-53.7444E-3	134.943E-12	504.428E-3	-18.7001E-3
3.15408E-3	136.158E-12	493.058E-3	-52.2410E-3	134.517E-12	531.593E-3	-26.1753E-3
3.14907E-3	136.210E-12	492.831E-3	-50.3340E-3	133.655E-12	552.910E-3	-21.7065E-3
3.14407E-3	136.226E-12	512.059E-3	-53.1106E-3	133.645E-12	549.589E-3	-11.3483E-3
3.13907E-3	138.214E-12	532.681E-3	-44.1261E-3	132.926E-12	534.815E-3	-2.63455E-3
3.13407E-3	139.632E-12	542.328E-3	-24.2866E-3	133.061E-12	528.509E-3	-5.99158E-3
3.12906E-3	138.585E-12	539.910E-3	-21.2579E-3	134.263E-12	523.229E-3	-7.16038E-3
3.12406E-3	136.867E-12	514.325E-3	-23.8478E-3	135.016E-12	518.590E-3	7.87005E-3
3.11906E-3	137.554E-12	504.516E-3	-12.6721E-3	136.137E-12	525.046E-3	26.1154E-3
3.11406E-3	139.293E-12	536.954E-3	10.5512E-3	136.246E-12	529.542E-3	14.0018E-3
3.10905E-3	137.503E-12	546.347E-3	25.4923E-3	138.684E-12	536.167E-3	-19.3687E-3
3.10405E-3	134.924E-12	532.393E-3	11.3334E-3	138.979E-12	544.963E-3	-17.2605E-3
3.09905E-3	133.872E-12	535.893E-3	-12.0026E-3	140.432E-12	541.884E-3	9.46222E-3
3.09405E-3	134.237E-12	533.954E-3	-16.5081E-3	139.006E-12	535.656E-3	7.41121E-3
3.08904E-3	134.544E-12	530.894E-3	-15.3319E-3	138.500E-12	548.211E-3	-10.6889E-3
3.08404E-3	132.877E-12	542.280E-3	-12.1957E-3	138.779E-12	561.434E-3	-24.7810E-3
3.07904E-3	131.035E-12	542.925E-3	-1.93534E-3	137.577E-12	543.585E-3	-33.2082E-3
3.07404E-3	132.053E-12	523.431E-3	-6.88252E-3	136.392E-12	523.274E-3	-30.0694E-3
3.06903E-3	134.267E-12	510.113E-3	-13.3313E-3	134.850E-12	527.607E-3	-25.2939E-3
3.06403E-3	134.556E-12	511.057E-3	-8.07931E-3	135.106E-12	539.531E-3	-18.2008E-3
3.05903E-3	133.505E-12	516.777E-3	-23.2534E-3	133.475E-12	542.660E-3	745.248E-6
3.05403E-3	133.322E-12	540.241E-3	-51.1792E-3	132.035E-12	540.508E-3	-1.35570E-3
3.04902E-3	135.783E-12	564.878E-3	-48.4962E-3	130.401E-12	530.798E-3	-30.7397E-3
3.04402E-3	136.619E-12	555.546E-3	-34.0150E-3	130.391E-12	527.857E-3	-48.9475E-3
3.03902E-3	136.094E-12	539.723E-3	-31.5682E-3	130.772E-12	534.775E-3	-33.2673E-3
3.03402E-3	134.930E-12	537.990E-3	-11.0921E-3	130.178E-12	526.499E-3	1.17406E-3
3.02901E-3	135.088E-12	541.275E-3	8.68360E-3	130.002E-12	513.000E-3	7.53681E-3
3.02401E-3	135.220E-12	559.652E-3	-14.7876E-3	130.145E-12	515.785E-3	-17.4036E-3
3.01901E-3	134.118E-12	554.069E-3	-41.5256E-3	131.993E-12	515.180E-3	-32.7212E-3
3.01401E-3	132.721E-12	510.277E-3	-45.9605E-3	132.991E-12	519.170E-3	-25.0074E-3
3.00900E-3	131.560E-12	497.597E-3	-32.8493E-3	133.041E-12	530.270E-3	-23.6349E-3
3.00400E-3	131.566E-12	528.318E-3	-20.6725E-3	133.450E-12	517.609E-3	-31.7690E-3
2.99900E-3	130.949E-12	542.314E-3	-44.6725E-3	134.479E-12	519.413E-3	-27.6422E-3
2.99400E-3	129.937E-12	530.450E-3	-67.6069E-3	134.347E-12	541.379E-3	-27.9836E-3
2.98899E-3	129.013E-12	528.503E-3	-48.8939E-3	134.526E-12	544.441E-3	-35.0042E-3
2.98399E-3	128.771E-12	537.122E-3	-21.6381E-3	132.880E-12	541.124E-3	-29.1581E-3
2.97899E-3	130.289E-12	546.462E-3	-15.6635E-3	131.255E-12	540.960E-3	-9.40092E-3
2.97399E-3	130.023E-12	545.815E-3	-16.6972E-3	130.887E-12	528.304E-3	10.7494E-3
2.96898E-3	130.064E-12	538.327E-3	-18.8880E-3	131.262E-12	517.666E-3	7.35457E-3
2.96398E-3	129.896E-12	538.665E-3	-35.3976E-3	129.814E-12	535.338E-3	-3.94061E-3
2.95898E-3	131.608E-12	533.228E-3	-48.2579E-3	128.321E-12	551.554E-3	-6.19162E-3
2.95398E-3	131.904E-12	518.041E-3	-28.6933E-3	126.678E-12	543.148E-3	-10.8152E-3
2.94897E-3	131.803E-12	515.496E-3	-891.802E-6	127.226E-12	516.375E-3	-9.30158E-3
2.94397E-3	131.332E-12	534.982E-3	6.06481E-3	126.694E-12	487.427E-3	-5.44883E-3
2.93897E-3	131.348E-12	551.958E-3	-11.1598E-3	125.997E-12	489.830E-3	-5.18843E-3
2.93397E-3	131.861E-12	546.509E-3	-27.2101E-3	124.643E-12	512.631E-3	-6.15784E-3
2.92896E-3	130.089E-12	541.715E-3	-14.7955E-3	125.246E-12	526.161E-3	-15.9063E-3
2.92396E-3	129.979E-12	543.111E-3	-5.17938E-3	126.028E-12	530.391E-3	-12.2573E-3
2.91896E-3	128.709E-12	539.125E-3	-20.3308E-3	126.776E-12	543.581E-3	-1.44978E-3
2.91396E-3	129.379E-12	535.215E-3	-38.1653E-3	126.716E-12	551.702E-3	-14.3833E-3
2.90895E-3	128.789E-12	529.487E-3	-24.4814E-3	127.063E-12	550.434E-3	-27.2081E-3
2.90395E-3	128.474E-12	514.933E-3	3.05738E-3	127.801E-12	572.506E-3	-14.3491E-3
2.89895E-3	127.158E-12	509.396E-3	4.59723E-3	128.925E-12	582.920E-3	-4.26411E-3
2.89395E-3	127.384E-12	512.018E-3	-13.6763E-3	129.622E-12	553.728E-3	-15.3878E-3
2.88894E-3	127.573E-12	503.437E-3	-15.4320E-3	130.216E-12	538.037E-3	-13.3537E-3
2.88394E-3	127.697E-12	503.099E-3	-1.19632E-3	130.086E-12	553.946E-3	-10.7872E-3
2.87894E-3	126.789E-12	508.442E-3	9.01094E-3	130.628E-12	552.998E-3	-11.1555E-3
2.87394E-3	125.658E-12	515.981E-3	17.9703E-3	130.412E-12	538.104E-3	-130.885E-6
2.86893E-3	127.484E-12	526.468E-3	22.6886E-3	129.974E-12	538.994E-3	-3.79777E-3
2.86393E-3	127.404E-12	517.246E-3	18.6116E-3	129.341E-12	525.557E-3	-19.7282E-3
2.85893E-3	127.482E-12	513.535E-3	-6.21487E-3	129.374E-12	519.335E-3	-26.3640E-3
2.85393E-3	125.735E-12	524.493E-3	-27.8241E-3	128.815E-12	536.851E-3	-18.5350E-3
2.84892E-3	125.975E-12	516.274E-3	-30.1040E-3	127.700E-12	524.519E-3	-21.4843E-3
2.84392E-3	126.744E-12	506.617E-3	-25.4253E-3	126.719E-12	516.801E-3	-30.5874E-3
2.83892E-3	127.445E-12	520.742E-3	-23.3231E-3	125.796E-12	548.403E-3	-37.8894E-3
2.83392E-3	127.099E-12	545.682E-3	-19.5277E-3	125.878E-12	567.516E-3	-37.8664E-3
2.82891E-3	125.204E-12	557.536E-3	-15.6768E-3	125.034E-12	550.724E-3	-7.98931E-3
2.82391E-3	126.435E-12	545.595E-3	-10.6120E-3	124.748E-12	533.238E-3	21.0370E-3
2.81891E-3	126.685E-12	534.881E-3	2.48368E-3	123.774E-12	542.204E-3	13.7286E-3
2.81391E-3	126.756E-12	535.257E-3	-12.3761E-3	123.834E-12	554.827E-3	-3.40419E-3
2.80890E-3	125.126E-12	531.603E-3	-31.6520E-3	124.037E-12	569.278E-3	-23.3973E-3
2.80390E-3	124.527E-12	521.161E-3	-15.9718E-3	124.043E-12	580.088E-3	-40.9358E-3
2.79890E-3	125.498E-12	509.419E-3	-3.37302E-3	125.393E-12	558.993E-3	-29.0176E-3
2.79390E-3	125.188E-12	501.918E-3	1.11657E-3	126.881E-12	544.707E-3	-18.2650E-3
2.78889E-3	125.142E-12	502.633E-3	4.85747E-3	128.473E-12	560.453E-3	-25.0439E-3
2.78389E-3	123.655E-12	512.586E-3	-10.2724E-3	128.156E-12	570.225E-3	-32.4436E-3
2.77889E-3	124.155E-12	525.592E-3	-23.1673E-3	128.635E-12	556.329E-3	-43.6418E-3
2.77389E-3	124.825E-12	530.421E-3	-13.4645E-3	129.448E-12	541.146E-3	-65.0850E-3
2.76888E-3	123.774E-12	518.763E-3	-2.91202E-3	129.043E-12	548.004E-3	-64.8537E-3
2.76388E-3	123.124E-12	516.269E-3	-5.06129E-3	127.688E-12	553.758E-3	-41.1186E-3
2.75888E-3	122.298E-12	535.119E-3	-10.5793E-3	126.081E-12	559.574E-3	-40.7761E-3
2.75388E-3	122.554E-12	533.046E-3	-4.03981E-3	125.636E-12	543.551E-3	-34.4108E-3
2.74887E-3	121.584E-12	513.237E-3	8.25201E-3	124.344E-12	507.487E-3	-3.38514E-3
2.74387E-3	122.230E-12	514.147E-3	18.8340E-3	122.470E-12	510.756E-3	-2.64199E-3
2.73887E-3	121.604E-12	522.277E-3	19.4111E-3	120.111E-12	523.692E-3	-26.5481E-3
2.73387E-3	121.942E-12	518.046E-3	8.10001E-3	119.241E-12	520.303E-3	-35.2159E-3
2.72886E-3	122.194E-12	511.548E-3	21.0117E-3	118.126E-12	514.537E-3	-30.8346E-3
2.72386E-3	122.385E-12	497.580E-3	35.7099E-3	117.711E-12	515.405E-3	-27.1238E-3
2.71886E-3	121.290E-12	489.633E-3	14.4468E-3	116.902E-12	531.709E-3	-30.2006E-3
2.71386E-3	121.283E-12	499.890E-3	-16.7565E-3	117.120E-12	558.422E-3	-27.5567E-3
2.70885E-3	122.167E-12	502.751E-3	-43.6649E-3	117.627E-12	575.580E-3	-15.7368E-3
2.70385E-3	121.865E-12	504.624E-3	-56.5275E-3	119.396E-12	569.614E-3	-2.84039E-3
2.69885E-3	120.817E-12	520.219E-3	-40.6021E-3	120.291E-12	558.925E-3	-5.98518E-3
2.69385E-3	119.962E-12	524.086E-3	-18.4787E-3	121.505E-12	548.449E-3	-25.1480E-3
2.68884E-3	121.041E-12	516.511E-3	-11.6955E-3	121.824E-12	551.393E-3	-30.2450E-3
2.68384E-3	121.603E-12	512.007E-3	-21.7525E-3	123.252E-12	566.995E-3	-28.7784E-3
2.67884E-3	119.757E-12	513.999E-3	-38.0172E-3	123.918E-12	534.370E-3	-36.1939E-3
2.67384E-3	118.943E-12	537.767E-3	-38.2758E-3	123.439E-12	505.352E-3	-34.6855E-3
2.66883E-3	119.087E-12	562.771E-3	-33.0774E-3	123.407E-12	523.580E-3	-27.2601E-3
2.66383E-3	120.212E-12	561.137E-3	-37.1030E-3	123.323E-12	524.617E-3	-30.6161E-3
2.65883E-3	119.325E-12	540.758E-3	-47.3054E-3	122.530E-12	523.894E-3	-22.5923E-3
2.65383E-3	118.527E-12	537.054E-3	-54.3888E-3	120.946E-12	524.350E-3	-14.9219E-3
2.64882E-3	118.803E-12	562.154E-3	-38.7586E-3	119.202E-12	512.763E-3	-20.0238E-3
2.64382E-3	119.657E-12	570.631E-3	-20.7798E-3	118.326E-12	515.975E-3	-11.1855E-3
2.63882E-3	119.384E-12	557.093E-3	-14.5284E-3	117.282E-12	520.308E-3	-10.1422E-3
2.63382E-3	118.610E-12	548.975E-3	-2.67985E-3	116.244E-12	508.218E-3	-38.3011E-3
2.62881E-3	117.895E-12	527.827E-3	5.84158E-3	114.525E-12	507.472E-3	-53.8124E-3
2.62381E-3	119.527E-12	501.748E-3	9.63599E-3	114.028E-12	519.637E-3	-53.4443E-3
2.61881E-3	119.426E-12	518.527E-3	20.5345E-3	114.196E-12	521.945E-3	-51.7248E-3
2.61381E-3	118.411E-12	552.940E-3	18.2379E-3	115.655E-12	530.750E-3	-39.6051E-3
2.60880E-3	117.179E-12	562.336E-3	-19.6801E-3	115.465E-12	540.661E-3	-26.7582E-3
2.60380E-3	118.122E-12	557.834E-3	-56.4974E-3	114.531E-12	525.956E-3	-25.8169E-3
2.59880E-3	117.266E-12	544.262E-3	-45.1907E-3	115.870E-12	514.881E-3	-23.6187E-3
2.59380E-3	116.252E-12	532.066E-3	-16.7208E-3	118.576E-12	536.703E-3	-9.67930E-3
2.58879E-3	115.170E-12	547.247E-3	-9.61816E-3	119.391E-12	570.247E-3	-15.5932E-3
2.58379E-3	114.580E-12	558.990E-3	2.92788E-3	118.782E-12	562.215E-3	-32.8234E-3
2.57879E-3	114.582E-12	545.998E-3	9.11570E-3	119.185E-12	527.028E-3	-28.5921E-3
2.57379E-3	114.246E-12	533.101E-3	-8.97055E-3	120.813E-12	524.105E-3	-18.3118E-3
2.56878E-3	112.750E-12	517.904E-3	-13.4753E-3	121.837E-12	528.126E-3	-13.7712E-3
2.56378E-3	112.253E-12	503.553E-3	-9.08171E-3	120.092E-12	534.494E-3	894.662E-6
2.55878E-3	113.496E-12	502.809E-3	-18.8545E-3	118.244E-12	555.196E-3	5.44374E-3
2.55378E-3	114.123E-12	513.955E-3	-31.7137E-3	117.409E-12	552.375E-3	-6.40572E-3
2.54877E-3	113.313E-12	526.074E-3	-29.7877E-3	118.403E-12	533.098E-3	-11.3891E-3
2.54377E-3	113.081E-12	529.736E-3	-8.41398E-3	117.044E-12	518.790E-3	-17.5777E-3
2.53877E-3	113.340E-12	527.574E-3	15.9941E-3	115.624E-12	504.884E-3	-38.5335E-3
2.53377E-3	114.949E-12	519.324E-3	13.6578E-3	113.588E-12	500.887E-3	-52.3466E-3
2.52876E-3	115.242E-12	520.478E-3	-11.3211E-3	113.619E-12	507.336E-3	-48.9400E-3
2.52376E-3	115.491E-12	542.713E-3	-17.2396E-3	113.239E-12	518.217E-3	-39.9489E-3
2.51876E-3	115.358E-12	555.216E-3	-6.08317E-3	112.649E-12	525.926E-3	-38.5639E-3
2.51376E-3	115.785E-12	547.259E-3	-5.53450E-3	110.478E-12	525.576E-3	-56.3214E-3
2.50875E-3	115.013E-12	543.954E-3	-7.20225E-3	110.531E-12	522.894E-3	-56.2094E-3
2.50375E-3	114.825E-12	541.410E-3	-9.35118E-3	111.082E-12	513.067E-3	-25.6182E-3
2.49875E-3	113.876E-12	534.345E-3	-28.8958E-3	112.033E-12	506.625E-3	-9.17256E-3
2.49375E-3	113.867E-12	530.536E-3	-39.4400E-3	111.661E-12	512.151E-3	-15.5716E-3
2.48874E-3	113.191E-12	530.007E-3	-21.1668E-3	110.993E-12	533.054E-3	-9.23271E-3
2.48374E-3	112.838E-12	536.104E-3	-9.49482E-3	112.991E-12	556.250E-3	-4.15914E-3
2.47874E-3	112.159E-12	548.736E-3	-18.8496E-3	114.379E-12	544.824E-3	-15.4502E-3
2.47374E-3	111.833E-12	555.603E-3	-18.8910E-3	114.364E-12	531.482E-3	-14.6752E-3
2.46873E-3	111.664E-12	555.939E-3	-13.0650E-3	113.743E-12	533.012E-3	-20.2390E-3
2.46373E-3	110.424E-12	561.583E-3	-27.0116E-3	113.829E-12	516.019E-3	-34.3694E-3
2.45873E-3	110.708E-12	555.394E-3	-31.2998E-3	114.658E-12	512.362E-3	-30.1241E-3
2.45373E-3	110.832E-12	530.657E-3	-24.4030E-3	115.004E-12	524.609E-3	-15.7961E-3
2.44872E-3	111.864E-12	519.976E-3	-33.5300E-3	113.430E-12	519.008E-3	-11.8961E-3
2.44372E-3	111.587E-12	538.609E-3	-41.4954E-3	111.838E-12	518.669E-3	-26.6574E-3
2.43872E-3	111.904E-12	555.010E-3	-29.8077E-3	111.635E-12	533.519E-3	-50.9871E-3
2.43372E-3	111.580E-12	556.975E-3	3.93499E-3	112.730E-12	526.890E-3	-53.1408E-3
2.42871E-3	112.191E-12	563.081E-3	13.7395E-3	111.514E-12	509.280E-3	-21.3628E-3
2.42371E-3	112.938E-12	561.826E-3	-1.24920E-3	108.631E-12	516.868E-3	-8.89840E-3
2.41871E-3	113.062E-12	547.536E-3	-232.387E-6	107.366E-12	524.947E-3	-31.4238E-3
2.41371E-3	112.234E-12	547.649E-3	-5.93706E-3	108.064E-12	513.096E-3	-28.1065E-3
2.40870E-3	111.792E-12	546.373E-3	-10.9489E-3	107.469E-12	513.337E-3	-676.984E-6
2.40370E-3	111.493E-12	533.961E-3	-2.77575E-3	104.916E-12	527.506E-3	1.65290E-3
2.39870E-3	111.598E-12	540.269E-3	-240.095E-6	103.634E-12	523.007E-3	-2.33631E-3
2.39370E-3	110.231E-12	552.025E-3	-4.46932E-3	105.471E-12	518.381E-3	-2.55588E-3
2.38869E-3	110.293E-12	547.724E-3	-22.9117E-3	106.342E-12	530.541E-3	-21.1507E-3
2.38369E-3	109.000E-12	538.626E-3	-43.9321E-3	105.148E-12	527.486E-3	-35.8518E-3
2.37869E-3	109.478E-12	538.574E-3	-36.7587E-3	104.135E-12	525.089E-3	-25.7749E-3
2.37369E-3	109.514E-12	541.253E-3	-16.7445E-3	106.600E-12	538.953E-3	-14.0450E-3
2.36868E-3	108.978E-12	543.911E-3	-5.75718E-3	108.534E-12	540.252E-3	5.70601E-3
2.36368E-3	108.054E-12	540.061E-3	-6.05478E-3	109.613E-12	540.191E-3	28.6495E-3
2.35868E-3	107.763E-12	525.301E-3	-18.1536E-3	108.469E-12	544.349E-3	-4.95439E-3
2.35368E-3	108.748E-12	519.399E-3	-28.6705E-3	109.270E-12	538.930E-3	-48.2552E-3
2.34867E-3	109.203E-12	515.919E-3	-30.3422E-3	110.622E-12	541.443E-3	-34.7918E-3
2.34367E-3	108.009E-12	510.249E-3	-24.8251E-3	111.769E-12	546.255E-3	-19.6716E-3
2.33867E-3	108.128E-12	509.970E-3	-8.22722E-3	110.343E-12	528.611E-3	-25.7103E-3
2.33367E-3	108.451E-12	505.678E-3	6.86338E-3	108.447E-12	509.827E-3	-23.5562E-3
2.32866E-3	108.411E-12	516.171E-3	4.88081E-3	108.726E-12	505.323E-3	-19.5123E-3
2.32366E-3	107.730E-12	535.575E-3	7.10606E-3	108.142E-12	499.612E-3	-21.1905E-3
2.31866E-3	106.706E-12	530.895E-3	8.98526E-3	106.878E-12	499.642E-3	-13.5956E-3
2.31366E-3	107.008E-12	528.972E-3	-7.25234E-3	104.131E-12	509.062E-3	-6.55934E-3
2.30865E-3	106.760E-12	528.064E-3	-10.7157E-3	103.594E-12	498.831E-3	-12.2425E-3
2.30365E-3	106.797E-12	516.809E-3	8.36184E-3	103.338E-12	472.658E-3	-16.9408E-3
2.29865E-3	105.833E-12	523.120E-3	15.2781E-3	103.289E-12	465.003E-3	-14.8965E-3
2.29365E-3	106.212E-12	542.745E-3	-4.34793E-3	102.001E-12	466.900E-3	-8.75000E-3
2.28864E-3	106.215E-12	547.354E-3	-24.6440E-3	102.108E-12	487.027E-3	-3.38766E-3
2.28364E-3	106.507E-12	530.065E-3	-33.7630E-3	102.144E-12	515.638E-3	-14.4442E-3
2.27864E-3	104.555E-12	520.540E-3	-42.1809E-3	103.342E-12	503.048E-3	-27.2270E-3
2.27364E-3	104.505E-12	518.238E-3	-49.5992E-3	104.334E-12	484.558E-3	-10.2245E-3
2.26863E-3	104.545E-12	514.420E-3	-56.8488E-3	104.801E-12	500.870E-3	9.60323E-3
2.26363E-3	104.373E-12	522.321E-3	-50.1000E-3	105.246E-12	507.129E-3	8.34051E-3
2.25863E-3	103.439E-12	532.216E-3	-23.5559E-3	106.245E-12	509.855E-3	11.6530E-3
2.25363E-3	101.799E-12	536.988E-3	-8.45890E-3	107.770E-12	537.336E-3	13.6445E-3
2.24862E-3	103.510E-12	526.366E-3	-23.7235E-3	108.038E-12	546.493E-3	2.01382E-3
2.24362E-3	104.015E-12	508.261E-3	-35.5975E-3	107.682E-12	535.765E-3	10.6932E-3
2.23862E-3	103.445E-12	504.100E-3	-27.8060E-3	107.831E-12	525.823E-3	25.0007E-3
2.23362E-3	101.790E-12	498.358E-3	-20.9634E-3	109.048E-12	513.575E-3	8.65970E-3
2.22861E-3	102.267E-12	483.391E-3	-4.69813E-3	108.117E-12	507.978E-3	-18.2304E-3
2.22361E-3	103.755E-12	472.773E-3	13.9098E-3	105.752E-12	519.367E-3	-30.9809E-3
2.21861E-3	103.701E-12	487.350E-3	-1.06093E-3	104.244E-12	525.389E-3	-25.8201E-3
2.21361E-3	102.722E-12	516.163E-3	-21.5351E-3	103.689E-12	519.691E-3	-13.2313E-3
2.20860E-3	102.288E-12	510.219E-3	-14.2763E-3	103.213E-12	525.501E-3	-8.58564E-3
2.20360E-3	103.763E-12	498.264E-3	1.31233E-3	101.904E-12	519.174E-3	-7.53487E-3
2.19860E-3	104.166E-12	514.252E-3	1.92061E-3	99.9384E-12	496.789E-3	5.61172E-3
2.19360E-3	103.371E-12	522.551E-3	-3.31739E-3	98.7714E-12	510.482E-3	11.8461E-3
2.18859E-3	102.697E-12	521.375E-3	-12.1466E-3	99.6284E-12	530.702E-3	-10.2899E-3
2.18359E-3	101.879E-12	519.421E-3	-27.6548E-3	99.7736E-12	518.321E-3	-22.5415E-3
2.17859E-3	102.443E-12	505.584E-3	-33.1608E-3	99.5837E-12	505.381E-3	-10.8679E-3
2.17359E-3	101.785E-12	503.011E-3	-27.2066E-3	99.0349E-12	493.472E-3	-15.8841E-3
2.16858E-3	101.332E-12	518.420E-3	-14.8975E-3	99.7510E-12	491.970E-3	-37.6653E-3
2.16358E-3	99.2049E-12	517.664E-3	-7.24748E-3	101.616E-12	513.822E-3	-42.6287E-3
2.15858E-3	99.8725E-12	500.998E-3	-12.5697E-3	103.033E-12	522.356E-3	-41.9314E-3
2.15358E-3	99.8982E-12	490.531E-3	-19.4065E-3	102.605E-12	504.538E-3	-37.6025E-3
2.14857E-3	98.8048E-12	484.754E-3	-18.0486E-3	102.825E-12	504.488E-3	-17.8006E-3
2.14357E-3	97.6586E-12	488.399E-3	-7.39996E-3	104.044E-12	518.608E-3	-2.31632E-3
2.13857E-3	98.2511E-12	509.971E-3	-9.71920E-3	104.240E-12	515.180E-3	7.49132E-3
2.13357E-3	99.0291E-12	526.911E-3	-19.6000E-3	103.564E-12	517.093E-3	14.2732E-3
2.12856E-3	98.9513E-12	539.067E-3	-23.3218E-3	102.698E-12	537.895E-3	-2.42067E-3
2.12356E-3	98.3404E-12	549.617E-3	-35.1109E-3	102.666E-12	539.224E-3	-31.5898E-3
2.11856E-3	98.5358E-12	541.002E-3	-36.4812E-3	102.174E-12	515.344E-3	-36.1194E-3
2.11356E-3	99.8386E-12	533.670E-3	-35.0765E-3	100.351E-12	498.449E-3	-32.6336E-3
2.10855E-3	101.292E-12	541.425E-3	-36.2339E-3	99.0734E-12	478.225E-3	-27.5546E-3
2.10355E-3	101.162E-12	541.199E-3	-19.3530E-3	97.8565E-12	461.780E-3	-17.0572E-3
2.09855E-3	100.842E-12	529.557E-3	-11.0262E-3	97.8127E-12	476.814E-3	-26.9713E-3
2.09355E-3	101.066E-12	524.552E-3	-10.2890E-3	97.2428E-12	494.903E-3	-33.5680E-3
2.08854E-3	101.510E-12	516.459E-3	-9.38089E-3	95.8577E-12	502.516E-3	-25.3089E-3
2.08354E-3	101.600E-12	506.602E-3	-23.1263E-3	95.6269E-12	510.829E-3	-36.5791E-3
2.07854E-3	100.663E-12	518.439E-3	-31.6669E-3	95.6478E-12	500.360E-3	-46.0736E-3
2.07354E-3	99.0767E-12	535.114E-3	-28.0451E-3	97.1095E-12	490.581E-3	-29.2604E-3
2.06853E-3	99.8482E-12	534.333E-3	-23.4194E-3	96.4345E-12	506.004E-3	-11.5479E-3
2.06353E-3	99.8022E-12	535.671E-3	-21.5073E-3	97.0267E-12	516.163E-3	-1.42789E-3
2.05853E-3	98.4778E-12	543.744E-3	-15.1355E-3	97.3493E-12	512.894E-3	3.35698E-3
2.05353E-3	96.5926E-12	536.181E-3	-9.95390E-3	98.8473E-12	511.121E-3	-6.23333E-3
2.04852E-3	97.0753E-12	519.772E-3	-22.0349E-3	99.5352E-12	516.988E-3	-25.8132E-3
2.04352E-3	97.3266E-12	508.760E-3	-16.3785E-3	99.1974E-12	524.528E-3	-40.5784E-3
2.03852E-3	97.1366E-12	503.006E-3	7.03265E-3	99.9282E-12	533.866E-3	-41.0250E-3
2.03352E-3	96.6360E-12	508.200E-3	3.81934E-3	100.364E-12	535.097E-3	-34.8242E-3
2.02851E-3	96.4493E-12	513.546E-3	-4.19252E-3	101.319E-12	519.519E-3	-19.9234E-3
2.02351E-3	97.2144E-12	509.469E-3	3.99697E-3	100.661E-12	523.216E-3	-2.18526E-3
2.01851E-3	97.4289E-12	499.580E-3	4.65090E-3	99.8461E-12	527.697E-3	-4.65324E-3
2.01351E-3	97.1326E-12	488.081E-3	1.04963E-3	99.4093E-12	501.966E-3	-15.8404E-3
2.00850E-3	96.7489E-12	490.322E-3	11.5345E-3	98.9845E-12	499.902E-3	-31.2168E-3
2.00350E-3	96.8779E-12	497.058E-3	8.61992E-3	98.7843E-12	516.130E-3	-44.9975E-3
1.99850E-3	97.2311E-12	493.336E-3	-10.5275E-3	97.1771E-12	505.655E-3	-32.9058E-3
1.99350E-3	97.1291E-12	488.668E-3	-22.3461E-3	96.3489E-12	494.192E-3	-23.2829E-3
1.98849E-3	96.6687E-12	497.591E-3	-26.8350E-3	95.3736E-12	494.513E-3	-29.4180E-3
1.98349E-3	96.4658E-12	515.534E-3	-12.1801E-3	95.1056E-12	488.988E-3	-27.9419E-3
1.97849E-3	95.4571E-12	521.882E-3	-1.17360E-3	94.2546E-12	484.397E-3	-23.9501E-3
1.97349E-3	95.8350E-12	520.095E-3	-8.35180E-3	93.4839E-12	484.593E-3	-22.6486E-3
1.96848E-3	95.4815E-12	522.764E-3	-5.14626E-3	92.6956E-12	481.981E-3	-27.4828E-3
1.96348E-3	95.1056E-12	521.324E-3	-1.32922E-3	92.9829E-12	490.007E-3	-17.5126E-3
1.95848E-3	94.5700E-12	521.482E-3	-9.26222E-3	93.4791E-12	507.295E-3	3.17132E-3
1.95348E-3	94.2474E-12	526.350E-3	-17.2825E-3	92.5875E-12	511.043E-3	916.556E-6
1.94847E-3	93.5986E-12	503.910E-3	-21.1106E-3	92.7868E-12	507.582E-3	-14.7898E-3
1.94347E-3	93.1944E-12	477.615E-3	-15.9777E-3	94.0751E-12	516.037E-3	-25.9876E-3
1.93847E-3	93.3832E-12	481.501E-3	-11.0114E-3	95.1700E-12	510.133E-3	-15.1743E-3
1.93347E-3	93.5025E-12	492.139E-3	-16.5739E-3	94.7960E-12	508.574E-3	4.07561E-3
1.92846E-3	93.6084E-12	495.972E-3	-15.8986E-3	94.7823E-12	532.827E-3	-1.06397E-3
1.92346E-3	93.1001E-12	483.704E-3	-4.57973E-3	95.4874E-12	527.650E-3	-17.1353E-3
1.91846E-3	92.5826E-12	472.179E-3	14.2994E-3	96.2912E-12	512.915E-3	-20.8458E-3
1.91346E-3	93.0485E-12	487.697E-3	18.8191E-3	96.5681E-12	513.013E-3	-33.5032E-3
1.90845E-3	93.2484E-12	510.977E-3	-8.41438E-3	95.9195E-12	497.112E-3	-33.7437E-3
1.90345E-3	93.6674E-12	512.947E-3	-29.2923E-3	95.9796E-12	492.227E-3	-9.53151E-3
1.89845E-3	93.2461E-12	500.842E-3	-36.3746E-3	95.4754E-12	504.483E-3	-14.8565E-3
1.89345E-3	93.7294E-12	505.402E-3	-40.4730E-3	94.4078E-12	499.023E-3	-33.8371E-3
1.88844E-3	93.8515E-12	517.306E-3	-26.3893E-3	92.4522E-12	487.262E-3	-26.1534E-3
1.88344E-3	93.6860E-12	518.625E-3	-24.2266E-3	91.9248E-12	478.477E-3	-20.5695E-3
1.87844E-3	92.6933E-12	516.000E-3	-49.7488E-3	91.2928E-12	472.709E-3	-21.2941E-3
1.87344E-3	91.9773E-12	498.917E-3	-46.9824E-3	90.4817E-12	484.550E-3	-8.65645E-3
1.86843E-3	91.7050E-12	478.604E-3	-12.9798E-3	88.8654E-12	492.726E-3	-5.22434E-3
1.86343E-3	91.7703E-12	493.669E-3	1.68501E-3	88.4410E-12	482.302E-3	-21.6073E-3
1.85843E-3	92.1433E-12	519.700E-3	-4.76630E-3	88.7998E-12	473.617E-3	-38.1989E-3
1.85343E-3	91.2817E-12	509.595E-3	-8.21987E-3	89.1084E-12	477.208E-3	-33.3192E-3
1.84842E-3	90.7358E-12	493.740E-3	-11.3718E-3	88.8973E-12	475.019E-3	-32.8668E-3
1.84342E-3	90.5945E-12	496.006E-3	-21.2935E-3	89.0438E-12	468.688E-3	-29.4279E-3
1.83842E-3	90.8112E-12	496.979E-3	-14.7031E-3	90.4707E-12	492.400E-3	5.47388E-3
1.83342E-3	91.0993E-12	492.540E-3	-16.1063E-3	90.9455E-12	508.102E-3	18.4777E-3
1.82841E-3	90.4990E-12	486.986E-3	-32.9135E-3	91.6120E-12	486.376E-3	2.46518E-3
1.82341E-3	90.9781E-12	480.619E-3	-34.8086E-3	92.1182E-12	480.137E-3	-5.79757E-3
1.81841E-3	90.9620E-12	486.460E-3	-28.8542E-3	92.8038E-12	488.105E-3	-12.0858E-3
1.81341E-3	90.9952E-12	510.389E-3	-13.5237E-3	93.1511E-12	483.018E-3	-18.8830E-3
1.80840E-3	90.3045E-12	511.292E-3	-3.12487E-3	92.7771E-12	485.301E-3	-37.8308E-3
1.80340E-3	90.6468E-12	494.934E-3	-13.0176E-3	91.7968E-12	489.641E-3	-56.3316E-3
1.79840E-3	90.5251E-12	490.581E-3	-18.6150E-3	90.7712E-12	473.304E-3	-41.4386E-3
1.79340E-3	90.7458E-12	486.372E-3	-10.6836E-3	91.0944E-12	464.222E-3	-14.4683E-3
1.78839E-3	89.9486E-12	481.807E-3	-5.46334E-3	89.9104E-12	465.946E-3	-11.5916E-3
1.78339E-3	90.1144E-12	485.006E-3	187.028E-6	88.7476E-12	452.213E-3	-10.7462E-3
1.77839E-3	90.7971E-12	494.953E-3	712.821E-6	86.9746E-12	453.273E-3	10.2211E-3
1.77339E-3	90.4221E-12	501.921E-3	-5.98192E-3	86.5312E-12	459.272E-3	13.1323E-3
1.76838E-3	90.0691E-12	494.960E-3	-662.205E-6	85.9002E-12	448.243E-3	1.07151E-3
1.76338E-3	88.3023E-12	490.743E-3	6.44718E-3	84.6904E-12	454.162E-3	9.62264E-3
1.75838E-3	88.8928E-12	491.001E-3	-1.81843E-3	84.5262E-12	480.394E-3	4.20821E-3
1.75338E-3	88.5974E-12	491.368E-3	-20.0644E-3	85.2626E-12	480.598E-3	-22.6717E-3
1.74837E-3	88.2450E-12	493.989E-3	-28.1353E-3	86.1297E-12	462.572E-3	-22.5350E-3
1.74337E-3	86.9578E-12	481.244E-3	-20.2556E-3	86.4626E-12	466.445E-3	-12.2058E-3
1.73837E-3	86.3518E-12	469.041E-3	-16.5338E-3	86.6804E-12	473.464E-3	-17.3228E-3
1.73337E-3	86.6616E-12	473.943E-3	-23.6836E-3	87.6577E-12	487.050E-3	-15.5924E-3
1.72836E-3	86.8425E-12	486.247E-3	-19.9477E-3	88.7559E-12	510.593E-3	-16.6638E-3
1.72336E-3	86.0227E-12	482.552E-3	-7.79023E-3	89.4239E-12	504.379E-3	-26.7708E-3
1.71836E-3	84.6179E-12	465.658E-3	-1.29942E-3	89.1431E-12	473.524E-3	-24.8794E-3
1.71336E-3	86.1955E-12	465.588E-3	-5.09502E-3	89.7486E-12	450.188E-3	-24.8280E-3
1.70835E-3	86.1756E-12	465.309E-3	-15.9230E-3	90.6124E-12	445.705E-3	-28.1029E-3
1.70335E-3	86.3211E-12	461.347E-3	-3.49162E-3	89.8615E-12	451.079E-3	-22.3298E-3
1.69835E-3	85.6760E-12	458.964E-3	10.3196E-3	88.4623E-12	454.199E-3	-16.2076E-3
1.69335E-3	85.3322E-12	449.282E-3	-9.00720E-3	86.2956E-12	465.095E-3	-16.6135E-3
1.68834E-3	86.3445E-12	445.668E-3	-28.9818E-3	85.8647E-12	471.772E-3	-19.6582E-3
1.68334E-3	86.7172E-12	455.874E-3	-25.6501E-3	85.2329E-12	467.469E-3	-21.5605E-3
1.67834E-3	86.8691E-12	473.327E-3	-16.9026E-3	84.3676E-12	452.267E-3	-22.6107E-3
1.67334E-3	85.6409E-12	485.473E-3	-17.7804E-3	83.0117E-12	437.834E-3	-17.7211E-3
1.66833E-3	86.1759E-12	480.209E-3	-22.3461E-3	81.5810E-12	455.663E-3	-11.7197E-3
1.66333E-3	86.5952E-12	461.286E-3	-19.9955E-3	81.4153E-12	460.707E-3	-17.3782E-3
1.65833E-3	86.2651E-12	454.310E-3	-5.05529E-3	80.9632E-12	439.704E-3	-19.9149E-3
1.65333E-3	85.1864E-12	460.482E-3	15.2422E-3	80.9101E-12	444.714E-3	-13.4150E-3
1.64832E-3	84.4210E-12	467.098E-3	15.2448E-3	80.3072E-12	450.392E-3	-15.3587E-3
1.64332E-3	84.6197E-12	463.357E-3	-11.3288E-3	81.0306E-12	439.997E-3	-17.0691E-3
1.63832E-3	84.6843E-12	453.142E-3	-27.1539E-3	82.5535E-12	450.337E-3	-17.5102E-3
1.63332E-3	84.4091E-12	457.379E-3	-6.62781E-3	83.8029E-12	457.524E-3	-25.0436E-3
1.62831E-3	82.8746E-12	467.770E-3	14.7856E-3	84.0020E-12	445.957E-3	-13.0637E-3
1.62331E-3	83.3969E-12	464.809E-3	7.97622E-3	83.1816E-12	440.053E-3	2.19343E-3
1.61831E-3	83.4112E-12	456.488E-3	-10.8731E-3	84.4009E-12	435.974E-3	-5.12834E-3
1.61331E-3	83.4331E-12	463.194E-3	-29.9703E-3	85.9451E-12	426.515E-3	-17.2077E-3
1.60830E-3	82.8985E-12	465.313E-3	-30.9561E-3	85.6240E-12	421.534E-3	-24.6523E-3
1.60330E-3	82.4537E-12	455.534E-3	-21.1649E-3	85.0747E-12	431.636E-3	-26.5827E-3
1.59830E-3	82.7665E-12	457.406E-3	-27.8052E-3	83.8402E-12	427.466E-3	-27.7594E-3
1.59330E-3	82.5771E-12	452.666E-3	-29.3907E-3	84.6477E-12	413.868E-3	-20.0290E-3
1.58829E-3	83.2677E-12	432.739E-3	-18.1719E-3	83.9624E-12	419.130E-3	-10.4541E-3
1.58329E-3	82.2151E-12	426.453E-3	-15.1180E-3	82.6316E-12	416.923E-3	-8.60508E-3
1.57829E-3	83.0420E-12	423.548E-3	-16.6420E-3	80.8253E-12	417.698E-3	-3.81080E-3
1.57329E-3	83.5397E-12	407.651E-3	-28.6207E-3	81.0653E-12	431.653E-3	-9.81265E-3
1.56828E-3	83.4386E-12	420.714E-3	-37.2295E-3	80.6288E-12	412.466E-3	-21.5233E-3
1.56328E-3	82.5259E-12	450.564E-3	-12.4861E-3	80.6089E-12	383.441E-3	-17.8171E-3
1.55828E-3	82.1977E-12	439.908E-3	16.5399E-3	78.6933E-12	382.544E-3	-8.97952E-3
1.55328E-3	82.2199E-12	429.501E-3	12.1494E-3	78.1333E-12	391.160E-3	-10.1698E-3
1.54827E-3	81.6933E-12	438.753E-3	-21.5262E-3	78.3440E-12	393.433E-3	-15.9987E-3
1.54327E-3	81.1820E-12	425.537E-3	-42.3242E-3	79.4993E-12	389.366E-3	-20.7142E-3
1.53827E-3	80.8056E-12	414.498E-3	-22.4205E-3	79.2078E-12	379.023E-3	-20.9873E-3
1.53327E-3	80.8661E-12	416.654E-3	-552.238E-6	78.5100E-12	375.732E-3	-17.2091E-3
1.52826E-3	80.0630E-12	414.835E-3	-2.20376E-3	78.9237E-12	386.541E-3	-27.2491E-3
1.52326E-3	79.8296E-12	409.456E-3	-930.882E-6	80.3838E-12	383.626E-3	-34.7415E-3
1.51826E-3	79.8444E-12	404.877E-3	3.43902E-3	80.9211E-12	375.627E-3	-19.8427E-3
1.51326E-3	80.2001E-12	399.061E-3	-10.6914E-3	80.5114E-12	389.632E-3	-14.1517E-3
1.50825E-3	80.1951E-12	393.014E-3	-22.2445E-3	81.1385E-12	393.662E-3	-20.3519E-3
1.50325E-3	79.7266E-12	388.898E-3	-16.8423E-3	82.0240E-12	381.735E-3	-12.0089E-3
1.49825E-3	80.7358E-12	392.635E-3	-15.6088E-3	81.7387E-12	384.804E-3	-11.4690E-3
1.49325E-3	80.8652E-12	399.252E-3	-14.5583E-3	81.2427E-12	388.103E-3	-18.6140E-3
1.48824E-3	81.6596E-12	393.695E-3	-14.1235E-3	80.9641E-12	388.072E-3	-2.23503E-3
1.48324E-3	81.0148E-12	391.727E-3	-25.6683E-3	81.4246E-12	393.713E-3	3.52276E-3
1.47824E-3	81.5731E-12	398.252E-3	-39.8502E-3	80.5815E-12	380.112E-3	-12.7006E-3
1.47324E-3	81.6410E-12	402.204E-3	-41.1012E-3	80.0605E-12	356.418E-3	-14.4461E-3
1.46823E-3	82.6150E-12	393.532E-3	-26.2886E-3	78.9782E-12	347.362E-3	-5.76693E-3
1.46323E-3	81.4759E-12	379.755E-3	-11.9091E-3	78.8325E-12	340.878E-3	-10.9165E-3
1.45823E-3	80.5958E-12	365.820E-3	-2.40640E-3	78.1142E-12	346.837E-3	-20.3422E-3
1.45323E-3	80.8923E-12	356.942E-3	963.719E-6	78.1871E-12	365.684E-3	-29.4944E-3
1.44822E-3	80.1199E-12	370.634E-3	-4.50928E-3	77.7636E-12	365.110E-3	-45.0415E-3
1.44322E-3	79.8120E-12	386.032E-3	-560.957E-6	77.2428E-12	351.192E-3	-36.0226E-3
1.43822E-3	78.6246E-12	374.109E-3	5.89912E-3	77.5156E-12	343.768E-3	-21.6166E-3
1.43322E-3	78.8071E-12	357.996E-3	-7.06336E-3	77.5662E-12	341.898E-3	-35.7539E-3
1.42821E-3	78.5618E-12	371.189E-3	-16.6661E-3	78.0775E-12	337.455E-3	-36.4200E-3
1.42321E-3	78.0629E-12	373.356E-3	-11.2917E-3	77.6059E-12	338.110E-3	-12.2690E-3
1.41821E-3	77.5224E-12	341.198E-3	-6.90837E-3	78.6502E-12	344.348E-3	-3.78915E-3
1.41321E-3	77.9500E-12	318.179E-3	-13.4751E-3	79.0677E-12	336.589E-3	-12.9000E-3
1.40820E-3	77.9056E-12	315.477E-3	-22.3051E-3	79.8034E-12	332.030E-3	-17.8659E-3
1.40320E-3	77.8374E-12	325.905E-3	-12.1993E-3	79.8324E-12	342.573E-3	-18.4624E-3
1.39820E-3	77.9921E-12	335.738E-3	6.76480E-3	79.9161E-12	341.897E-3	-14.5581E-3
1.39320E-3	78.6964E-12	321.718E-3	5.94025E-3	80.3253E-12	327.164E-3	322.030E-6
1.38819E-3	78.5299E-12	300.708E-3	-13.1020E-3	80.5122E-12	316.416E-3	-4.09328E-3
1.38319E-3	78.8864E-12	302.059E-3	-20.9917E-3	80.4394E-12	307.846E-3	-27.7995E-3
1.37819E-3	78.3043E-12	320.990E-3	-5.72378E-3	79.5434E-12	301.582E-3	-26.9093E-3
1.37319E-3	78.6030E-12	325.668E-3	3.56227E-3	79.2585E-12	294.127E-3	-16.2981E-3
1.36818E-3	78.4943E-12	313.951E-3	1.54071E-3	78.8335E-12	283.430E-3	-11.0127E-3
1.36318E-3	79.0205E-12	311.671E-3	79.0231E-6	78.0256E-12	283.241E-3	-1.30469E-3
1.35818E-3	78.7215E-12	309.455E-3	-7.01784E-3	77.2515E-12	294.449E-3	-6.38432E-3
1.35318E-3	78.2631E-12	308.722E-3	-23.3107E-3	75.8255E-12	296.849E-3	-25.1011E-3
1.34817E-3	77.9768E-12	309.149E-3	-29.5975E-3	75.4011E-12	284.534E-3	-30.2964E-3
1.34317E-3	77.9069E-12	301.420E-3	-11.6916E-3	75.2205E-12	270.714E-3	-27.8223E-3
1.33817E-3	77.2457E-12	303.636E-3	-3.00217E-3	74.8007E-12	261.687E-3	-20.6354E-3
1.33317E-3	76.7350E-12	303.343E-3	-6.97489E-3	74.5291E-12	254.335E-3	-11.6017E-3
1.32816E-3	76.4133E-12	286.667E-3	-9.36452E-3	74.8204E-12	248.497E-3	-18.5778E-3
1.32316E-3	76.7265E-12	269.655E-3	-22.7641E-3	75.4788E-12	246.199E-3	-19.7640E-3
1.31816E-3	76.1963E-12	250.621E-3	-35.5336E-3	75.2002E-12	243.506E-3	2.32660E-3
1.31316E-3	76.0801E-12	235.526E-3	-39.7662E-3	75.8898E-12	246.138E-3	11.4332E-3
1.30815E-3	75.8227E-12	238.226E-3	-40.3028E-3	76.6313E-12	253.549E-3	3.91733E-3
1.30315E-3	76.2706E-12	240.620E-3	-29.7920E-3	77.4344E-12	262.400E-3	-560.547E-6
1.29815E-3	75.7378E-12	240.968E-3	-18.9688E-3	77.9526E-12	269.455E-3	-131.688E-6
1.29315E-3	75.9440E-12	256.827E-3	-13.8242E-3	78.8238E-12	258.567E-3	-3.49142E-3
1.28814E-3	75.5385E-12	260.971E-3	-11.1883E-3	79.5337E-12	238.395E-3	-12.3016E-3
1.28314E-3	75.6597E-12	227.644E-3	-11.2736E-3	79.5836E-12	230.957E-3	-14.5705E-3
1.27814E-3	75.8636E-12	220.397E-3	-5.15673E-3	78.7311E-12	215.547E-3	-22.7787E-3
1.27314E-3	76.2674E-12	248.051E-3	-1.91274E-3	78.4575E-12	197.715E-3	-30.0979E-3
1.26813E-3	76.0924E-12	242.626E-3	-12.8270E-3	78.5181E-12	209.324E-3	-27.0324E-3
1.26313E-3	76.3102E-12	221.509E-3	-21.0188E-3	77.4874E-12	217.312E-3	-19.5584E-3
1.25813E-3	76.0740E-12	212.649E-3	-14.2702E-3	76.5034E-12	206.428E-3	1.13670E-3
1.25313E-3	76.6319E-12	210.321E-3	-3.91656E-3	75.2695E-12	203.912E-3	2.98440E-3
1.24812E-3	76.7455E-12	211.100E-3	-10.2104E-3	74.2616E-12	211.868E-3	-17.5401E-3
1.24312E-3	76.1395E-12	219.840E-3	-31.6406E-3	73.3356E-12	216.552E-3	-13.4769E-3
1.23812E-3	75.9027E-12	235.990E-3	-31.0913E-3	72.9547E-12	216.613E-3	-9.57770E-3
1.23312E-3	75.7119E-12	233.919E-3	-10.2851E-3	72.7478E-12	209.916E-3	-26.3072E-3
1.22811E-3	76.0592E-12	224.225E-3	-3.50950E-3	72.4958E-12	196.780E-3	-23.8608E-3
1.22311E-3	75.9234E-12	230.428E-3	-3.28039E-3	72.7310E-12	187.805E-3	-14.1456E-3
1.21811E-3	75.0406E-12	240.480E-3	-9.67419E-3	73.3866E-12	176.721E-3	-18.9550E-3
1.21311E-3	74.5648E-12	219.555E-3	-23.7928E-3	74.5414E-12	183.908E-3	-15.9941E-3
1.20810E-3	74.5330E-12	175.540E-3	-27.2247E-3	74.8864E-12	210.182E-3	-6.16241E-3
1.20310E-3	74.8745E-12	164.491E-3	-33.2291E-3	75.3192E-12	205.335E-3	-11.3306E-3
1.19810E-3	74.7054E-12	181.464E-3	-38.8977E-3	76.3433E-12	180.538E-3	-14.4932E-3
1.19310E-3	73.8982E-12	183.698E-3	-21.4328E-3	77.6281E-12	170.557E-3	-10.9108E-3
1.18809E-3	74.4096E-12	174.229E-3	-11.4326E-3	78.5984E-12	164.132E-3	-11.5731E-3
1.18309E-3	75.2886E-12	169.870E-3	-18.7680E-3	78.4268E-12	157.357E-3	-5.32358E-3
1.17809E-3	75.5272E-12	165.559E-3	-11.8707E-3	78.9914E-12	155.297E-3	-3.04282E-3
1.17309E-3	75.2189E-12	160.019E-3	-3.24779E-3	78.5502E-12	153.831E-3	-9.33364E-3
1.16808E-3	75.3306E-12	160.331E-3	-1.73368E-3	78.0958E-12	163.255E-3	-11.3101E-3
1.16308E-3	75.8648E-12	167.149E-3	129.970E-6	77.3466E-12	175.786E-3	-9.59476E-3
1.15808E-3	76.4245E-12	178.600E-3	-5.34301E-3	76.1327E-12	166.602E-3	-13.0500E-3
1.15308E-3	75.7724E-12	181.839E-3	-19.1252E-3	75.3515E-12	143.016E-3	-23.3337E-3
1.14807E-3	75.2034E-12	174.020E-3	-26.0661E-3	74.3642E-12	131.972E-3	-34.5939E-3
1.14307E-3	75.2258E-12	163.938E-3	-19.4746E-3	73.5320E-12	133.659E-3	-30.7145E-3
1.13807E-3	75.5045E-12	165.109E-3	-15.8866E-3	72.5231E-12	125.335E-3	-12.6933E-3
1.13307E-3	75.3839E-12	178.094E-3	-28.6156E-3	71.7393E-12	128.309E-3	-9.79134E-3
1.12806E-3	74.2929E-12	179.215E-3	-34.2480E-3	71.8986E-12	145.530E-3	-35.0427E-3
1.12306E-3	73.3831E-12	165.128E-3	-24.8478E-3	71.8720E-12	146.386E-3	-40.0775E-3
1.11806E-3	73.8248E-12	151.666E-3	-14.9176E-3	71.5203E-12	140.973E-3	-4.10675E-3
1.11306E-3	73.6331E-12	150.424E-3	4.41497E-3	71.2067E-12	142.820E-3	10.3811E-3
1.10805E-3	72.5708E-12	150.315E-3	14.9097E-3	73.0783E-12	148.618E-3	-4.25620E-3
1.10305E-3	72.0181E-12	144.364E-3	2.32555E-3	73.7166E-12	149.908E-3	-8.48251E-3
1.09805E-3	72.3899E-12	139.132E-3	-9.49009E-3	73.6313E-12	148.644E-3	-17.1680E-3
1.09305E-3	73.2112E-12	135.100E-3	-22.7837E-3	73.1304E-12	151.322E-3	-28.9314E-3
1.08804E-3	72.9142E-12	132.415E-3	-39.3086E-3	74.6509E-12	147.201E-3	-14.8932E-3
1.08304E-3	73.0346E-12	138.583E-3	-38.5762E-3	76.2627E-12	139.377E-3	-618.574E-6
1.07804E-3	72.8164E-12	144.356E-3	-24.9994E-3	75.8899E-12	133.896E-3	-20.8391E-3
1.07304E-3	74.0233E-12	139.564E-3	-18.0753E-3	75.4360E-12	140.346E-3	-44.5762E-3
1.06803E-3	73.9876E-12	142.801E-3	-20.5833E-3	74.4007E-12	156.277E-3	-41.6660E-3
1.06303E-3	73.9069E-12	147.096E-3	-22.3596E-3	75.0670E-12	156.035E-3	-28.3937E-3
1.05803E-3	73.4337E-12	152.164E-3	-23.9664E-3	74.9624E-12	157.777E-3	-14.1121E-3
1.05303E-3	74.0074E-12	175.270E-3	-22.3688E-3	74.0435E-12	165.667E-3	-4.78700E-3
1.04802E-3	74.6597E-12	194.035E-3	-16.0961E-3	72.9255E-12	161.030E-3	2.28447E-3
1.04302E-3	74.0101E-12	196.245E-3	-2.74472E-3	73.0548E-12	157.962E-3	5.39057E-3
1.03802E-3	73.5198E-12	180.684E-3	11.4847E-3	72.7696E-12	162.483E-3	-4.20764E-3
1.03302E-3	73.5715E-12	151.082E-3	-9.89650E-3	71.7031E-12	171.060E-3	-16.3189E-3
1.02801E-3	73.7619E-12	142.253E-3	-42.2915E-3	70.6527E-12	178.900E-3	-17.4296E-3
1.02301E-3	72.5828E-12	152.951E-3	-42.3087E-3	70.9055E-12	176.951E-3	-18.6913E-3
1.01801E-3	71.7576E-12	156.795E-3	-32.0843E-3	71.3037E-12	157.607E-3	-27.7761E-3
1.01301E-3	71.5554E-12	159.056E-3	-23.1552E-3	70.8369E-12	150.895E-3	-24.4492E-3
1.00800E-3	72.0133E-12	180.172E-3	-11.0000E-3	70.6972E-12	181.069E-3	-10.3192E-3
1.00300E-3	71.8127E-12	202.349E-3	-5.03908E-3	71.2933E-12	210.101E-3	-4.13817E-3
997.999E-6	71.5068E-12	191.014E-3	-13.3181E-3	71.8580E-12	220.091E-3	-12.0115E-3
992.997E-6	71.7113E-12	173.525E-3	-23.1845E-3	72.0090E-12	225.362E-3	-25.5459E-3
987.994E-6	71.4901E-12	184.650E-3	-10.7021E-3	72.2526E-12	221.485E-3	-24.4514E-3
982.991E-6	71.2746E-12	197.006E-3	1.77445E-3	72.9099E-12	211.624E-3	-3.31935E-3
977.989E-6	71.3308E-12	188.589E-3	-3.38136E-3	73.8842E-12	219.667E-3	3.25254E-3
972.986E-6	71.6552E-12	178.838E-3	-2.10382E-3	74.0856E-12	241.633E-3	-19.9150E-3
967.984E-6	71.4463E-12	179.357E-3	3.81071E-6	73.7342E-12	258.260E-3	-36.0435E-3
962.981E-6	71.3027E-12	196.766E-3	-7.81583E-3	73.6717E-12	269.882E-3	-30.1481E-3
957.979E-6	71.6382E-12	222.848E-3	-14.2253E-3	74.2866E-12	278.250E-3	-18.2561E-3
952.976E-6	72.1998E-12	233.943E-3	-15.0135E-3	73.7545E-12	277.636E-3	-5.21557E-3
947.974E-6	71.9649E-12	234.801E-3	-12.2760E-3	73.0513E-12	283.191E-3	1.77262E-3
942.971E-6	71.0358E-12	234.783E-3	-331.220E-6	72.1361E-12	300.706E-3	-15.9164E-3
937.969E-6	70.8844E-12	236.077E-3	12.3284E-3	71.6526E-12	311.226E-3	-36.2139E-3
932.966E-6	71.5234E-12	255.385E-3	-2.56713E-3	71.0893E-12	315.618E-3	-29.5890E-3
927.964E-6	71.4926E-12	282.540E-3	-26.3805E-3	70.1261E-12	315.254E-3	-15.1780E-3
922.961E-6	70.7766E-12	292.255E-3	-33.7054E-3	69.6057E-12	310.462E-3	-5.44718E-3
917.959E-6	70.3041E-12	299.127E-3	-29.0988E-3	69.3211E-12	321.161E-3	147.662E-6
912.956E-6	70.7041E-12	318.708E-3	-18.0283E-3	69.2220E-12	352.651E-3	-8.39682E-3
907.954E-6	70.6900E-12	331.241E-3	-12.0185E-3	68.9945E-12	377.665E-3	-11.2894E-3
902.951E-6	69.7980E-12	331.891E-3	-14.1553E-3	68.8131E-12	401.624E-3	-2.52087E-3
897.949E-6	68.5217E-12	335.660E-3	-19.3384E-3	68.9360E-12	434.071E-3	-17.1339E-3
892.946E-6	68.6153E-12	352.236E-3	-22.5433E-3	69.3430E-12	448.236E-3	-38.4494E-3
887.944E-6	69.0801E-12	367.353E-3	-17.8425E-3	70.2359E-12	443.375E-3	-26.5808E-3
882.941E-6	68.6872E-12	378.864E-3	-16.7689E-3	70.4261E-12	455.575E-3	-13.8863E-3
877.939E-6	67.6631E-12	394.072E-3	-33.3042E-3	70.9898E-12	490.776E-3	-19.2781E-3
872.936E-6	67.9474E-12	397.266E-3	-44.2579E-3	71.1856E-12	510.044E-3	-8.66444E-3
867.934E-6	68.2240E-12	399.343E-3	-33.1528E-3	72.3819E-12	515.914E-3	-3.01853E-3
862.931E-6	68.8899E-12	426.119E-3	-17.1579E-3	72.0691E-12	535.751E-3	-18.8087E-3
857.929E-6	68.2115E-12	458.133E-3	-20.6341E-3	71.7102E-12	550.590E-3	-14.3502E-3
852.926E-6	68.2103E-12	468.742E-3	-37.0207E-3	71.7333E-12	553.220E-3	997.681E-6
847.924E-6	68.3829E-12	469.416E-3	-44.3538E-3	71.6345E-12	554.137E-3	4.97332E-3
842.921E-6	68.9446E-12	477.452E-3	-39.5369E-3	70.8636E-12	565.121E-3	1.99591E-3
837.919E-6	68.8345E-12	497.431E-3	-19.6005E-3	69.7328E-12	589.991E-3	-6.78244E-3
832.916E-6	68.2991E-12	523.423E-3	-7.65402E-3	68.4983E-12	601.720E-3	-11.2497E-3
827.914E-6	68.1350E-12	546.828E-3	-20.5597E-3	67.3155E-12	606.370E-3	-9.82132E-3
822.911E-6	68.5704E-12	565.640E-3	-27.0679E-3	67.0247E-12	621.827E-3	-7.50275E-3
817.909E-6	68.4482E-12	582.781E-3	-14.3445E-3	65.7319E-12	649.281E-3	-7.89480E-3
812.906E-6	67.3766E-12	602.710E-3	-7.07848E-3	64.6803E-12	688.118E-3	-8.28084E-3
807.904E-6	67.2177E-12	637.373E-3	-7.06835E-3	64.1899E-12	720.256E-3	-18.5345E-3
802.901E-6	67.2569E-12	669.994E-3	-3.27566E-3	64.3526E-12	741.715E-3	-26.8913E-3
797.899E-6	66.2538E-12	684.546E-3	-11.8220E-3	64.2329E-12	768.544E-3	-19.0137E-3
792.896E-6	65.3009E-12	693.033E-3	-26.6728E-3	63.7326E-12	803.203E-3	-8.69560E-3
787.894E-6	65.0598E-12	705.459E-3	-29.1491E-3	63.8525E-12	839.626E-3	-12.1889E-3
782.891E-6	65.4565E-12	736.984E-3	-28.0446E-3	64.1751E-12	874.511E-3	-14.5806E-3
777.889E-6	65.2235E-12	779.339E-3	-19.4859E-3	65.2859E-12	897.556E-3	-3.08268E-3
772.886E-6	64.2744E-12	809.400E-3	-1.07985E-3	65.6906E-12	920.036E-3	2.07383E-3
767.884E-6	64.3050E-12	823.932E-3	-8.26270E-3	66.0306E-12	958.084E-3	-3.51787E-3
762.881E-6	64.2839E-12	840.727E-3	-37.8908E-3	66.2942E-12	1.00546E+0	-1.56876E-3
757.879E-6	64.1318E-12	869.128E-3	-45.1333E-3	66.8326E-12	1.04633E+0	-823.590E-6
752.876E-6	63.4619E-12	907.207E-3	-40.6657E-3	66.9985E-12	1.06616E+0	-16.5437E-3
747.874E-6	63.5527E-12	939.503E-3	-35.0956E-3	66.3880E-12	1.08253E+0	-18.9016E-3
742.871E-6	63.4916E-12	957.000E-3	-28.0688E-3	65.4369E-12	1.10626E+0	-11.0360E-3
737.869E-6	63.8946E-12	978.011E-3	-31.3468E-3	64.7721E-12	1.12233E+0	-17.2192E-3
732.866E-6	62.7800E-12	1.01587E+0	-34.9570E-3	63.6672E-12	1.13269E+0	-26.4503E-3
727.864E-6	62.2673E-12	1.05200E+0	-22.0595E-3	62.7692E-12	1.14541E+0	-24.6684E-3
722.861E-6	62.7571E-12	1.06836E+0	1.85914E-3	61.9130E-12	1.15596E+0	-4.86768E-3
717.859E-6	61.5682E-12	1.09663E+0	281.738E-6	60.6313E-12	1.17835E+0	5.53302E-3
712.856E-6	60.3047E-12	1.14157E+0	-12.8364E-3	59.1075E-12	1.21595E+0	-11.7911E-3
707.854E-6	59.6052E-12	1.17886E+0	-11.8411E-3	58.6133E-12	1.24822E+0	-19.6244E-3
702.851E-6	59.4425E-12	1.21004E+0	-21.2366E-3	58.5582E-12	1.28315E+0	-10.4817E-3
697.849E-6	59.3778E-12	1.22287E+0	-27.3483E-3	57.3162E-12	1.34068E+0	-9.25606E-3
692.846E-6	58.2063E-12	1.22707E+0	-12.2772E-3	57.0312E-12	1.39996E+0	-13.1478E-3
687.844E-6	57.6607E-12	1.25595E+0	-13.3355E-3	57.1053E-12	1.43494E+0	-24.2093E-3
682.841E-6	57.5547E-12	1.29667E+0	-26.6307E-3	57.4174E-12	1.46553E+0	-26.8505E-3
677.839E-6	57.4638E-12	1.32015E+0	-23.2383E-3	57.2250E-12	1.51080E+0	-10.0450E-3
672.836E-6	57.2267E-12	1.33754E+0	-20.2692E-3	57.5901E-12	1.56623E+0	-8.52118E-3
667.834E-6	56.6634E-12	1.37571E+0	-25.5374E-3	57.7211E-12	1.60716E+0	-26.7389E-3
662.831E-6	56.3784E-12	1.41249E+0	-27.6424E-3	58.1560E-12	1.62624E+0	-25.1862E-3
657.829E-6	56.6527E-12	1.43827E+0	-24.0940E-3	58.2603E-12	1.65385E+0	-4.53500E-3
652.826E-6	56.7721E-12	1.48807E+0	-6.51368E-3	57.5160E-12	1.67567E+0	-11.7305E-3
647.824E-6	56.3943E-12	1.54052E+0	11.2540E-3	57.3119E-12	1.67755E+0	-32.3422E-3
642.821E-6	56.3050E-12	1.57327E+0	-1.08685E-3	56.8268E-12	1.69267E+0	-17.7263E-3
637.819E-6	55.9497E-12	1.60555E+0	-16.5477E-3	56.3541E-12	1.72699E+0	-1.17307E-3
632.816E-6	55.4949E-12	1.64143E+0	-10.0948E-3	54.6108E-12	1.75062E+0	-16.0375E-3
627.814E-6	54.9261E-12	1.68082E+0	-13.2680E-3	53.3819E-12	1.76287E+0	-28.6726E-3
622.811E-6	54.1050E-12	1.71835E+0	-22.0617E-3	52.8241E-12	1.78355E+0	-31.0922E-3
617.809E-6	53.2163E-12	1.73746E+0	-14.1052E-3	51.8895E-12	1.79172E+0	-30.2871E-3
612.806E-6	52.2328E-12	1.74812E+0	-8.87315E-3	51.0566E-12	1.79981E+0	-14.0388E-3
607.804E-6	51.5190E-12	1.77330E+0	-110.866E-6	49.4180E-12	1.83658E+0	-4.21513E-3
602.801E-6	50.8204E-12	1.79689E+0	11.6714E-3	49.0188E-12	1.86144E+0	-8.99317E-3
597.799E-6	49.4580E-12	1.80489E+0	-14.4869E-3	48.3456E-12	1.87152E+0	-8.59914E-3
592.796E-6	49.1079E-12	1.82514E+0	-47.6157E-3	48.2720E-12	1.90037E+0	-10.2911E-3
587.794E-6	48.6995E-12	1.85579E+0	-42.9521E-3	47.5874E-12	1.92929E+0	-16.5677E-3
582.791E-6	48.0192E-12	1.87861E+0	-29.6301E-3	46.6961E-12	1.95547E+0	-15.7461E-3
577.789E-6	46.5648E-12	1.91209E+0	-31.5035E-3	46.9743E-12	1.99300E+0	-11.1250E-3
572.786E-6	45.8268E-12	1.93412E+0	-35.2051E-3	46.7587E-12	2.02163E+0	-23.2761E-3
567.784E-6	45.6599E-12	1.91210E+0	-34.9720E-3	46.5646E-12	2.04514E+0	-31.9353E-3
562.781E-6	45.4200E-12	1.90074E+0	-33.7329E-3	45.5790E-12	2.08001E+0	-14.0528E-3
557.779E-6	44.4103E-12	1.93834E+0	-25.7090E-3	45.2894E-12	2.10318E+0	-15.0363E-3
552.776E-6	43.8720E-12	1.98394E+0	-17.3987E-3	44.7958E-12	2.09360E+0	-27.6303E-3
547.774E-6	43.5182E-12	2.00268E+0	-17.8091E-3	44.2331E-12	2.08162E+0	-15.7356E-3
542.771E-6	42.7740E-12	2.00969E+0	-15.6847E-3	43.4006E-12	2.08085E+0	-9.12095E-3
537.769E-6	42.0600E-12	2.02684E+0	-13.1824E-3	42.4873E-12	2.07028E+0	-19.2187E-3
532.766E-6	41.6014E-12	2.04770E+0	-16.6859E-3	41.8869E-12	2.07148E+0	-30.9850E-3
527.764E-6	40.6867E-12	2.06355E+0	-19.0247E-3	40.9807E-12	2.08023E+0	-41.0556E-3
522.761E-6	39.4622E-12	2.06082E+0	-20.4677E-3	40.1546E-12	2.06868E+0	-37.1620E-3
517.759E-6	38.7827E-12	2.04474E+0	-22.1101E-3	39.1051E-12	2.06272E+0	-22.6814E-3
512.756E-6	38.6378E-12	2.04430E+0	-24.1473E-3	38.3778E-12	2.06986E+0	-19.0170E-3
507.754E-6	38.0920E-12	2.05901E+0	-31.3282E-3	36.9085E-12	2.06126E+0	-17.1437E-3
502.751E-6	36.5834E-12	2.07265E+0	-33.8197E-3	36.2230E-12	2.04393E+0	-18.4684E-3
497.749E-6	35.6993E-12	2.07561E+0	-20.7875E-3	35.4609E-12	2.04587E+0	-38.4113E-3
492.746E-6	35.5663E-12	2.06160E+0	-8.91806E-3	35.0852E-12	2.06101E+0	-48.4597E-3
487.744E-6	34.9736E-12	2.05290E+0	-12.0481E-3	34.4297E-12	2.07247E+0	-33.9726E-3
482.741E-6	34.0459E-12	2.06935E+0	-14.5703E-3	33.4683E-12	2.07845E+0	-17.6566E-3
477.739E-6	32.9801E-12	2.07601E+0	-8.04478E-3	33.0760E-12	2.07195E+0	-11.4710E-3
472.736E-6	32.9969E-12	2.06876E+0	-5.88763E-3	32.6052E-12	2.06132E+0	-13.2343E-3
467.734E-6	32.1210E-12	2.07402E+0	-9.02069E-3	31.9171E-12	2.06863E+0	-17.7940E-3
462.731E-6	31.2442E-12	2.07555E+0	-12.1167E-3	31.1116E-12	2.06895E+0	-19.1423E-3
457.729E-6	30.6337E-12	2.06805E+0	-20.3018E-3	30.8743E-12	2.05200E+0	-9.00525E-3
452.726E-6	30.3825E-12	2.06072E+0	-27.7555E-3	30.3483E-12	2.05652E+0	-5.25886E-3
447.724E-6	29.6536E-12	2.04993E+0	-27.4998E-3	29.4804E-12	2.06135E+0	-12.4283E-3
442.721E-6	28.8870E-12	2.04231E+0	-30.2135E-3	29.0835E-12	2.04597E+0	-8.13414E-3
437.719E-6	28.4432E-12	2.05086E+0	-33.5996E-3	28.7622E-12	2.04467E+0	-6.26663E-3
432.716E-6	28.0314E-12	2.05467E+0	-24.6494E-3	28.2111E-12	2.03810E+0	-21.3582E-3
427.714E-6	27.0562E-12	2.04224E+0	-24.1197E-3	27.1216E-12	1.99611E+0	-28.5742E-3
422.711E-6	26.2301E-12	2.03322E+0	-32.7324E-3	26.6118E-12	1.95742E+0	-22.6997E-3
417.709E-6	25.8189E-12	2.02410E+0	-23.8911E-3	26.0418E-12	1.93771E+0	-24.6216E-3
412.706E-6	25.3413E-12	2.00603E+0	-16.0304E-3	25.3656E-12	1.91487E+0	-22.3271E-3
407.704E-6	24.6618E-12	1.98197E+0	-22.0629E-3	24.4296E-12	1.89439E+0	-12.4709E-3
402.701E-6	23.7650E-12	1.95831E+0	-18.2313E-3	23.8638E-12	1.86916E+0	-15.4811E-3
397.699E-6	23.2977E-12	1.94073E+0	-15.4169E-3	23.2386E-12	1.83668E+0	-12.6651E-3
392.696E-6	22.8038E-12	1.93305E+0	-19.2586E-3	22.3654E-12	1.81008E+0	92.3550E-6
387.694E-6	21.9640E-12	1.92681E+0	-11.8952E-3	21.4622E-12	1.77639E+0	-651.969E-6
382.691E-6	21.1983E-12	1.89524E+0	-10.3746E-3	21.0355E-12	1.74139E+0	2.12536E-3
377.689E-6	20.6810E-12	1.84873E+0	-19.6154E-3	20.4481E-12	1.72880E+0	9.73072E-3
372.686E-6	20.1289E-12	1.81914E+0	-24.8475E-3	19.8170E-12	1.72046E+0	-3.23952E-3
367.684E-6	19.4104E-12	1.80632E+0	-23.1405E-3	19.1815E-12	1.69758E+0	-14.6040E-3
362.681E-6	18.6717E-12	1.79384E+0	-15.4003E-3	18.7432E-12	1.67441E+0	-12.1348E-3
357.679E-6	18.3177E-12	1.76701E+0	-9.38085E-3	18.3186E-12	1.65079E+0	-20.6014E-3
352.676E-6	17.8060E-12	1.72112E+0	-13.2688E-3	17.9382E-12	1.61878E+0	-25.9691E-3
347.674E-6	17.1740E-12	1.68089E+0	-17.5922E-3	17.2854E-12	1.59260E+0	-21.0779E-3
342.671E-6	16.7184E-12	1.65973E+0	-8.88417E-3	16.9001E-12	1.57141E+0	-25.9913E-3
337.669E-6	16.4206E-12	1.63879E+0	-985.029E-6	16.6333E-12	1.52976E+0	-26.7101E-3
332.666E-6	15.8446E-12	1.61894E+0	-14.1080E-3	16.1190E-12	1.49564E+0	-11.8166E-3
327.664E-6	15.1940E-12	1.60630E+0	-21.9664E-3	15.4656E-12	1.47610E+0	-1.66704E-3
322.661E-6	14.7368E-12	1.57761E+0	-16.4735E-3	14.8652E-12	1.42428E+0	-2.51587E-3
317.659E-6	14.4218E-12	1.53282E+0	-20.0748E-3	14.4941E-12	1.36987E+0	-3.17701E-3
312.656E-6	13.9652E-12	1.50017E+0	-21.0467E-3	13.9003E-12	1.33554E+0	82.3538E-6
307.654E-6	13.3834E-12	1.47264E+0	-17.1386E-3	13.3044E-12	1.28463E+0	-1.54729E-3
302.651E-6	12.8725E-12	1.43825E+0	-17.1552E-3	12.7918E-12	1.23154E+0	-8.62038E-3
297.649E-6	12.5294E-12	1.40375E+0	-19.2923E-3	12.2326E-12	1.20617E+0	-18.2970E-3
292.646E-6	11.8845E-12	1.37220E+0	-19.8552E-3	11.7601E-12	1.18199E+0	-25.6259E-3
287.644E-6	11.3352E-12	1.33634E+0	-18.8616E-3	11.2316E-12	1.14455E+0	-16.9051E-3
282.641E-6	10.9833E-12	1.28961E+0	-20.0786E-3	10.8264E-12	1.11198E+0	-12.5039E-3
277.639E-6	10.5660E-12	1.23808E+0	-17.4124E-3	10.2939E-12	1.08044E+0	-25.0999E-3
272.636E-6	10.0690E-12	1.19798E+0	-12.5293E-3	9.91882E-12	1.04411E+0	-18.3803E-3
267.634E-6	9.51651E-12	1.16738E+0	-5.84406E-3	9.51574E-12	1.01615E+0	7.33842E-3
262.631E-6	9.29270E-12	1.13074E+0	-295.680E-6	9.34353E-12	988.439E-3	7.88660E-3
257.629E-6	9.05444E-12	1.08890E+0	-11.4436E-3	8.99702E-12	969.604E-3	-5.85604E-3
252.626E-6	8.47083E-12	1.05482E+0	-20.4324E-3	8.73038E-12	973.715E-3	-8.87207E-3
247.624E-6	8.20835E-12	1.02883E+0	-14.7068E-3	8.49289E-12	958.459E-3	-14.0339E-3
242.621E-6	8.12206E-12	990.384E-3	-8.29545E-3	8.28421E-12	916.022E-3	-22.3107E-3
237.619E-6	8.02400E-12	956.548E-3	-5.11020E-3	8.14588E-12	886.083E-3	-34.5945E-3
232.616E-6	7.51431E-12	943.162E-3	-15.2689E-3	7.65343E-12	857.142E-3	-38.2623E-3
227.614E-6	7.20414E-12	927.555E-3	-30.3204E-3	7.36715E-12	819.865E-3	-17.5255E-3
222.611E-6	7.00136E-12	898.201E-3	-24.5577E-3	6.94011E-12	792.344E-3	-1.83701E-3
217.609E-6	6.74722E-12	865.829E-3	-7.38907E-3	6.66076E-12	758.497E-3	-13.1929E-3
212.606E-6	6.43383E-12	840.469E-3	2.37515E-3	6.33506E-12	717.298E-3	-24.8201E-3
207.604E-6	6.23027E-12	825.229E-3	453.247E-6	6.09721E-12	699.305E-3	-18.0866E-3
202.601E-6	6.05731E-12	805.921E-3	-3.52529E-3	5.82761E-12	683.707E-3	-13.7837E-3
197.599E-6	5.71849E-12	779.956E-3	-3.91827E-3	5.47517E-12	644.161E-3	-16.1164E-3
192.596E-6	5.39338E-12	765.438E-3	-11.4791E-3	5.32756E-12	616.940E-3	-21.2093E-3
187.594E-6	5.15289E-12	746.924E-3	-13.7469E-3	5.04440E-12	604.040E-3	-36.8204E-3
182.591E-6	5.03601E-12	707.366E-3	-14.3632E-3	4.80089E-12	579.294E-3	-39.5651E-3
177.589E-6	4.68646E-12	663.675E-3	-25.9271E-3	4.49192E-12	563.629E-3	-16.2272E-3
172.586E-6	4.35264E-12	637.352E-3	-22.8601E-3	4.34328E-12	551.238E-3	-5.21862E-3
167.584E-6	4.29876E-12	624.741E-3	-11.1117E-3	4.23585E-12	525.351E-3	-7.46156E-3
162.581E-6	4.16438E-12	616.391E-3	-13.7413E-3	4.02404E-12	517.488E-3	-8.92515E-3
157.579E-6	3.92129E-12	604.742E-3	-11.1909E-3	3.82873E-12	512.522E-3	-28.2635E-3
152.576E-6	3.63512E-12	574.464E-3	-4.47142E-3	3.67234E-12	486.625E-3	-31.3079E-3
147.574E-6	3.54952E-12	540.323E-3	-11.2165E-3	3.61041E-12	471.173E-3	-1.98687E-3
142.571E-6	3.47594E-12	523.048E-3	-12.4470E-3	3.41558E-12	468.158E-3	-3.85553E-3
137.569E-6	3.29067E-12	505.429E-3	-788.295E-6	3.21705E-12	454.747E-3	-31.0376E-3
132.566E-6	3.02534E-12	486.822E-3	2.68011E-3	3.05762E-12	429.676E-3	-21.2905E-3
127.564E-6	2.89408E-12	478.537E-3	-7.65699E-3	2.95181E-12	405.866E-3	-2.05039E-3
122.561E-6	2.89963E-12	460.254E-3	-14.6375E-3	2.67267E-12	386.169E-3	-7.58977E-3
117.559E-6	2.67367E-12	432.800E-3	-10.6028E-3	2.56597E-12	373.496E-3	-6.47250E-3
112.556E-6	2.46080E-12	426.407E-3	-4.40431E-3	2.43128E-12	372.534E-3	2.00903E-3
107.554E-6	2.35586E-12	426.063E-3	-4.08515E-3	2.26059E-12	366.497E-3	-5.17441E-3
102.551E-6	2.22736E-12	405.625E-3	-17.4501E-3	2.17443E-12	356.872E-3	-13.4826E-3
97.5488E-6	2.03140E-12	382.383E-3	-20.9814E-3	2.03099E-12	357.744E-3	-18.8216E-3
92.5463E-6	1.96312E-12	370.243E-3	-7.12926E-3	1.93916E-12	350.561E-3	-28.9409E-3
87.5438E-6	1.82936E-12	363.900E-3	-9.94589E-3	1.73245E-12	331.835E-3	-27.3606E-3
82.5413E-6	1.70055E-12	355.128E-3	-23.1389E-3	1.60067E-12	326.311E-3	-22.3503E-3
77.5388E-6	1.53480E-12	343.418E-3	-25.7709E-3	1.51876E-12	318.925E-3	-28.8538E-3
72.5363E-6	1.45739E-12	330.488E-3	-26.6484E-3	1.39552E-12	309.073E-3	-25.5502E-3
67.5338E-6	1.42519E-12	315.903E-3	-20.0964E-3	1.32775E-12	319.969E-3	-17.3981E-3
62.5313E-6	1.25108E-12	312.302E-3	1.86716E-3	1.15613E-12	329.016E-3	-27.6246E-3
57.5288E-6	1.03827E-12	313.362E-3	6.77117E-3	1.11198E-12	316.875E-3	-31.9618E-3
52.5263E-6	999.492E-15	304.662E-3	-5.37166E-3	1.04944E-12	309.545E-3	-22.5191E-3
47.5238E-6	1.00661E-12	290.582E-3	-9.94411E-3	899.316E-15	307.660E-3	-18.7274E-3
42.5213E-6	859.416E-15	282.952E-3	-16.6861E-3	805.261E-15	287.874E-3	-10.6369E-3
37.5188E-6	643.169E-15	290.695E-3	-13.3406E-3	725.436E-15	280.176E-3	-7.01581E-3
32.5163E-6	573.650E-15	299.925E-3	1.80797E-3	642.375E-15	289.275E-3	-15.2290E-3
27.5138E-6	578.995E-15	291.244E-3	382.237E-6	487.904E-15	285.832E-3	-9.42333E-3
22.5113E-6	406.143E-15	280.540E-3	-12.2056E-3	343.914E-15	290.717E-3	-5.90062E-3
17.5088E-6	235.376E-15	278.828E-3	-16.6873E-3	297.536E-15	298.849E-3	-20.5003E-3
12.5063E-6	150.519E-15	275.552E-3	-21.8708E-3	185.562E-15	287.400E-3	-23.2596E-3
7.50375E-6	144.241E-15	276.986E-3	-26.6602E-3	45.8091E-15	287.614E-3	-14.9836E-3
2.50125E-6	-20.9546E-15	285.852E-3	-21.2322E-3	-33.3012E-15	301.646E-3	-17.7009E-3
-2.50125E-6	-138.046E-15	298.205E-3	-22.5918E-3	-59.4242E-15	299.454E-3	-18.8103E-3
-7.50375E-6	-235.955E-15	308.795E-3	-34.4783E-3	-232.459E-15	297.801E-3	-7.61592E-3
-12.5063E-6	-301.123E-15	311.640E-3	-35.0812E-3	-348.975E-15	304.794E-3	-10.7727E-3
-17.5088E-6	-454.888E-15	313.498E-3	-32.5285E-3	-433.439E-15	308.218E-3	-26.4051E-3
-22.5113E-6	-601.504E-15	319.818E-3	-37.2313E-3	-487.045E-15	324.031E-3	-27.4309E-3
-27.5138E-6	-616.344E-15	317.495E-3	-30.1379E-3	-647.698E-15	342.803E-3	-24.3330E-3
-32.5163E-6	-753.438E-15	306.195E-3	-19.5250E-3	-786.484E-15	339.365E-3	-23.9763E-3
-37.5188E-6	-920.116E-15	308.430E-3	-20.6773E-3	-932.872E-15	338.433E-3	-15.9466E-3
-42.5213E-6	-973.338E-15	321.764E-3	-16.3863E-3	-946.570E-15	357.066E-3	-16.9097E-3
-47.5238E-6	-1.07201E-12	322.740E-3	-10.7468E-3	-1.11916E-12	374.114E-3	-30.5800E-3
-52.5263E-6	-1.21791E-12	323.755E-3	-19.2995E-3	-1.20354E-12	389.735E-3	-31.9506E-3
-57.5288E-6	-1.42294E-12	342.671E-3	-25.2466E-3	-1.33520E-12	409.200E-3	-20.9474E-3
-62.5313E-6	-1.51073E-12	355.777E-3	-20.7309E-3	-1.48163E-12	419.041E-3	-12.1855E-3
-67.5338E-6	-1.54117E-12	360.453E-3	-12.0081E-3	-1.62576E-12	429.046E-3	-1.60960E-3
-72.5363E-6	-1.76120E-12	380.578E-3	-2.76850E-3	-1.75615E-12	456.107E-3	-6.43154E-3
-77.5388E-6	-2.05150E-12	399.754E-3	-9.53237E-3	-1.90077E-12	476.168E-3	-22.7563E-3
-82.5413E-6	-2.07547E-12	408.224E-3	-26.5997E-3	-2.08515E-12	487.579E-3	-12.4943E-3
-87.5438E-6	-2.15794E-12	425.298E-3	-22.1561E-3	-2.30764E-12	507.412E-3	-7.80514E-3
-92.5463E-6	-2.33325E-12	449.683E-3	-1.69743E-3	-2.39951E-12	526.179E-3	-26.3865E-3
-97.5488E-6	-2.64467E-12	471.923E-3	-3.47839E-3	-2.56770E-12	547.334E-3	-26.9278E-3
-102.551E-6	-2.81597E-12	490.656E-3	-17.5490E-3	-2.77442E-12	571.714E-3	-21.0474E-3
-107.554E-6	-2.90772E-12	501.439E-3	-15.8882E-3	-2.98435E-12	586.373E-3	-24.4093E-3
-112.556E-6	-3.11258E-12	512.706E-3	-14.1808E-3	-3.16899E-12	605.290E-3	-18.7424E-3
-117.559E-6	-3.41197E-12	530.512E-3	-15.6520E-3	-3.27621E-12	639.985E-3	-18.0009E-3
-122.561E-6	-3.54865E-12	555.791E-3	-11.5686E-3	-3.48419E-12	660.120E-3	-26.3662E-3
-127.564E-6	-3.71159E-12	586.354E-3	-17.6145E-3	-3.75920E-12	669.738E-3	-14.6957E-3
-132.566E-6	-3.91144E-12	618.232E-3	-24.3430E-3	-3.87574E-12	700.351E-3	1.90994E-3
-137.569E-6	-4.22488E-12	648.492E-3	-13.9628E-3	-4.09334E-12	727.329E-3	-10.2262E-3
-142.571E-6	-4.41183E-12	669.975E-3	-3.97308E-3	-4.31592E-12	740.157E-3	-20.4231E-3
-147.574E-6	-4.57197E-12	695.367E-3	-5.89153E-3	-4.57609E-12	775.264E-3	-10.3079E-3
-152.576E-6	-4.73246E-12	726.556E-3	-11.3019E-3	-4.74474E-12	823.740E-3	-5.96191E-3
-157.579E-6	-5.00920E-12	733.047E-3	-10.5155E-3	-4.99624E-12	857.071E-3	-9.97388E-3
-162.581E-6	-5.25876E-12	727.453E-3	-11.1934E-3	-5.27847E-12	887.813E-3	-14.2328E-3
-167.584E-6	-5.55684E-12	753.853E-3	-19.0588E-3	-5.63078E-12	922.933E-3	-16.6615E-3
-172.586E-6	-5.89622E-12	797.068E-3	-22.4521E-3	-6.04062E-12	956.589E-3	-4.63751E-3
-177.589E-6	-6.30741E-12	832.074E-3	-21.6340E-3	-6.34823E-12	1.01011E+0	16.1794E-3
-182.591E-6	-6.59636E-12	868.899E-3	-21.6119E-3	-6.74046E-12	1.08069E+0	13.3382E-3
-187.594E-6	-6.94808E-12	907.436E-3	-24.9983E-3	-6.98762E-12	1.13865E+0	-9.30172E-3
-192.596E-6	-7.41893E-12	945.895E-3	-33.7973E-3	-7.39874E-12	1.19520E+0	-25.6519E-3
-197.599E-6	-7.81408E-12	990.821E-3	-36.1924E-3	-7.91897E-12	1.24334E+0	-35.1290E-3
-202.601E-6	-8.04696E-12	1.04152E+0	-30.0465E-3	-8.35556E-12	1.25979E+0	-33.7241E-3
-207.604E-6	-8.53482E-12	1.09293E+0	-20.7381E-3	-8.68312E-12	1.28698E+0	-26.0007E-3
-212.606E-6	-9.16686E-12	1.13836E+0	-12.3315E-3	-8.95881E-12	1.34638E+0	-29.8611E-3
-217.609E-6	-9.55530E-12	1.18955E+0	-16.4942E-3	-9.55328E-12	1.38555E+0	-29.4179E-3
-222.611E-6	-9.81956E-12	1.25171E+0	-28.3075E-3	-9.94994E-12	1.41423E+0	-15.9485E-3
-227.614E-6	-10.2401E-12	1.30054E+0	-23.4963E-3	-10.2518E-12	1.47802E+0	-15.2106E-3
-232.616E-6	-10.7746E-12	1.33072E+0	-9.55647E-3	-10.5680E-12	1.54327E+0	-17.5849E-3
-237.619E-6	-11.2865E-12	1.36589E+0	-6.99403E-3	-11.1119E-12	1.57763E+0	-7.14794E-3
-242.621E-6	-11.5715E-12	1.41096E+0	-7.00099E-3	-11.6202E-12	1.61306E+0	-12.9232E-3
-247.624E-6	-12.0889E-12	1.45649E+0	-10.1095E-3	-12.0781E-12	1.66962E+0	-24.1867E-3
-252.626E-6	-12.5651E-12	1.50844E+0	-15.4392E-3	-12.4102E-12	1.73720E+0	-13.0887E-3
-257.629E-6	-13.0271E-12	1.56303E+0	-24.2411E-3	-13.1083E-12	1.80641E+0	-5.85520E-3
-262.631E-6	-13.6317E-12	1.59999E+0	-31.1388E-3	-13.8827E-12	1.85597E+0	-19.9632E-3
-267.634E-6	-14.4038E-12	1.63567E+0	-18.7426E-3	-14.4417E-12	1.91294E+0	-29.5171E-3
-272.636E-6	-15.1234E-12	1.69954E+0	-12.2752E-3	-15.1533E-12	2.00357E+0	-29.7170E-3
-277.639E-6	-15.6127E-12	1.78183E+0	-17.8532E-3	-15.8443E-12	2.08080E+0	-26.4100E-3
-282.641E-6	-16.3008E-12	1.85469E+0	-18.6726E-3	-16.6748E-12	2.14252E+0	-11.9838E-3
-287.644E-6	-17.2838E-12	1.91114E+0	-19.9703E-3	-17.3605E-12	2.22377E+0	-6.62086E-3
-292.646E-6	-18.2362E-12	1.97978E+0	-18.1493E-3	-18.0693E-12	2.29560E+0	-19.7486E-3
-297.649E-6	-18.5769E-12	2.06417E+0	-16.2312E-3	-18.8252E-12	2.33868E+0	-24.7402E-3
-302.651E-6	-19.1824E-12	2.12999E+0	-16.5521E-3	-19.6482E-12	2.38495E+0	-19.0195E-3
-307.654E-6	-20.1341E-12	2.17733E+0	-23.3165E-3	-20.1917E-12	2.43992E+0	-19.4614E-3
-312.656E-6	-21.1860E-12	2.23413E+0	-36.2985E-3	-21.0244E-12	2.49801E+0	-15.7323E-3
-317.659E-6	-21.5431E-12	2.30259E+0	-35.0776E-3	-21.7100E-12	2.56134E+0	-8.44652E-3
-322.661E-6	-21.9022E-12	2.35687E+0	-28.6606E-3	-22.5333E-12	2.61021E+0	-21.2105E-3
-327.664E-6	-22.9158E-12	2.39575E+0	-28.7255E-3	-23.2575E-12	2.64499E+0	-34.8498E-3
-332.666E-6	-23.9594E-12	2.43602E+0	-21.3234E-3	-24.1020E-12	2.69481E+0	-28.3198E-3
-337.669E-6	-24.5319E-12	2.48712E+0	-14.1583E-3	-24.9178E-12	2.74883E+0	-24.4052E-3
-342.671E-6	-24.7639E-12	2.54213E+0	-14.3518E-3	-25.6592E-12	2.79529E+0	-23.6795E-3
-347.674E-6	-25.9626E-12	2.58519E+0	-10.5441E-3	-26.2019E-12	2.86138E+0	-20.1800E-3
-352.676E-6	-27.0638E-12	2.61605E+0	-11.4119E-3	-27.2545E-12	2.93284E+0	-23.6191E-3
-357.679E-6	-27.7169E-12	2.66275E+0	-20.1774E-3	-28.3064E-12	2.98142E+0	-31.0279E-3
-362.681E-6	-28.3961E-12	2.73101E+0	-15.3110E-3	-29.1532E-12	3.04258E+0	-32.4690E-3
-367.684E-6	-29.6481E-12	2.78526E+0	-9.44505E-3	-29.8891E-12	3.11346E+0	-30.0606E-3
-372.686E-6	-31.4709E-12	2.83711E+0	-22.5109E-3	-31.1522E-12	3.14858E+0	-26.2312E-3
-377.689E-6	-32.4802E-12	2.91804E+0	-27.0520E-3	-32.3758E-12	3.17667E+0	-13.7017E-3
-382.691E-6	-33.1417E-12	3.01927E+0	-28.4947E-3	-33.4039E-12	3.23204E+0	-17.4688E-3
-387.694E-6	-34.1376E-12	3.10485E+0	-43.7534E-3	-34.2793E-12	3.28450E+0	-24.0496E-3
-392.696E-6	-35.6665E-12	3.14356E+0	-30.7328E-3	-35.6576E-12	3.33093E+0	-5.85174E-3
-397.699E-6	-36.8290E-12	3.15795E+0	-4.91371E-3	-36.5902E-12	3.38535E+0	-10.0497E-3
-402.701E-6	-37.9657E-12	3.21139E+0	-8.55541E-3	-37.4336E-12	3.42459E+0	-31.0718E-3
-407.704E-6	-39.3503E-12	3.30140E+0	-22.0255E-3	-38.8428E-12	3.45598E+0	-16.4418E-3
-412.706E-6	-40.0600E-12	3.37763E+0	-17.8789E-3	-40.1812E-12	3.50956E+0	-3.58839E-3
-417.709E-6	-41.1676E-12	3.41654E+0	-9.59674E-3	-41.1604E-12	3.56569E+0	-17.6878E-3
-422.711E-6	-42.2978E-12	3.43098E+0	-14.8224E-3	-42.1061E-12	3.59947E+0	-24.3066E-3
-427.714E-6	-43.9402E-12	3.45245E+0	-22.1594E-3	-43.9952E-12	3.62333E+0	-25.7076E-3
-432.716E-6	-45.1277E-12	3.48850E+0	-26.1778E-3	-45.3603E-12	3.65389E+0	-19.8807E-3
-437.719E-6	-45.6591E-12	3.53743E+0	-21.3419E-3	-45.9054E-12	3.68289E+0	-2.13045E-3
-442.721E-6	-47.1786E-12	3.58609E+0	-13.6040E-3	-46.7314E-12	3.70404E+0	-4.37180E-3
-447.724E-6	-49.0591E-12	3.62068E+0	-18.7880E-3	-48.4487E-12	3.71318E+0	-24.7927E-3
-452.726E-6	-49.8899E-12	3.66222E+0	-23.8881E-3	-49.5240E-12	3.71846E+0	-21.1512E-3
-457.729E-6	-50.5269E-12	3.70632E+0	-29.3573E-3	-50.1570E-12	3.74419E+0	-8.41492E-3
-462.731E-6	-51.8793E-12	3.72852E+0	-39.8768E-3	-51.0287E-12	3.75187E+0	-24.3838E-3
-467.734E-6	-53.5240E-12	3.73883E+0	-34.2933E-3	-53.0389E-12	3.73181E+0	-35.1431E-3
-472.736E-6	-54.7595E-12	3.75319E+0	-21.1825E-3	-54.3598E-12	3.73467E+0	-20.6997E-3
-477.739E-6	-55.2075E-12	3.77125E+0	-17.8643E-3	-54.4772E-12	3.76106E+0	-13.6237E-3
-482.741E-6	-56.5362E-12	3.78510E+0	-20.6339E-3	-55.6060E-12	3.79101E+0	-7.39993E-3
-487.744E-6	-58.2707E-12	3.78363E+0	-26.6801E-3	-57.3746E-12	3.80007E+0	-3.91442E-3
-492.746E-6	-59.2399E-12	3.78268E+0	-26.7558E-3	-59.3281E-12	3.77669E+0	-21.3417E-3
-497.749E-6	-60.1755E-12	3.79807E+0	-13.0087E-3	-59.8723E-12	3.77307E+0	-18.2882E-3
-502.751E-6	-61.7217E-12	3.80698E+0	-8.35800E-3	-61.1144E-12	3.80884E+0	6.00661E-3
-507.754E-6	-63.1001E-12	3.79891E+0	-19.7909E-3	-62.9803E-12	3.82003E+0	4.04551E-3
-512.756E-6	-64.6170E-12	3.79065E+0	-29.5860E-3	-65.1550E-12	3.79206E+0	-16.5926E-3
-517.759E-6	-66.0045E-12	3.80150E+0	-27.1701E-3	-66.1205E-12	3.78741E+0	-30.8071E-3
-522.761E-6	-67.7081E-12	3.81909E+0	-15.0049E-3	-67.2580E-12	3.80671E+0	-27.1873E-3
-527.764E-6	-69.4782E-12	3.81202E+0	-11.4124E-3	-68.5220E-12	3.79440E+0	-11.4955E-3
-532.766E-6	-70.5988E-12	3.79419E+0	-11.8640E-3	-70.1465E-12	3.75268E+0	-8.10372E-3
-537.769E-6	-72.0768E-12	3.79524E+0	-14.5703E-3	-71.5444E-12	3.71617E+0	-17.9480E-3
-542.771E-6	-73.5564E-12	3.81815E+0	-22.2485E-3	-72.3692E-12	3.69951E+0	-15.8755E-3
-547.774E-6	-74.3627E-12	3.82937E+0	-18.7308E-3	-72.7154E-12	3.68482E+0	-6.88349E-3
-552.776E-6	-75.0968E-12	3.80498E+0	-10.3104E-3	-73.6629E-12	3.63809E+0	-14.0507E-3
-557.779E-6	-75.7785E-12	3.79329E+0	-14.2812E-3	-74.8970E-12	3.56774E+0	-12.3793E-3
-562.781E-6	-77.0469E-12	3.79147E+0	-24.3051E-3	-76.8795E-12	3.52390E+0	3.86918E-3
-567.784E-6	-78.5689E-12	3.74475E+0	-25.1892E-3	-77.7583E-12	3.50714E+0	-9.11155E-3
-572.786E-6	-79.6419E-12	3.67915E+0	-16.0969E-3	-78.5774E-12	3.46875E+0	-30.6702E-3
-577.789E-6	-80.6829E-12	3.62674E+0	-7.12561E-3	-80.0516E-12	3.40469E+0	-24.8292E-3
-582.791E-6	-81.4763E-12	3.59564E+0	-5.45255E-3	-81.5761E-12	3.35869E+0	-13.9434E-3
-587.794E-6	-81.6437E-12	3.56846E+0	230.948E-6	-82.3556E-12	3.35268E+0	-3.57281E-3
-592.796E-6	-82.4993E-12	3.50914E+0	11.0299E-3	-82.3999E-12	3.35426E+0	12.9240E-3
-597.799E-6	-84.4946E-12	3.43734E+0	16.1862E-3	-83.9145E-12	3.32399E+0	5.46842E-3
-602.801E-6	-85.3951E-12	3.39295E+0	11.4013E-3	-85.9473E-12	3.26706E+0	-17.6592E-3
-607.804E-6	-86.0418E-12	3.36977E+0	667.306E-6	-87.5561E-12	3.22928E+0	-14.4123E-3
-612.806E-6	-86.9878E-12	3.33194E+0	-16.9057E-3	-87.9855E-12	3.21255E+0	-15.3259E-3
-617.809E-6	-89.4515E-12	3.28523E+0	-35.3916E-3	-89.3312E-12	3.17609E+0	-26.9827E-3
-622.811E-6	-91.1570E-12	3.24997E+0	-37.2597E-3	-92.1892E-12	3.12388E+0	-18.6100E-3
-627.814E-6	-91.6889E-12	3.21946E+0	-37.3087E-3	-93.6716E-12	3.07633E+0	-11.3130E-3
-632.816E-6	-92.5712E-12	3.18048E+0	-46.6039E-3	-94.0495E-12	3.03346E+0	-14.4779E-3
-637.819E-6	-93.9834E-12	3.13668E+0	-41.5034E-3	-94.3332E-12	3.00207E+0	-20.7788E-3
-642.821E-6	-95.7102E-12	3.10916E+0	-23.2130E-3	-96.5184E-12	2.96898E+0	-28.0069E-3
-647.824E-6	-95.7316E-12	3.09242E+0	-10.4701E-3	-97.6267E-12	2.89848E+0	-22.5653E-3
-652.826E-6	-95.9171E-12	3.06844E+0	-6.94663E-3	-97.5749E-12	2.81472E+0	-917.916E-6
-657.829E-6	-96.7320E-12	3.01945E+0	-13.9973E-3	-97.3361E-12	2.75161E+0	-2.62054E-3
-662.831E-6	-99.2177E-12	2.94234E+0	-15.1736E-3	-97.7864E-12	2.67868E+0	-31.3917E-3
-667.834E-6	-98.7359E-12	2.87753E+0	-8.71551E-3	-98.9233E-12	2.59426E+0	-33.7527E-3
-672.836E-6	-98.7158E-12	2.83701E+0	-11.4882E-3	-98.9989E-12	2.53886E+0	-19.5233E-3
-677.839E-6	-99.2960E-12	2.79148E+0	-12.0773E-3	-99.0552E-12	2.50118E+0	-24.9985E-3
-682.841E-6	-100.340E-12	2.72107E+0	-14.0567E-3	-99.9631E-12	2.45982E+0	-25.0543E-3
-687.844E-6	-101.503E-12	2.63958E+0	-20.7991E-3	-100.946E-12	2.42815E+0	-17.7340E-3
-692.846E-6	-102.237E-12	2.57798E+0	-16.3804E-3	-102.184E-12	2.37676E+0	-30.9854E-3
-697.849E-6	-102.989E-12	2.53193E+0	-12.3119E-3	-103.718E-12	2.29775E+0	-32.3194E-3
-702.851E-6	-103.701E-12	2.47812E+0	-12.0942E-3	-104.611E-12	2.25282E+0	-16.5480E-3
-707.854E-6	-105.666E-12	2.40503E+0	-10.6970E-3	-105.275E-12	2.22697E+0	-13.6866E-3
-712.856E-6	-106.883E-12	2.34941E+0	-14.7941E-3	-106.526E-12	2.15558E+0	-13.3434E-3
-717.859E-6	-108.546E-12	2.32172E+0	-23.5938E-3	-107.623E-12	2.09305E+0	-7.85107E-3
-722.861E-6	-108.926E-12	2.28626E+0	-33.4667E-3	-108.551E-12	2.07295E+0	-9.19807E-3
-727.864E-6	-109.374E-12	2.24773E+0	-35.1824E-3	-109.108E-12	2.02218E+0	-15.8205E-3
-732.866E-6	-110.717E-12	2.20144E+0	-9.79187E-3	-110.119E-12	1.95249E+0	-13.3052E-3
-737.869E-6	-111.318E-12	2.15211E+0	5.49683E-3	-110.285E-12	1.90396E+0	-4.66853E-3
-742.871E-6	-111.742E-12	2.11592E+0	-14.2448E-3	-111.454E-12	1.85303E+0	-1.77595E-3
-747.874E-6	-111.370E-12	2.05866E+0	-18.3811E-3	-112.355E-12	1.80154E+0	-1.06599E-3
-752.876E-6	-111.488E-12	1.98136E+0	-14.8520E-3	-112.578E-12	1.76020E+0	-3.93220E-3
-757.879E-6	-111.715E-12	1.92762E+0	-25.6229E-3	-112.251E-12	1.70881E+0	-8.91415E-3
-762.881E-6	-111.969E-12	1.88076E+0	-15.7074E-3	-112.412E-12	1.64023E+0	-3.89771E-3
-767.884E-6	-111.448E-12	1.80755E+0	-13.3232E-3	-113.467E-12	1.57306E+0	1.74411E-3
-772.886E-6	-112.529E-12	1.73905E+0	-29.1764E-3	-113.720E-12	1.52743E+0	1.77936E-3
-777.889E-6	-113.419E-12	1.68299E+0	-22.9751E-3	-114.793E-12	1.50380E+0	-33.5082E-6
-782.891E-6	-114.343E-12	1.62178E+0	-10.3223E-3	-114.862E-12	1.46903E+0	-11.2708E-3
-787.894E-6	-114.289E-12	1.57645E+0	-16.1436E-3	-115.382E-12	1.42005E+0	-13.9156E-3
-792.896E-6	-114.864E-12	1.54047E+0	-25.4069E-3	-116.299E-12	1.37631E+0	-4.86928E-3
-797.899E-6	-117.312E-12	1.48019E+0	-22.6603E-3	-116.962E-12	1.33423E+0	-7.41050E-3
-802.901E-6	-118.686E-12	1.42999E+0	-16.7075E-3	-117.110E-12	1.27747E+0	-8.68472E-3
-807.904E-6	-119.459E-12	1.41095E+0	-1.08195E-3	-117.168E-12	1.21314E+0	-10.1690E-3
-812.906E-6	-120.133E-12	1.38640E+0	7.27841E-3	-118.883E-12	1.16246E+0	-17.7279E-3
-817.909E-6	-121.315E-12	1.34003E+0	-14.2467E-3	-120.137E-12	1.11869E+0	-21.7320E-3
-822.911E-6	-122.253E-12	1.29303E+0	-35.3954E-3	-119.168E-12	1.08882E+0	-23.0405E-3
-827.914E-6	-122.342E-12	1.26463E+0	-27.5908E-3	-118.996E-12	1.06265E+0	-19.9414E-3
-832.916E-6	-122.539E-12	1.23679E+0	-21.2106E-3	-120.938E-12	1.02077E+0	-27.1855E-3
-837.919E-6	-121.717E-12	1.19987E+0	-16.9542E-3	-121.905E-12	976.449E-3	-35.2745E-3
-842.921E-6	-122.005E-12	1.15172E+0	3.44111E-3	-121.331E-12	948.878E-3	-25.4188E-3
-847.924E-6	-122.254E-12	1.09434E+0	-7.76819E-3	-120.953E-12	923.256E-3	-12.2076E-3
-852.926E-6	-122.193E-12	1.05008E+0	-33.6717E-3	-121.743E-12	867.176E-3	-8.95580E-3
-857.929E-6	-120.951E-12	1.00912E+0	-19.5315E-3	-121.786E-12	828.117E-3	-19.7492E-3
-862.931E-6	-121.117E-12	966.165E-3	-10.6054E-3	-121.096E-12	828.730E-3	-13.3050E-3
-867.934E-6	-122.159E-12	940.041E-3	-18.8685E-3	-121.403E-12	813.897E-3	16.6718E-3
-872.936E-6	-122.171E-12	920.898E-3	-19.4138E-3	-123.026E-12	775.681E-3	26.1799E-3
-877.939E-6	-121.919E-12	892.703E-3	-34.8220E-3	-124.179E-12	731.141E-3	16.5486E-3
-882.941E-6	-122.183E-12	855.954E-3	-36.0742E-3	-123.404E-12	699.875E-3	5.05086E-3
-887.944E-6	-124.067E-12	824.637E-3	-10.7440E-3	-123.228E-12	681.976E-3	5.78898E-3
-892.946E-6	-123.481E-12	797.424E-3	-5.26602E-3	-124.029E-12	665.257E-3	12.1348E-3
-897.949E-6	-124.107E-12	770.943E-3	-8.71084E-3	-125.725E-12	636.702E-3	-100.874E-6
-902.951E-6	-123.833E-12	740.499E-3	-7.55885E-3	-125.673E-12	606.982E-3	-7.91345E-3
-907.954E-6	-124.963E-12	700.149E-3	-14.5069E-3	-125.663E-12	593.299E-3	-308.105E-6
-912.956E-6	-124.146E-12	665.591E-3	-18.2566E-3	-125.174E-12	574.611E-3	-4.99741E-3
-917.959E-6	-123.679E-12	653.564E-3	-13.3293E-3	-126.038E-12	556.127E-3	-24.5222E-3
-922.961E-6	-124.478E-12	653.608E-3	-11.6515E-3	-126.508E-12	544.506E-3	-32.8799E-3
-927.964E-6	-124.650E-12	633.674E-3	-6.17899E-3	-125.409E-12	519.464E-3	-21.1490E-3
-932.966E-6	-125.843E-12	590.540E-3	5.03697E-3	-124.557E-12	485.234E-3	-18.4025E-3
-937.969E-6	-124.281E-12	540.563E-3	14.1892E-3	-125.451E-12	454.755E-3	-36.6874E-3
-942.971E-6	-124.524E-12	504.833E-3	15.3955E-3	-126.322E-12	439.856E-3	-36.3671E-3
-947.974E-6	-124.483E-12	498.459E-3	3.17682E-3	-125.184E-12	451.483E-3	-5.06112E-3
-952.976E-6	-126.391E-12	494.406E-3	-23.4767E-3	-124.959E-12	463.542E-3	15.1284E-3
-957.979E-6	-126.344E-12	485.106E-3	-47.0188E-3	-125.245E-12	445.885E-3	5.68973E-3
-962.981E-6	-126.252E-12	477.919E-3	-37.2728E-3	-126.227E-12	411.887E-3	9.27621E-3
-967.984E-6	-126.845E-12	456.533E-3	-22.4652E-3	-126.635E-12	381.189E-3	11.2065E-3
-972.986E-6	-128.357E-12	436.327E-3	-21.0604E-3	-126.425E-12	340.317E-3	-16.3129E-3
-977.989E-6	-129.860E-12	429.036E-3	-9.57306E-3	-127.383E-12	322.298E-3	-25.8594E-3
-982.991E-6	-128.060E-12	418.223E-3	-2.41833E-3	-127.438E-12	330.287E-3	-22.3819E-3
-987.994E-6	-127.339E-12	403.160E-3	-20.9661E-3	-127.441E-12	317.596E-3	-17.2272E-3
-992.997E-6	-127.812E-12	386.541E-3	-26.3881E-3	-127.823E-12	303.579E-3	-2.94134E-3
-997.999E-6	-129.502E-12	363.852E-3	-6.47010E-3	-128.316E-12	288.957E-3	5.72385E-3
-1.00300E-3	-128.696E-12	348.251E-3	5.21138E-3	-127.690E-12	275.019E-3	12.1729E-3
-1.00800E-3	-126.688E-12	343.506E-3	504.769E-6	-127.550E-12	278.141E-3	3.40008E-3
-1.01301E-3	-126.012E-12	325.338E-3	-20.1219E-3	-127.781E-12	294.026E-3	-24.6917E-3
-1.01801E-3	-127.117E-12	310.729E-3	-44.3646E-3	-127.539E-12	309.838E-3	-51.0451E-3
-1.02301E-3	-128.733E-12	323.085E-3	-50.2511E-3	-127.358E-12	297.845E-3	-67.9770E-3
-1.02801E-3	-127.591E-12	312.190E-3	-34.7459E-3	-127.095E-12	270.238E-3	-56.8980E-3
-1.03302E-3	-127.126E-12	276.223E-3	-26.3543E-3	-128.661E-12	248.361E-3	-24.8746E-3
-1.03802E-3	-127.651E-12	280.685E-3	-12.6776E-3	-128.796E-12	232.450E-3	-8.91541E-3
-1.04302E-3	-128.378E-12	305.054E-3	5.82249E-3	-128.162E-12	227.815E-3	-11.3550E-3
-1.04802E-3	-129.459E-12	305.334E-3	-8.58938E-3	-128.712E-12	230.625E-3	-17.4638E-3
-1.05303E-3	-129.140E-12	293.026E-3	-23.4933E-3	-129.338E-12	240.810E-3	-12.0461E-3
-1.05803E-3	-129.362E-12	267.009E-3	-19.4867E-3	-129.930E-12	241.765E-3	-2.37775E-3
-1.06303E-3	-129.429E-12	239.538E-3	-17.1889E-3	-129.057E-12	220.835E-3	6.04732E-3
-1.06803E-3	-131.338E-12	241.600E-3	-19.1586E-3	-129.728E-12	212.478E-3	13.5599E-3
-1.07304E-3	-130.890E-12	253.099E-3	-15.9517E-3	-129.157E-12	226.105E-3	-3.36607E-3
-1.07804E-3	-130.036E-12	250.590E-3	-8.49488E-3	-129.161E-12	225.939E-3	-33.5112E-3
-1.08304E-3	-127.745E-12	233.490E-3	-8.99471E-3	-128.081E-12	206.682E-3	-51.6044E-3
-1.08804E-3	-128.034E-12	213.088E-3	-4.40483E-3	-127.896E-12	208.616E-3	-52.5183E-3
-1.09305E-3	-128.286E-12	221.149E-3	-3.32278E-3	-128.027E-12	216.215E-3	-39.6810E-3
-1.09805E-3	-127.674E-12	244.120E-3	-8.58583E-3	-127.804E-12	219.757E-3	-19.1013E-3
-1.10305E-3	-125.772E-12	235.871E-3	4.83913E-3	-127.630E-12	242.315E-3	-7.52251E-3
-1.10805E-3	-125.738E-12	212.561E-3	5.86291E-3	-127.381E-12	233.506E-3	-14.3456E-3
-1.11306E-3	-126.867E-12	225.074E-3	-28.5247E-3	-127.483E-12	210.054E-3	-20.6715E-3
-1.11806E-3	-127.122E-12	229.440E-3	-41.3642E-3	-127.273E-12	204.835E-3	-26.3949E-3
-1.12306E-3	-126.954E-12	207.877E-3	-23.0567E-3	-127.334E-12	201.025E-3	-30.3563E-3
-1.12806E-3	-127.431E-12	213.682E-3	-24.8005E-3	-128.673E-12	219.898E-3	-18.5768E-3
-1.13307E-3	-128.850E-12	225.703E-3	-20.8929E-3	-129.891E-12	241.161E-3	-10.0895E-3
-1.13807E-3	-131.146E-12	221.320E-3	-7.23743E-3	-130.059E-12	242.603E-3	-15.2286E-3
-1.14307E-3	-131.163E-12	214.974E-3	-22.6021E-3	-130.957E-12	238.803E-3	-14.5580E-3
-1.14807E-3	-131.086E-12	212.752E-3	-31.9254E-3	-131.324E-12	225.878E-3	-3.59989E-3
-1.15308E-3	-131.426E-12	203.188E-3	-20.0819E-3	-132.485E-12	211.476E-3	-9.23072E-3
-1.15808E-3	-131.786E-12	197.800E-3	-18.9081E-3	-132.566E-12	208.376E-3	-30.9694E-3
-1.16308E-3	-131.820E-12	218.546E-3	-23.5541E-3	-132.055E-12	209.152E-3	-32.3135E-3
-1.16808E-3	-131.908E-12	214.262E-3	-28.2213E-3	-132.135E-12	222.420E-3	-19.9329E-3
-1.17309E-3	-131.790E-12	203.597E-3	-35.2884E-3	-132.128E-12	245.987E-3	-22.2246E-3
-1.17809E-3	-130.824E-12	226.484E-3	-26.2437E-3	-131.322E-12	252.097E-3	-29.5016E-3
-1.18309E-3	-129.512E-12	225.649E-3	-10.9018E-3	-130.394E-12	247.798E-3	-19.6341E-3
-1.18809E-3	-129.183E-12	214.004E-3	-636.614E-6	-129.813E-12	243.285E-3	-1.07433E-3
-1.19310E-3	-128.980E-12	214.317E-3	14.2732E-3	-129.673E-12	238.097E-3	-297.921E-6
-1.19810E-3	-127.721E-12	202.531E-3	19.8978E-3	-129.812E-12	225.745E-3	-17.2956E-3
-1.20310E-3	-126.649E-12	203.959E-3	1.21683E-3	-129.172E-12	223.093E-3	-17.8519E-3
-1.20810E-3	-128.316E-12	214.957E-3	-12.0386E-3	-128.799E-12	252.031E-3	-7.39965E-3
-1.21311E-3	-129.364E-12	215.893E-3	-6.67171E-3	-128.844E-12	261.786E-3	-15.4208E-3
-1.21811E-3	-129.514E-12	224.508E-3	-6.65864E-3	-129.330E-12	240.431E-3	-26.0321E-3
-1.22311E-3	-128.900E-12	234.163E-3	-4.44190E-3	-129.984E-12	237.092E-3	-30.0563E-3
-1.22811E-3	-130.097E-12	232.771E-3	412.301E-6	-130.941E-12	239.234E-3	-30.7363E-3
-1.23312E-3	-132.814E-12	239.494E-3	-9.18386E-3	-131.926E-12	235.821E-3	-24.2554E-3
-1.23812E-3	-133.538E-12	257.325E-3	-16.1958E-3	-132.056E-12	247.278E-3	-16.1770E-3
-1.24312E-3	-133.545E-12	258.433E-3	-8.13811E-3	-132.331E-12	255.377E-3	-15.8026E-3
-1.24812E-3	-133.005E-12	245.846E-3	-4.15850E-3	-133.959E-12	257.864E-3	-22.7413E-3
-1.25313E-3	-134.383E-12	237.754E-3	-14.0837E-3	-135.237E-12	271.576E-3	-22.5388E-3
-1.25813E-3	-134.540E-12	251.316E-3	-20.7431E-3	-134.616E-12	293.982E-3	-18.8680E-3
-1.26313E-3	-134.685E-12	272.682E-3	-26.7857E-3	-133.942E-12	312.181E-3	-13.8491E-3
-1.26813E-3	-133.143E-12	269.335E-3	-39.8073E-3	-133.473E-12	313.895E-3	-4.57511E-3
-1.27314E-3	-132.485E-12	272.995E-3	-35.0426E-3	-133.885E-12	313.213E-3	-10.7474E-3
-1.27814E-3	-132.973E-12	296.292E-3	-19.1701E-3	-133.643E-12	298.777E-3	-28.9860E-3
-1.28314E-3	-133.113E-12	294.044E-3	-16.4660E-3	-132.129E-12	286.236E-3	-26.0609E-3
-1.28814E-3	-132.710E-12	279.210E-3	-4.23948E-3	-131.487E-12	315.700E-3	-20.7091E-3
-1.29315E-3	-132.047E-12	282.969E-3	33.3337E-6	-131.066E-12	336.071E-3	-37.2828E-3
-1.29815E-3	-131.954E-12	310.650E-3	-16.3138E-3	-131.845E-12	332.776E-3	-39.1322E-3
-1.30315E-3	-132.481E-12	333.108E-3	-11.7549E-3	-131.668E-12	351.960E-3	-20.4365E-3
-1.30815E-3	-132.728E-12	314.649E-3	-6.00188E-3	-131.283E-12	374.056E-3	-15.7260E-3
-1.31316E-3	-132.719E-12	298.201E-3	-10.9193E-3	-131.163E-12	374.286E-3	-12.1976E-3
-1.31816E-3	-133.246E-12	297.115E-3	-10.5955E-3	-132.112E-12	370.202E-3	-319.196E-6
-1.32316E-3	-133.869E-12	294.407E-3	-26.5169E-3	-132.802E-12	365.879E-3	3.29391E-3
-1.32816E-3	-133.959E-12	315.464E-3	-46.3236E-3	-133.132E-12	355.091E-3	1.85970E-3
-1.33317E-3	-134.637E-12	332.324E-3	-40.2422E-3	-133.081E-12	359.446E-3	-31.5466E-6
-1.33817E-3	-135.172E-12	331.751E-3	-33.1859E-3	-133.945E-12	369.778E-3	-16.6323E-3
-1.34317E-3	-135.652E-12	340.071E-3	-45.4696E-3	-135.115E-12	371.554E-3	-25.4404E-3
-1.34817E-3	-134.521E-12	351.630E-3	-55.2178E-3	-135.075E-12	386.552E-3	-14.7532E-3
-1.35318E-3	-133.672E-12	366.274E-3	-49.9024E-3	-134.696E-12	387.951E-3	-23.6227E-3
-1.35818E-3	-133.280E-12	382.189E-3	-50.8668E-3	-135.082E-12	374.475E-3	-29.6730E-3
-1.36318E-3	-133.661E-12	384.410E-3	-55.8512E-3	-134.928E-12	388.546E-3	-25.1514E-3
-1.36818E-3	-133.393E-12	362.960E-3	-47.4242E-3	-135.228E-12	390.326E-3	-37.6533E-3
-1.37319E-3	-133.859E-12	333.907E-3	-34.3807E-3	-134.665E-12	361.614E-3	-30.7453E-3
-1.37819E-3	-133.585E-12	327.819E-3	-21.1475E-3	-133.848E-12	365.911E-3	-21.6982E-3
-1.38319E-3	-133.994E-12	348.067E-3	-8.23486E-3	-135.178E-12	384.698E-3	-33.1535E-3
-1.38819E-3	-134.274E-12	381.676E-3	1.98017E-3	-134.788E-12	370.587E-3	-25.5061E-3
-1.39320E-3	-133.578E-12	413.456E-3	12.4958E-3	-134.640E-12	370.456E-3	-8.47390E-3
-1.39820E-3	-133.479E-12	414.942E-3	12.8438E-3	-134.676E-12	396.973E-3	-13.8139E-3
-1.40320E-3	-133.385E-12	411.982E-3	-8.78307E-3	-135.345E-12	401.866E-3	-27.8297E-3
-1.40820E-3	-133.994E-12	428.415E-3	-22.5864E-3	-135.118E-12	409.283E-3	-19.8418E-3
-1.41321E-3	-134.987E-12	423.928E-3	-16.2142E-3	-135.644E-12	432.751E-3	-2.97613E-3
-1.41821E-3	-135.146E-12	404.535E-3	-13.9200E-3	-135.587E-12	427.794E-3	10.9289E-3
-1.42321E-3	-135.468E-12	395.959E-3	-20.1508E-3	-135.741E-12	427.525E-3	2.21374E-3
-1.42821E-3	-135.513E-12	396.973E-3	-20.8127E-3	-136.036E-12	451.104E-3	-41.1772E-3
-1.43322E-3	-135.361E-12	414.293E-3	-5.99809E-3	-135.871E-12	459.159E-3	-66.6835E-3
-1.43822E-3	-135.718E-12	457.405E-3	802.429E-6	-136.392E-12	460.307E-3	-46.7845E-3
-1.44322E-3	-135.654E-12	480.987E-3	-10.1468E-3	-135.415E-12	453.889E-3	-14.2894E-3
-1.44822E-3	-134.973E-12	454.385E-3	-1.71922E-3	-136.161E-12	429.691E-3	11.9407E-3
-1.45323E-3	-135.131E-12	433.831E-3	6.36978E-3	-136.273E-12	433.769E-3	26.8993E-3
-1.45823E-3	-135.810E-12	430.057E-3	-20.8108E-3	-136.400E-12	477.138E-3	15.9659E-3
-1.46323E-3	-136.929E-12	426.557E-3	-37.6704E-3	-136.805E-12	493.793E-3	-17.4558E-3
-1.46823E-3	-137.003E-12	431.279E-3	-19.1861E-3	-136.154E-12	472.081E-3	-36.9452E-3
-1.47324E-3	-136.784E-12	433.633E-3	5.42486E-3	-137.334E-12	466.629E-3	-25.3603E-3
-1.47824E-3	-137.650E-12	435.645E-3	5.09011E-3	-137.720E-12	470.093E-3	-17.7535E-3
-1.48324E-3	-138.863E-12	441.163E-3	-16.1166E-3	-138.160E-12	471.487E-3	-30.2103E-3
-1.48824E-3	-138.421E-12	446.100E-3	-36.9776E-3	-137.383E-12	480.000E-3	-36.7175E-3
-1.49325E-3	-138.243E-12	443.871E-3	-57.5654E-3	-139.151E-12	489.979E-3	-45.3368E-3
-1.49825E-3	-137.946E-12	441.390E-3	-44.5331E-3	-139.265E-12	495.287E-3	-50.1415E-3
-1.50325E-3	-139.654E-12	455.702E-3	2.30122E-3	-138.755E-12	494.653E-3	-44.8264E-3
-1.50825E-3	-139.659E-12	465.444E-3	13.8034E-3	-136.910E-12	497.176E-3	-50.3354E-3
-1.51326E-3	-139.330E-12	475.547E-3	-8.14800E-3	-137.172E-12	503.219E-3	-42.3847E-3
-1.51826E-3	-139.176E-12	495.345E-3	-22.5019E-3	-138.908E-12	505.584E-3	-24.3905E-3
-1.52326E-3	-138.671E-12	505.924E-3	-27.0231E-3	-137.767E-12	500.139E-3	-23.2252E-3
-1.52826E-3	-139.205E-12	516.910E-3	-17.1612E-3	-136.642E-12	501.935E-3	-15.7447E-3
-1.53327E-3	-138.943E-12	515.531E-3	-2.48560E-3	-134.991E-12	504.653E-3	-10.8488E-3
-1.53827E-3	-138.756E-12	501.377E-3	3.32427E-3	-135.724E-12	493.105E-3	-26.7022E-3
-1.54327E-3	-139.087E-12	507.739E-3	5.25728E-3	-136.886E-12	481.940E-3	-25.8520E-3
-1.54827E-3	-140.198E-12	520.648E-3	-2.94307E-3	-136.954E-12	493.792E-3	-13.0968E-3
-1.55328E-3	-140.465E-12	506.962E-3	-16.0307E-3	-136.305E-12	522.316E-3	-18.4179E-3
-1.55828E-3	-141.134E-12	494.959E-3	-17.6422E-3	-136.108E-12	526.702E-3	-30.5810E-3
-1.56328E-3	-140.899E-12	508.591E-3	-17.2478E-3	-138.555E-12	524.721E-3	-32.6572E-3
-1.56828E-3	-142.414E-12	522.491E-3	-16.3076E-3	-139.642E-12	539.436E-3	-26.8320E-3
-1.57329E-3	-143.735E-12	529.236E-3	-10.1240E-3	-141.246E-12	537.638E-3	-31.0857E-3
-1.57829E-3	-144.376E-12	548.307E-3	-4.30712E-3	-141.267E-12	529.120E-3	-38.8261E-3
-1.58329E-3	-143.640E-12	554.688E-3	-7.72017E-3	-142.212E-12	520.771E-3	-36.2399E-3
-1.58829E-3	-143.369E-12	541.933E-3	-20.3273E-3	-142.963E-12	518.834E-3	-18.8472E-3
-1.59330E-3	-144.541E-12	540.467E-3	-15.4085E-3	-143.216E-12	546.607E-3	-3.62611E-3
-1.59830E-3	-145.175E-12	532.897E-3	-6.90952E-3	-143.459E-12	560.612E-3	-19.2508E-3
-1.60330E-3	-144.116E-12	527.805E-3	-32.2224E-3	-142.982E-12	533.696E-3	-29.0787E-3
-1.60830E-3	-143.055E-12	543.773E-3	-41.9704E-3	-142.480E-12	514.057E-3	-21.5833E-3
-1.61331E-3	-142.642E-12	559.249E-3	-17.4761E-3	-142.135E-12	534.964E-3	-24.4750E-3
-1.61831E-3	-142.476E-12	555.232E-3	-14.7223E-3	-141.907E-12	551.663E-3	-22.3670E-3
-1.62331E-3	-141.634E-12	540.296E-3	-18.8603E-3	-140.244E-12	549.900E-3	-25.7590E-3
-1.62831E-3	-141.638E-12	532.598E-3	-1.42544E-3	-140.464E-12	556.673E-3	-43.4085E-3
-1.63332E-3	-141.140E-12	530.591E-3	14.5752E-3	-139.799E-12	561.239E-3	-34.9342E-3
-1.63832E-3	-141.878E-12	539.922E-3	17.3521E-3	-139.192E-12	548.450E-3	-17.7396E-3
-1.64332E-3	-142.450E-12	556.346E-3	15.9311E-3	-139.525E-12	524.257E-3	-35.1892E-3
-1.64832E-3	-142.746E-12	554.916E-3	8.77761E-3	-140.506E-12	532.084E-3	-41.0595E-3
-1.65333E-3	-144.205E-12	542.871E-3	-4.44980E-3	-140.151E-12	556.515E-3	-14.1939E-3
-1.65833E-3	-144.559E-12	536.266E-3	-5.44964E-3	-139.989E-12	555.305E-3	2.99506E-3
-1.66333E-3	-145.486E-12	546.361E-3	-5.82644E-3	-141.365E-12	549.452E-3	-3.89956E-3
-1.66833E-3	-145.963E-12	565.103E-3	-11.7813E-3	-143.694E-12	556.325E-3	-10.1903E-3
-1.67334E-3	-146.491E-12	566.482E-3	-6.20026E-3	-144.838E-12	579.940E-3	-14.9897E-3
-1.67834E-3	-146.778E-12	569.502E-3	-6.50969E-3	-145.045E-12	580.805E-3	-30.5343E-3
-1.68334E-3	-147.425E-12	586.002E-3	-16.0166E-3	-145.259E-12	551.804E-3	-33.1791E-3
-1.68834E-3	-146.903E-12	579.004E-3	-22.7411E-3	-145.561E-12	548.073E-3	-30.0016E-3
-1.69335E-3	-146.645E-12	548.125E-3	-17.4822E-3	-145.942E-12	549.716E-3	-30.6463E-3
-1.69835E-3	-145.639E-12	534.362E-3	4.82540E-3	-145.937E-12	552.490E-3	-18.1908E-3
-1.70335E-3	-145.218E-12	547.128E-3	11.8518E-3	-144.233E-12	570.068E-3	-6.50775E-3
-1.70835E-3	-145.306E-12	564.776E-3	-8.45886E-3	-144.025E-12	563.310E-3	-13.7438E-3
-1.71336E-3	-144.714E-12	576.329E-3	-27.2706E-3	-143.890E-12	546.110E-3	-23.2752E-3
-1.71836E-3	-144.463E-12	572.508E-3	-18.0023E-3	-143.991E-12	545.852E-3	-21.4604E-3
-1.72336E-3	-144.669E-12	557.074E-3	3.35461E-3	-143.363E-12	559.325E-3	-7.34807E-3
-1.72836E-3	-144.892E-12	544.789E-3	4.04424E-3	-143.307E-12	567.542E-3	5.94858E-3
-1.73337E-3	-144.493E-12	538.446E-3	-12.4816E-3	-143.997E-12	575.457E-3	-10.4104E-3
-1.73837E-3	-144.910E-12	542.465E-3	-24.0670E-3	-144.738E-12	582.151E-3	-33.1498E-3
-1.74337E-3	-145.826E-12	549.220E-3	-17.0788E-3	-145.008E-12	554.746E-3	-23.0544E-3
-1.74837E-3	-147.810E-12	549.011E-3	-4.41383E-3	-145.389E-12	534.942E-3	-9.63628E-3
-1.75338E-3	-147.342E-12	552.644E-3	-14.2324E-3	-146.899E-12	553.903E-3	-27.7070E-3
-1.75838E-3	-146.899E-12	565.941E-3	-33.6452E-3	-147.565E-12	568.003E-3	-47.1293E-3
-1.76338E-3	-148.433E-12	569.143E-3	-41.4322E-3	-148.295E-12	574.531E-3	-42.7391E-3
-1.76838E-3	-148.696E-12	564.610E-3	-39.8250E-3	-148.131E-12	587.055E-3	-27.5943E-3
-1.77339E-3	-149.108E-12	562.526E-3	-32.4296E-3	-149.190E-12	582.792E-3	-8.76018E-3
-1.77839E-3	-148.000E-12	551.382E-3	-23.7032E-3	-149.590E-12	581.912E-3	-3.15009E-3
-1.78339E-3	-148.668E-12	541.009E-3	-22.7844E-3	-149.440E-12	605.043E-3	-10.8095E-3
-1.78839E-3	-147.773E-12	549.046E-3	-31.9784E-3	-148.648E-12	611.445E-3	-991.149E-6
-1.79340E-3	-146.997E-12	567.942E-3	-33.0032E-3	-149.022E-12	586.226E-3	5.31440E-3
-1.79840E-3	-147.141E-12	589.365E-3	-21.4212E-3	-148.598E-12	560.420E-3	-13.4455E-3
-1.80340E-3	-147.115E-12	594.273E-3	-16.5793E-3	-148.671E-12	555.094E-3	-20.4737E-3
-1.80840E-3	-147.407E-12	562.931E-3	-14.6367E-3	-147.615E-12	570.328E-3	-28.7269E-3
-1.81341E-3	-148.195E-12	546.879E-3	-6.54123E-3	-147.302E-12	579.427E-3	-46.7218E-3
-1.81841E-3	-148.316E-12	571.883E-3	-6.63599E-3	-146.947E-12	570.599E-3	-30.2454E-3
-1.82341E-3	-148.888E-12	591.689E-3	-5.13247E-3	-147.974E-12	563.034E-3	-1.07589E-3
-1.82841E-3	-149.551E-12	578.469E-3	-4.14485E-3	-148.373E-12	561.626E-3	-370.963E-6
-1.83342E-3	-150.892E-12	574.853E-3	-15.4785E-3	-148.180E-12	565.597E-3	-4.68837E-3
-1.83842E-3	-151.356E-12	599.686E-3	-13.8047E-3	-148.894E-12	586.093E-3	-8.77615E-3
-1.84342E-3	-152.735E-12	599.674E-3	-2.98645E-3	-150.617E-12	611.816E-3	-29.0142E-3
-1.84842E-3	-153.511E-12	591.481E-3	-5.24701E-3	-152.378E-12	604.490E-3	-28.1976E-3
-1.85343E-3	-154.399E-12	593.476E-3	-11.5837E-3	-151.979E-12	581.511E-3	-5.78041E-3
-1.85843E-3	-155.200E-12	581.030E-3	-15.1595E-3	-151.377E-12	585.441E-3	-17.4633E-3
-1.86343E-3	-155.090E-12	583.678E-3	-22.3259E-3	-152.726E-12	594.499E-3	-41.4122E-3
-1.86843E-3	-155.117E-12	601.976E-3	-26.3291E-3	-154.240E-12	589.942E-3	-32.9971E-3
-1.87344E-3	-155.425E-12	600.209E-3	-26.1347E-3	-154.104E-12	601.014E-3	-23.3764E-3
-1.87844E-3	-154.579E-12	594.281E-3	-43.2788E-3	-153.326E-12	615.248E-3	-23.4494E-3
-1.88344E-3	-154.403E-12	608.974E-3	-44.5473E-3	-154.376E-12	607.981E-3	-11.1412E-3
-1.88844E-3	-154.368E-12	613.539E-3	-20.9575E-3	-154.361E-12	592.256E-3	-16.7514E-3
-1.89345E-3	-154.543E-12	601.302E-3	-32.2325E-3	-153.714E-12	571.616E-3	-37.1697E-3
-1.89845E-3	-153.854E-12	595.510E-3	-36.0045E-3	-152.807E-12	563.921E-3	-25.2765E-3
-1.90345E-3	-153.872E-12	588.094E-3	-9.98200E-3	-153.278E-12	587.603E-3	-7.22164E-3
-1.90845E-3	-154.217E-12	598.343E-3	-20.8032E-3	-153.445E-12	602.669E-3	-8.13157E-3
-1.91346E-3	-153.809E-12	627.128E-3	-42.1172E-3	-153.750E-12	596.953E-3	-12.5007E-3
-1.91846E-3	-153.917E-12	627.798E-3	-29.7701E-3	-154.201E-12	608.631E-3	-28.8996E-3
-1.92346E-3	-153.290E-12	603.605E-3	-20.2004E-3	-155.188E-12	601.286E-3	-41.6005E-3
-1.92846E-3	-153.508E-12	585.869E-3	-30.2882E-3	-155.774E-12	576.567E-3	-21.4865E-3
-1.93347E-3	-153.988E-12	576.542E-3	-38.7254E-3	-155.271E-12	600.713E-3	-16.4230E-3
-1.93847E-3	-154.527E-12	568.213E-3	-39.8726E-3	-155.977E-12	622.716E-3	-47.3037E-3
-1.94347E-3	-153.768E-12	571.893E-3	-30.3269E-3	-155.495E-12	602.324E-3	-41.3686E-3
-1.94847E-3	-152.805E-12	570.401E-3	-16.2178E-3	-155.936E-12	600.216E-3	-10.1288E-3
-1.95348E-3	-153.524E-12	554.758E-3	-22.3672E-3	-154.585E-12	595.848E-3	-13.2322E-3
-1.95848E-3	-154.576E-12	570.498E-3	-18.2834E-3	-154.769E-12	563.689E-3	-12.9131E-3
-1.96348E-3	-154.285E-12	601.559E-3	16.5973E-3	-155.028E-12	560.648E-3	-6.56893E-3
-1.96848E-3	-152.452E-12	593.294E-3	21.6175E-3	-155.947E-12	585.646E-3	-20.7662E-3
-1.97349E-3	-153.282E-12	571.371E-3	1.93059E-3	-154.541E-12	595.228E-3	-13.3275E-3
-1.97849E-3	-154.217E-12	581.931E-3	-497.253E-6	-153.199E-12	596.484E-3	933.263E-6
-1.98349E-3	-155.602E-12	592.225E-3	-7.72899E-3	-153.510E-12	615.537E-3	-12.8557E-3
-1.98849E-3	-155.113E-12	596.654E-3	-25.3090E-3	-154.661E-12	627.563E-3	-21.9410E-3
-1.99350E-3	-154.584E-12	616.755E-3	-13.9830E-3	-156.012E-12	622.946E-3	-8.26815E-3
-1.99850E-3	-154.904E-12	608.632E-3	-3.95552E-3	-155.714E-12	628.968E-3	6.58886E-3
-2.00350E-3	-156.456E-12	600.123E-3	-9.03117E-3	-156.631E-12	626.609E-3	-97.9270E-6
-2.00850E-3	-157.320E-12	623.082E-3	6.64978E-3	-157.202E-12	621.385E-3	-14.6106E-3
-2.01351E-3	-157.091E-12	611.175E-3	-1.15733E-3	-158.299E-12	635.372E-3	-30.2924E-3
-2.01851E-3	-155.617E-12	577.713E-3	-27.0935E-3	-158.686E-12	629.108E-3	-35.0843E-3
-2.02351E-3	-155.626E-12	561.120E-3	-22.2644E-3	-158.015E-12	617.889E-3	-15.1127E-3
-2.02851E-3	-156.642E-12	559.067E-3	-9.01078E-3	-158.932E-12	617.040E-3	-6.26618E-3
-2.03352E-3	-156.119E-12	569.250E-3	-9.12534E-3	-158.086E-12	593.489E-3	-11.0359E-3
-2.03852E-3	-155.996E-12	594.087E-3	-16.9117E-3	-158.502E-12	585.744E-3	-4.82234E-3
-2.04352E-3	-155.852E-12	623.298E-3	-40.1498E-3	-156.983E-12	599.758E-3	-6.06500E-3
-2.04852E-3	-156.549E-12	614.537E-3	-65.9307E-3	-155.609E-12	598.336E-3	-2.34775E-3
-2.05353E-3	-156.336E-12	588.614E-3	-66.0321E-3	-155.031E-12	600.176E-3	8.68912E-3
-2.05853E-3	-155.566E-12	589.091E-3	-40.1687E-3	-154.843E-12	595.474E-3	-8.17838E-3
-2.06353E-3	-155.645E-12	610.977E-3	-26.5251E-3	-154.516E-12	582.398E-3	-15.7725E-3
-2.06853E-3	-156.506E-12	631.045E-3	-51.1993E-3	-154.642E-12	608.915E-3	2.43300E-3
-2.07354E-3	-158.963E-12	613.230E-3	-58.7606E-3	-154.606E-12	634.966E-3	-12.4539E-3
-2.07854E-3	-159.935E-12	583.452E-3	-40.3540E-3	-155.950E-12	624.596E-3	-30.0889E-3
-2.08354E-3	-160.425E-12	608.740E-3	-36.5163E-3	-156.529E-12	624.663E-3	-21.2616E-3
-2.08854E-3	-160.569E-12	658.056E-3	-25.7337E-3	-156.036E-12	630.789E-3	-35.0516E-3
-2.09355E-3	-162.314E-12	677.339E-3	-3.52415E-3	-156.414E-12	614.329E-3	-38.6176E-3
-2.09855E-3	-163.357E-12	674.070E-3	3.40521E-3	-159.202E-12	615.184E-3	-3.62321E-3
-2.10355E-3	-164.204E-12	653.365E-3	2.08879E-3	-160.018E-12	653.612E-3	10.6248E-3
-2.10855E-3	-163.856E-12	632.849E-3	12.8343E-3	-160.878E-12	673.416E-3	-9.75957E-3
-2.11356E-3	-164.325E-12	639.750E-3	23.3459E-3	-161.068E-12	666.662E-3	-19.8684E-3
-2.11856E-3	-164.801E-12	643.681E-3	12.3214E-3	-162.157E-12	658.723E-3	-17.2142E-3
-2.12356E-3	-163.628E-12	631.967E-3	-12.1260E-3	-162.439E-12	648.891E-3	-26.3756E-3
-2.12856E-3	-163.019E-12	630.320E-3	-30.4204E-3	-162.723E-12	627.351E-3	-27.3969E-3
-2.13357E-3	-161.562E-12	632.849E-3	-28.6042E-3	-161.199E-12	607.727E-3	-22.2179E-3
-2.13857E-3	-160.440E-12	614.713E-3	-18.0626E-3	-161.501E-12	603.221E-3	-29.3501E-3
-2.14357E-3	-161.070E-12	596.211E-3	-4.60922E-3	-161.657E-12	600.793E-3	-8.00240E-3
-2.14857E-3	-160.867E-12	599.539E-3	11.0819E-3	-161.534E-12	628.380E-3	12.2937E-3
-2.15358E-3	-160.766E-12	601.019E-3	4.70000E-3	-160.903E-12	640.469E-3	-10.7216E-3
-2.15858E-3	-160.154E-12	608.764E-3	-26.8942E-3	-160.949E-12	615.590E-3	-23.4810E-3
-2.16358E-3	-161.827E-12	630.135E-3	-56.7115E-3	-161.694E-12	637.818E-3	-18.6905E-3
-2.16858E-3	-163.156E-12	629.863E-3	-67.6199E-3	-162.807E-12	653.920E-3	-18.2066E-3
-2.17359E-3	-164.493E-12	617.331E-3	-35.1734E-3	-163.265E-12	616.873E-3	-5.66834E-3
-2.17859E-3	-165.318E-12	610.778E-3	10.5963E-3	-163.258E-12	624.708E-3	11.4828E-3
-2.18359E-3	-167.073E-12	613.781E-3	19.9010E-3	-163.513E-12	673.347E-3	1.35771E-3
-2.18859E-3	-168.267E-12	629.637E-3	18.4255E-3	-165.452E-12	665.708E-3	-7.89586E-3
-2.19360E-3	-168.138E-12	630.505E-3	14.0273E-3	-167.041E-12	635.088E-3	1.00287E-3
-2.19860E-3	-168.067E-12	644.382E-3	-2.69897E-3	-167.504E-12	650.625E-3	-7.04845E-3
-2.20360E-3	-168.449E-12	679.475E-3	-6.35354E-3	-165.830E-12	669.672E-3	-13.3107E-3
-2.20860E-3	-168.647E-12	667.775E-3	7.02405E-3	-167.753E-12	663.246E-3	-17.1992E-3
-2.21361E-3	-168.153E-12	617.589E-3	-1.89898E-3	-168.511E-12	667.803E-3	-43.4452E-3
-2.21861E-3	-166.162E-12	602.715E-3	-31.6819E-3	-169.419E-12	658.805E-3	-58.4794E-3
-2.22361E-3	-165.622E-12	639.287E-3	-35.3068E-3	-166.928E-12	651.242E-3	-40.1729E-3
-2.22861E-3	-166.430E-12	673.197E-3	-24.0574E-3	-166.195E-12	679.237E-3	-24.6577E-3
-2.23362E-3	-166.116E-12	678.507E-3	-22.5081E-3	-167.360E-12	665.591E-3	-28.4482E-3
-2.23862E-3	-165.013E-12	679.448E-3	-27.7332E-3	-167.240E-12	629.666E-3	-14.0475E-3
-2.24362E-3	-164.575E-12	661.239E-3	-36.9798E-3	-167.492E-12	633.700E-3	13.2213E-3
-2.24862E-3	-166.210E-12	625.021E-3	-32.2185E-3	-163.757E-12	633.803E-3	7.70316E-3
-2.25363E-3	-165.987E-12	614.619E-3	-13.8333E-3	-164.409E-12	636.465E-3	3.29014E-3
-2.25863E-3	-167.052E-12	609.355E-3	-15.4684E-3	-164.190E-12	648.583E-3	12.3946E-3
-2.26363E-3	-166.322E-12	593.539E-3	-38.1946E-3	-166.784E-12	626.535E-3	6.96565E-3
-2.26863E-3	-166.833E-12	604.232E-3	-29.0404E-3	-165.005E-12	609.990E-3	-3.84851E-3
-2.27364E-3	-167.899E-12	629.741E-3	-7.93800E-3	-164.716E-12	646.298E-3	-7.66137E-3
-2.27864E-3	-169.694E-12	655.315E-3	-20.1033E-3	-166.579E-12	669.569E-3	-16.7851E-3
-2.28364E-3	-170.571E-12	686.081E-3	-33.4873E-3	-168.848E-12	664.036E-3	-28.4393E-3
-2.28864E-3	-170.166E-12	687.169E-3	-38.7192E-3	-170.221E-12	671.661E-3	-33.8824E-3
-2.29365E-3	-170.212E-12	664.684E-3	-42.9839E-3	-168.477E-12	664.492E-3	-46.9821E-3
-2.29865E-3	-170.738E-12	656.658E-3	-13.6379E-3	-169.367E-12	645.376E-3	-42.8243E-3
-2.30365E-3	-171.510E-12	651.802E-3	32.5999E-3	-170.213E-12	642.127E-3	-26.0495E-3
-2.30865E-3	-170.998E-12	646.777E-3	17.7229E-3	-171.158E-12	661.127E-3	-25.1550E-3
-2.31366E-3	-171.419E-12	646.837E-3	-37.6191E-3	-170.888E-12	680.888E-3	-3.71010E-3
-2.31866E-3	-171.036E-12	647.391E-3	-48.5014E-3	-170.916E-12	669.221E-3	9.90176E-3
-2.32366E-3	-171.647E-12	648.441E-3	-28.3529E-3	-170.744E-12	633.673E-3	-8.32314E-3
-2.32866E-3	-171.338E-12	651.381E-3	-12.9645E-3	-170.779E-12	605.464E-3	-7.92590E-3
-2.33367E-3	-170.985E-12	662.361E-3	3.01579E-3	-171.150E-12	612.389E-3	-10.7502E-3
-2.33867E-3	-171.736E-12	664.520E-3	-5.33261E-3	-170.638E-12	643.308E-3	-18.5369E-3
-2.34367E-3	-171.439E-12	651.756E-3	-31.0230E-3	-171.026E-12	664.184E-3	4.69723E-3
-2.34867E-3	-172.139E-12	628.366E-3	-33.8203E-3	-171.188E-12	670.932E-3	21.8651E-3
-2.35368E-3	-171.227E-12	608.522E-3	-25.5774E-3	-172.512E-12	661.912E-3	671.927E-6
-2.35868E-3	-171.971E-12	625.030E-3	-12.2062E-3	-171.914E-12	639.542E-3	-27.0706E-3
-2.36368E-3	-171.674E-12	637.525E-3	2.61315E-3	-171.858E-12	637.774E-3	-44.3954E-3
-2.36868E-3	-172.438E-12	622.706E-3	-7.77626E-3	-172.495E-12	638.258E-3	-49.9506E-3
-2.37369E-3	-172.598E-12	624.800E-3	-24.9646E-3	-172.294E-12	623.827E-3	-21.0659E-3
-2.37869E-3	-172.863E-12	629.256E-3	-32.0404E-3	-172.518E-12	620.698E-3	-11.6243E-3
-2.38369E-3	-173.129E-12	623.916E-3	-50.3518E-3	-172.417E-12	634.607E-3	-47.3549E-3
-2.38869E-3	-173.099E-12	646.098E-3	-63.0903E-3	-172.765E-12	650.058E-3	-53.8391E-3
-2.39370E-3	-174.072E-12	674.654E-3	-37.0413E-3	-171.788E-12	649.300E-3	-19.0490E-3
-2.39870E-3	-174.242E-12	669.478E-3	-7.61721E-3	-171.889E-12	639.676E-3	-6.91740E-3
-2.40370E-3	-174.583E-12	657.091E-3	-18.2175E-3	-172.100E-12	624.779E-3	-26.5288E-3
-2.40870E-3	-175.119E-12	652.126E-3	-35.5809E-3	-171.986E-12	631.324E-3	-22.0187E-3
-2.41371E-3	-176.464E-12	644.659E-3	-41.3385E-3	-172.721E-12	649.166E-3	-19.1914E-3
-2.41871E-3	-177.361E-12	658.790E-3	-46.3406E-3	-172.936E-12	635.461E-3	-41.4637E-3
-2.42371E-3	-178.109E-12	668.780E-3	-30.6407E-3	-175.405E-12	626.885E-3	-37.4349E-3
-2.42871E-3	-178.313E-12	644.777E-3	-18.0153E-3	-175.860E-12	649.909E-3	-11.8049E-3
-2.43372E-3	-178.602E-12	636.085E-3	-31.4499E-3	-177.079E-12	665.912E-3	-8.38302E-3
-2.43872E-3	-178.556E-12	647.839E-3	-29.9793E-3	-177.353E-12	671.370E-3	-15.4789E-3
-2.44372E-3	-178.535E-12	651.146E-3	-21.7357E-3	-178.808E-12	675.663E-3	-22.8059E-3
-2.44872E-3	-177.671E-12	655.278E-3	-22.7584E-3	-178.815E-12	657.551E-3	-20.3582E-3
-2.45373E-3	-177.410E-12	659.761E-3	-18.1467E-3	-178.994E-12	637.443E-3	-5.22868E-3
-2.45873E-3	-177.084E-12	641.597E-3	-17.9816E-3	-180.141E-12	649.486E-3	-14.0075E-3
-2.46373E-3	-176.228E-12	622.306E-3	-24.1952E-3	-180.535E-12	659.431E-3	-36.2758E-3
-2.46873E-3	-176.069E-12	632.410E-3	-33.4546E-3	-179.491E-12	637.953E-3	-45.8589E-3
-2.47374E-3	-176.659E-12	653.629E-3	-41.4311E-3	-178.420E-12	633.665E-3	-42.6393E-3
-2.47874E-3	-176.780E-12	677.656E-3	-27.5645E-3	-178.227E-12	627.588E-3	-37.7840E-3
-2.48374E-3	-176.591E-12	682.596E-3	2.87868E-3	-178.006E-12	614.092E-3	-31.2069E-3
-2.48874E-3	-176.172E-12	645.767E-3	13.4873E-3	-177.984E-12	652.371E-3	-22.6218E-3
-2.49375E-3	-176.124E-12	633.404E-3	-5.72661E-3	-176.972E-12	691.810E-3	-17.5575E-3
-2.49875E-3	-177.048E-12	659.627E-3	-13.0232E-3	-176.799E-12	682.163E-3	-21.3166E-3
-2.50375E-3	-178.179E-12	641.415E-3	-3.14079E-3	-177.599E-12	668.582E-3	-34.8077E-3
-2.50875E-3	-178.439E-12	611.626E-3	-23.9586E-3	-178.223E-12	658.198E-3	-43.5121E-3
-2.51376E-3	-179.466E-12	618.239E-3	-29.8955E-3	-178.552E-12	639.843E-3	-29.5346E-3
-2.51876E-3	-179.099E-12	618.662E-3	352.373E-6	-179.224E-12	639.107E-3	-1.83141E-3
-2.52376E-3	-179.832E-12	614.565E-3	1.54409E-3	-179.941E-12	647.531E-3	-5.00925E-3
-2.52876E-3	-179.516E-12	638.315E-3	-10.7748E-3	-181.482E-12	654.130E-3	-14.5826E-3
-2.53377E-3	-179.515E-12	666.312E-3	-10.5387E-3	-182.435E-12	667.799E-3	-12.9857E-3
-2.53877E-3	-178.955E-12	665.879E-3	-25.4952E-3	-182.495E-12	674.590E-3	-28.6161E-3
-2.54377E-3	-179.080E-12	671.410E-3	-31.1094E-3	-183.466E-12	678.195E-3	-40.7045E-3
-2.54877E-3	-179.776E-12	670.628E-3	-4.18437E-3	-183.996E-12	690.224E-3	-44.7482E-3
-2.55378E-3	-180.271E-12	656.981E-3	4.63135E-3	-184.217E-12	690.861E-3	-34.1432E-3
-2.55878E-3	-179.482E-12	673.254E-3	-14.1680E-3	-182.804E-12	668.586E-3	-7.43311E-3
-2.56378E-3	-179.316E-12	668.046E-3	-21.0415E-3	-181.838E-12	643.944E-3	7.29363E-3
-2.56878E-3	-178.904E-12	630.779E-3	-31.7019E-3	-181.928E-12	628.793E-3	-6.22262E-3
-2.57379E-3	-179.692E-12	641.109E-3	-34.7735E-3	-182.603E-12	630.923E-3	-24.5584E-3
-2.57879E-3	-178.937E-12	656.576E-3	6.87510E-3	-181.309E-12	651.293E-3	-22.0957E-3
-2.58379E-3	-179.936E-12	628.674E-3	13.4591E-3	-180.213E-12	640.275E-3	-18.3477E-3
-2.58879E-3	-178.976E-12	621.342E-3	-29.4905E-3	-180.832E-12	610.214E-3	-29.4318E-3
-2.59380E-3	-180.256E-12	616.401E-3	-31.0552E-3	-179.769E-12	624.735E-3	-40.8168E-3
-2.59880E-3	-181.406E-12	597.657E-3	-8.34443E-3	-180.336E-12	650.222E-3	-25.9305E-3
-2.60380E-3	-181.105E-12	627.350E-3	-18.8489E-3	-179.724E-12	639.169E-3	-3.79659E-3
-2.60880E-3	-181.359E-12	659.666E-3	-28.1343E-3	-180.970E-12	612.911E-3	-18.1956E-3
-2.61381E-3	-181.821E-12	659.381E-3	-15.1804E-3	-179.722E-12	617.926E-3	-27.1382E-3
-2.61881E-3	-184.866E-12	667.314E-3	-12.5681E-3	-180.800E-12	658.380E-3	-17.5542E-3
-2.62381E-3	-183.653E-12	679.112E-3	-7.20142E-3	-181.977E-12	689.969E-3	-22.7933E-3
-2.62881E-3	-185.039E-12	660.610E-3	1.05815E-3	-182.726E-12	696.175E-3	-23.0774E-3
-2.63382E-3	-185.167E-12	636.418E-3	-7.62948E-3	-184.091E-12	666.748E-3	-21.2921E-3
-2.63882E-3	-186.692E-12	649.272E-3	-10.1000E-3	-183.745E-12	638.731E-3	-23.1513E-3
-2.64382E-3	-185.238E-12	645.299E-3	-8.54487E-3	-185.067E-12	665.387E-3	-28.3600E-3
-2.64882E-3	-185.179E-12	631.759E-3	-16.4555E-3	-186.605E-12	692.568E-3	-31.0546E-3
-2.65383E-3	-185.083E-12	661.663E-3	-13.7679E-3	-186.572E-12	666.081E-3	-7.01464E-3
-2.65883E-3	-186.695E-12	681.770E-3	-13.0719E-3	-185.333E-12	632.177E-3	5.01025E-3
-2.66383E-3	-186.609E-12	672.963E-3	-28.8569E-3	-184.549E-12	623.161E-3	-15.7617E-3
-2.66883E-3	-185.562E-12	661.907E-3	-14.7656E-3	-185.395E-12	619.792E-3	-26.8686E-3
-2.67384E-3	-185.767E-12	642.683E-3	25.4408E-3	-185.806E-12	635.442E-3	-26.3460E-3
-2.67884E-3	-185.797E-12	625.538E-3	25.7649E-3	-183.897E-12	654.517E-3	-21.5626E-3
-2.68384E-3	-186.062E-12	637.173E-3	1.85755E-3	-183.902E-12	655.475E-3	-9.96772E-3
-2.68884E-3	-185.897E-12	659.890E-3	-9.56243E-3	-184.396E-12	667.720E-3	-7.85414E-3
-2.69385E-3	-187.028E-12	649.481E-3	-22.1436E-3	-185.630E-12	666.691E-3	-11.1540E-3
-2.69885E-3	-187.374E-12	637.946E-3	-32.1325E-3	-185.604E-12	649.565E-3	-3.58729E-3
-2.70385E-3	-187.921E-12	653.309E-3	-24.6092E-3	-184.588E-12	645.606E-3	9.70340E-3
-2.70885E-3	-189.684E-12	647.686E-3	-25.6580E-3	-186.456E-12	639.430E-3	11.7605E-3
-2.71386E-3	-190.098E-12	633.050E-3	-39.6720E-3	-187.162E-12	640.426E-3	-9.08391E-3
-2.71886E-3	-191.985E-12	635.887E-3	-30.0020E-3	-188.542E-12	657.600E-3	-42.6942E-3
-2.72386E-3	-191.223E-12	634.730E-3	-23.7069E-3	-188.362E-12	662.857E-3	-51.4348E-3
-2.72886E-3	-192.202E-12	652.634E-3	-41.5669E-3	-189.783E-12	652.289E-3	-14.0228E-3
-2.73387E-3	-191.436E-12	697.188E-3	-49.8462E-3	-190.294E-12	654.941E-3	10.8887E-3
-2.73887E-3	-192.055E-12	720.022E-3	-40.6127E-3	-190.655E-12	664.776E-3	-17.2966E-3
-2.74387E-3	-193.354E-12	712.065E-3	-18.9664E-3	-190.945E-12	672.960E-3	-29.6807E-3
-2.74887E-3	-193.271E-12	694.121E-3	4.71111E-3	-190.684E-12	696.206E-3	-15.4018E-3
-2.75388E-3	-192.636E-12	675.514E-3	8.24393E-3	-191.214E-12	714.652E-3	-25.5185E-3
-2.75888E-3	-191.725E-12	677.864E-3	2.99875E-3	-190.486E-12	697.146E-3	-25.1183E-3
-2.76388E-3	-191.739E-12	689.782E-3	671.483E-6	-190.372E-12	677.952E-3	6.38254E-3
-2.76888E-3	-191.553E-12	682.906E-3	-11.5282E-3	-190.572E-12	680.300E-3	11.3712E-3
-2.77389E-3	-189.586E-12	679.775E-3	-3.23662E-3	-191.271E-12	683.097E-3	5.44356E-3
-2.77889E-3	-189.186E-12	669.838E-3	22.5286E-3	-191.633E-12	683.189E-3	11.1913E-3
-2.78389E-3	-189.715E-12	644.364E-3	24.6379E-3	-191.694E-12	679.150E-3	-16.9313E-3
-2.78889E-3	-190.138E-12	660.397E-3	17.0609E-3	-190.973E-12	674.667E-3	-42.6582E-3
-2.79390E-3	-189.336E-12	687.197E-3	15.2264E-3	-191.889E-12	685.953E-3	-33.1560E-3
-2.79890E-3	-188.689E-12	678.962E-3	-9.74613E-3	-192.146E-12	706.052E-3	-30.3198E-3
-2.80390E-3	-190.948E-12	673.077E-3	-47.5031E-3	-192.174E-12	684.757E-3	-38.1220E-3
-2.80890E-3	-192.235E-12	671.708E-3	-36.8712E-3	-191.550E-12	651.889E-3	-23.6356E-3
-2.81391E-3	-190.904E-12	657.280E-3	-12.3870E-3	-191.763E-12	666.100E-3	-8.63353E-3
-2.81891E-3	-191.065E-12	652.021E-3	-15.9659E-3	-192.583E-12	685.746E-3	-24.2964E-3
-2.82391E-3	-192.875E-12	665.231E-3	-22.3736E-3	-193.560E-12	697.083E-3	-38.0164E-3
-2.82891E-3	-194.875E-12	668.915E-3	-33.9268E-3	-191.527E-12	710.972E-3	-42.5362E-3
-2.83392E-3	-194.962E-12	667.971E-3	-30.5491E-3	-191.169E-12	687.887E-3	-49.6992E-3
-2.83892E-3	-194.546E-12	680.471E-3	-17.8982E-3	-192.584E-12	653.419E-3	-39.7186E-3
-2.84392E-3	-194.471E-12	674.457E-3	-22.8032E-3	-192.563E-12	655.715E-3	-30.1933E-3
-2.84892E-3	-194.842E-12	663.469E-3	-35.8770E-3	-192.466E-12	663.324E-3	-34.3445E-3
-2.85393E-3	-195.657E-12	685.647E-3	-31.0233E-3	-192.396E-12	669.633E-3	-22.4508E-3
-2.85893E-3	-193.804E-12	695.096E-3	-26.5509E-3	-194.717E-12	696.014E-3	-23.8560E-3
-2.86393E-3	-193.614E-12	707.756E-3	-48.6532E-3	-195.121E-12	701.126E-3	-47.6251E-3
-2.86893E-3	-193.114E-12	722.963E-3	-45.7153E-3	-195.541E-12	679.649E-3	-42.0462E-3
-2.87394E-3	-193.997E-12	686.005E-3	-14.5033E-3	-192.720E-12	680.640E-3	-29.6054E-3
-2.87894E-3	-193.591E-12	669.799E-3	-13.0262E-3	-194.192E-12	689.306E-3	-33.7420E-3
-2.88394E-3	-193.786E-12	693.705E-3	-17.2641E-3	-195.127E-12	687.837E-3	-21.5113E-3
-2.88894E-3	-193.460E-12	706.244E-3	-12.1989E-3	-195.234E-12	691.672E-3	-7.82288E-3
-2.89395E-3	-192.945E-12	701.273E-3	-25.3316E-3	-194.290E-12	665.347E-3	-27.7873E-3
-2.89895E-3	-193.914E-12	687.881E-3	-28.3852E-3	-193.638E-12	627.962E-3	-49.0195E-3
-2.90395E-3	-194.614E-12	674.190E-3	-32.5156E-3	-195.019E-12	636.434E-3	-30.4411E-3
-2.90895E-3	-194.864E-12	664.688E-3	-55.6019E-3	-195.381E-12	642.401E-3	-2.01664E-3
-2.91396E-3	-193.734E-12	670.823E-3	-39.0191E-3	-195.597E-12	613.912E-3	-6.64151E-3
-2.91896E-3	-196.141E-12	669.488E-3	-17.4666E-3	-194.119E-12	617.102E-3	-22.6043E-3
-2.92396E-3	-196.843E-12	651.617E-3	-43.4566E-3	-193.744E-12	657.442E-3	-19.2587E-3
-2.92896E-3	-195.773E-12	651.673E-3	-42.1590E-3	-195.086E-12	669.666E-3	-7.06564E-3
-2.93397E-3	-195.123E-12	644.354E-3	-8.34714E-3	-196.811E-12	665.402E-3	-8.61363E-3
-2.93897E-3	-196.919E-12	619.245E-3	-177.804E-6	-196.422E-12	681.903E-3	-27.7581E-3
-2.94397E-3	-197.891E-12	643.245E-3	-6.22702E-3	-195.328E-12	690.899E-3	-29.1115E-3
-2.94897E-3	-197.358E-12	693.655E-3	-21.0215E-3	-196.389E-12	653.462E-3	-3.26217E-3
-2.95398E-3	-195.361E-12	698.372E-3	-42.5970E-3	-198.865E-12	640.517E-3	-11.3923E-3
-2.95898E-3	-196.158E-12	685.537E-3	-29.3282E-3	-198.840E-12	687.442E-3	-27.5496E-3
-2.96398E-3	-197.300E-12	678.600E-3	18.0720E-3	-197.147E-12	695.381E-3	-10.2853E-3
-2.96898E-3	-196.733E-12	659.638E-3	24.9142E-3	-199.287E-12	677.448E-3	-17.8662E-3
-2.97399E-3	-196.877E-12	669.134E-3	3.03394E-3	-200.245E-12	693.923E-3	-46.7290E-3
-2.97899E-3	-196.775E-12	671.457E-3	5.16330E-3	-201.443E-12	699.984E-3	-52.4858E-3
-2.98399E-3	-198.390E-12	640.919E-3	-20.2915E-3	-199.419E-12	659.522E-3	-28.1701E-3
-2.98899E-3	-197.630E-12	656.694E-3	-60.3961E-3	-198.477E-12	628.425E-3	-6.90738E-3
-2.99400E-3	-197.416E-12	686.988E-3	-37.1606E-3	-199.636E-12	631.208E-3	-23.3190E-3
-2.99900E-3	-198.152E-12	662.067E-3	-11.0322E-3	-201.337E-12	634.246E-3	-46.3730E-3
-3.00400E-3	-199.701E-12	629.351E-3	-33.6531E-3	-201.095E-12	642.720E-3	-35.1376E-3
-3.00900E-3	-199.242E-12	628.089E-3	-43.2855E-3	-199.273E-12	666.707E-3	-12.1759E-3
-3.01401E-3	-199.950E-12	633.852E-3	-24.9909E-3	-199.516E-12	676.433E-3	-8.40198E-3
-3.01901E-3	-201.425E-12	657.194E-3	-10.9505E-3	-200.515E-12	655.171E-3	761.474E-6
-3.02401E-3	-201.513E-12	700.137E-3	-8.47518E-3	-201.083E-12	642.645E-3	10.3346E-3
-3.02901E-3	-200.567E-12	683.143E-3	-17.0310E-3	-200.048E-12	671.649E-3	-9.34198E-3
-3.03402E-3	-201.579E-12	620.201E-3	-28.3005E-3	-198.909E-12	697.765E-3	-42.3278E-3
-3.03902E-3	-202.601E-12	621.060E-3	-19.6296E-3	-200.823E-12	699.541E-3	-42.7194E-3
-3.04402E-3	-203.677E-12	643.940E-3	706.673E-6	-203.790E-12	695.549E-3	-25.3543E-3
-3.04902E-3	-203.582E-12	648.034E-3	-5.26352E-3	-204.463E-12	688.978E-3	-30.9143E-3
-3.05403E-3	-202.815E-12	673.585E-3	-25.3807E-3	-204.304E-12	692.684E-3	-20.1303E-3
-3.05903E-3	-204.555E-12	665.302E-3	-43.6971E-3	-204.291E-12	693.059E-3	8.21026E-3
-3.06403E-3	-204.839E-12	641.675E-3	-56.7635E-3	-206.103E-12	689.445E-3	13.0974E-3
-3.06903E-3	-204.737E-12	659.286E-3	-30.3904E-3	-206.174E-12	687.342E-3	-4.64982E-3
-3.07404E-3	-204.411E-12	676.738E-3	4.35973E-3	-206.280E-12	674.476E-3	-15.9382E-3
-3.07904E-3	-204.802E-12	700.589E-3	-2.56968E-3	-205.713E-12	663.215E-3	-25.5068E-3
-3.08404E-3	-203.920E-12	717.585E-3	-16.5913E-3	-206.118E-12	658.323E-3	-40.4744E-3
-3.08904E-3	-201.891E-12	686.657E-3	-2.28104E-3	-207.249E-12	662.839E-3	-43.9811E-3
-3.09405E-3	-202.887E-12	658.713E-3	-5.28423E-3	-207.729E-12	666.761E-3	-37.9895E-3
-3.09905E-3	-203.755E-12	672.101E-3	-27.3499E-3	-206.553E-12	666.332E-3	-40.8762E-3
-3.10405E-3	-203.276E-12	672.134E-3	-6.63152E-3	-204.440E-12	655.152E-3	-31.6355E-3
-3.10905E-3	-201.995E-12	646.857E-3	-4.57573E-3	-204.791E-12	639.317E-3	4.76531E-3
-3.11406E-3	-203.606E-12	650.920E-3	-31.8782E-3	-205.021E-12	658.924E-3	29.0893E-3
-3.11906E-3	-205.331E-12	653.255E-3	-16.8179E-3	-204.714E-12	683.510E-3	19.3464E-3
-3.12406E-3	-206.096E-12	635.340E-3	3.99248E-3	-203.659E-12	678.998E-3	-11.2213E-3
-3.12906E-3	-206.279E-12	651.391E-3	3.43812E-3	-204.329E-12	664.638E-3	-40.8120E-3
-3.13407E-3	-206.220E-12	690.425E-3	13.9676E-3	-205.723E-12	641.856E-3	-51.1448E-3
-3.13907E-3	-208.600E-12	688.602E-3	20.1587E-3	-205.617E-12	631.043E-3	-16.6817E-3
-3.14407E-3	-209.755E-12	671.325E-3	3.71211E-3	-204.461E-12	650.930E-3	25.6405E-3
-3.14907E-3	-208.528E-12	683.717E-3	14.1287E-3	-205.209E-12	671.475E-3	3.78722E-3
-3.15408E-3	-207.102E-12	682.459E-3	23.1675E-3	-207.232E-12	680.562E-3	-43.9476E-3
-3.15908E-3	-209.003E-12	662.283E-3	-20.8709E-3	-208.640E-12	692.616E-3	-62.5713E-3
-3.16408E-3	-210.699E-12	675.881E-3	-33.6187E-3	-209.442E-12	704.196E-3	-56.0312E-3
-3.16908E-3	-210.264E-12	709.145E-3	-8.98912E-3	-209.436E-12	684.021E-3	-32.6039E-3
-3.17409E-3	-208.330E-12	722.180E-3	-19.9745E-3	-210.211E-12	660.423E-3	-25.6981E-3
-3.17909E-3	-206.617E-12	727.866E-3	-9.43875E-3	-211.140E-12	673.845E-3	-30.0986E-3
-3.18409E-3	-209.409E-12	711.700E-3	10.8777E-3	-210.394E-12	683.768E-3	-15.9019E-3
-3.18909E-3	-208.110E-12	672.833E-3	-13.9671E-3	-209.736E-12	668.780E-3	1.52501E-3
-3.19410E-3	-207.964E-12	662.212E-3	-35.9929E-3	-207.328E-12	658.494E-3	14.1010E-3
-3.19910E-3	-206.045E-12	679.805E-3	-22.1436E-3	-208.191E-12	663.612E-3	19.7374E-3
-3.20410E-3	-207.607E-12	696.518E-3	-1.13755E-3	-208.298E-12	672.846E-3	32.5397E-3
-3.20910E-3	-208.028E-12	695.177E-3	16.3039E-3	-208.120E-12	673.865E-3	30.1774E-3
-3.21411E-3	-206.852E-12	682.238E-3	24.4743E-3	-208.352E-12	665.187E-3	448.060E-6
-3.21911E-3	-206.298E-12	688.427E-3	3.74575E-3	-208.029E-12	673.022E-3	1.68922E-3
-3.22411E-3	-206.602E-12	702.272E-3	-7.16445E-3	-209.112E-12	686.337E-3	36.2037E-3
-3.22911E-3	-208.775E-12	675.070E-3	7.07258E-3	-209.264E-12	670.358E-3	30.5972E-3
-3.23412E-3	-208.993E-12	643.619E-3	10.9659E-3	-208.379E-12	653.242E-3	-8.85231E-3
-3.23912E-3	-210.706E-12	639.637E-3	-3.40062E-3	-208.347E-12	667.923E-3	-31.3137E-3
-3.24412E-3	-211.616E-12	632.460E-3	-12.4806E-3	-210.172E-12	670.927E-3	-27.3907E-3
-3.24912E-3	-213.156E-12	636.271E-3	-18.6074E-3	-210.895E-12	639.827E-3	3.90847E-3
-3.25413E-3	-214.043E-12	643.518E-3	-40.6801E-3	-211.727E-12	637.740E-3	5.93500E-3
-3.25913E-3	-215.429E-12	662.034E-3	-57.7004E-3	-211.715E-12	668.211E-3	-37.5772E-3
-3.26413E-3	-215.866E-12	701.475E-3	-26.1053E-3	-212.509E-12	658.907E-3	-57.7246E-3
-3.26913E-3	-215.555E-12	706.286E-3	22.6895E-3	-215.075E-12	642.622E-3	-36.4731E-3
-3.27414E-3	-215.276E-12	673.306E-3	17.5727E-3	-213.590E-12	657.996E-3	-25.3718E-3
-3.27914E-3	-214.549E-12	667.515E-3	-17.7498E-3	-212.901E-12	657.833E-3	-47.1843E-3
-3.28414E-3	-215.442E-12	688.784E-3	-28.3321E-3	-211.591E-12	656.789E-3	-49.1657E-3
-3.28914E-3	-215.198E-12	684.219E-3	-32.8143E-3	-213.847E-12	668.212E-3	-35.1978E-3
-3.29415E-3	-215.258E-12	672.893E-3	-49.9951E-3	-214.319E-12	659.760E-3	-36.5030E-3
-3.29915E-3	-213.255E-12	665.881E-3	-43.5137E-3	-213.119E-12	659.109E-3	-26.5248E-3
-3.30415E-3	-212.807E-12	660.745E-3	-18.6736E-3	-212.228E-12	670.521E-3	-18.9851E-3
-3.30915E-3	-214.215E-12	684.146E-3	-23.6632E-3	-213.120E-12	650.125E-3	-32.6313E-3
-3.31416E-3	-215.164E-12	708.237E-3	-39.2137E-3	-216.311E-12	617.965E-3	-32.2355E-3
-3.31916E-3	-214.807E-12	693.527E-3	-34.4232E-3	-215.627E-12	619.172E-3	-14.1761E-3
-3.32416E-3	-213.973E-12	676.873E-3	-36.3783E-3	-215.890E-12	637.241E-3	-2.09310E-3
-3.32916E-3	-215.760E-12	686.836E-3	-51.7666E-3	-215.740E-12	643.126E-3	1.48401E-3
-3.33417E-3	-217.448E-12	670.633E-3	-53.7538E-3	-216.358E-12	659.990E-3	-8.97652E-3
-3.33917E-3	-217.259E-12	655.533E-3	-48.1776E-3	-216.738E-12	685.280E-3	-31.0865E-3
-3.34417E-3	-217.413E-12	690.096E-3	-50.7014E-3	-216.255E-12	686.265E-3	-21.6882E-3
-3.34917E-3	-218.706E-12	707.511E-3	-47.7314E-3	-215.915E-12	685.517E-3	13.3622E-3
-3.35418E-3	-220.251E-12	702.840E-3	-53.8378E-3	-216.628E-12	682.264E-3	-1.35224E-3
-3.35918E-3	-220.570E-12	737.850E-3	-71.2030E-3	-217.896E-12	653.296E-3	-32.1001E-3
-3.36418E-3	-220.810E-12	749.790E-3	-63.0301E-3	-217.292E-12	651.697E-3	-39.0925E-3
-3.36918E-3	-219.185E-12	695.175E-3	-37.5577E-3	-216.448E-12	667.838E-3	-47.0588E-3
-3.37419E-3	-220.494E-12	670.603E-3	-4.52577E-3	-215.469E-12	647.114E-3	-38.8240E-3
-3.37919E-3	-219.591E-12	693.852E-3	18.6048E-3	-217.246E-12	630.222E-3	-28.9406E-3
-3.38419E-3	-219.433E-12	713.518E-3	14.2662E-3	-217.598E-12	645.791E-3	-45.2698E-3
-3.38919E-3	-217.996E-12	714.155E-3	8.07160E-3	-218.547E-12	662.338E-3	-65.1088E-3
-3.39420E-3	-215.923E-12	686.007E-3	11.7035E-3	-217.982E-12	663.454E-3	-53.2710E-3
-3.39920E-3	-215.672E-12	650.888E-3	7.23887E-3	-218.435E-12	675.022E-3	-22.3990E-3
-3.40420E-3	-215.287E-12	649.036E-3	-13.7034E-3	-219.704E-12	677.952E-3	-24.4301E-3
-3.40920E-3	-215.570E-12	668.911E-3	-19.9504E-3	-220.528E-12	650.724E-3	-22.8978E-3
-3.41421E-3	-214.324E-12	664.889E-3	-17.0774E-3	-219.480E-12	640.746E-3	-5.73742E-3
-3.41921E-3	-214.736E-12	649.572E-3	-34.2402E-3	-219.103E-12	667.355E-3	-9.86784E-3
-3.42421E-3	-216.740E-12	658.085E-3	-28.5226E-3	-220.658E-12	683.551E-3	-17.7118E-3
-3.42921E-3	-217.592E-12	651.857E-3	-2.90274E-3	-219.618E-12	686.125E-3	-28.3659E-3
-3.43422E-3	-219.002E-12	639.040E-3	-16.7865E-3	-219.573E-12	694.105E-3	-39.7760E-3
-3.43922E-3	-218.729E-12	667.223E-3	-34.3227E-3	-220.237E-12	681.374E-3	-19.9835E-3
-3.44422E-3	-221.530E-12	676.911E-3	-23.7084E-3	-220.047E-12	675.467E-3	1.64060E-3
-3.44922E-3	-221.738E-12	651.119E-3	-22.5294E-3	-218.844E-12	693.392E-3	-11.4470E-3
-3.45423E-3	-224.123E-12	651.975E-3	-16.5412E-3	-218.046E-12	682.020E-3	-22.7109E-3
-3.45923E-3	-224.484E-12	655.643E-3	-20.7502E-3	-218.796E-12	660.214E-3	-13.3094E-3
-3.46423E-3	-224.569E-12	656.650E-3	-64.4430E-3	-218.189E-12	670.010E-3	5.24140E-3
-3.46923E-3	-224.366E-12	668.057E-3	-75.8872E-3	-216.671E-12	696.097E-3	5.07993E-3
-3.47424E-3	-224.423E-12	665.078E-3	-31.9535E-3	-216.294E-12	695.258E-3	-25.0046E-3
-3.47924E-3	-225.560E-12	680.299E-3	-9.31975E-3	-218.417E-12	664.265E-3	-58.4204E-3
-3.48424E-3	-226.047E-12	699.919E-3	-13.3371E-3	-221.499E-12	637.392E-3	-40.8075E-3
-3.48924E-3	-223.995E-12	681.192E-3	-10.2408E-3	-221.184E-12	637.317E-3	16.6829E-3
-3.49425E-3	-221.611E-12	660.517E-3	-2.79414E-3	-220.728E-12	665.673E-3	26.2279E-3
-3.49925E-3	-223.168E-12	667.192E-3	-2.49002E-3	-221.478E-12	672.582E-3	-10.2059E-3
-3.50425E-3	-224.050E-12	665.190E-3	-26.8439E-3	-224.952E-12	630.470E-3	-26.9532E-3
-3.50925E-3	-222.299E-12	652.576E-3	-58.7918E-3	-223.980E-12	596.826E-3	-43.7167E-3
-3.51426E-3	-220.551E-12	674.518E-3	-56.5484E-3	-223.147E-12	621.681E-3	-53.5600E-3
-3.51926E-3	-220.809E-12	696.203E-3	-20.8615E-3	-221.968E-12	666.740E-3	-30.0574E-3
-3.52426E-3	-223.668E-12	683.352E-3	-6.03076E-3	-222.813E-12	681.297E-3	-20.1776E-3
-3.52926E-3	-223.395E-12	669.440E-3	-21.9710E-3	-224.243E-12	650.029E-3	-29.0036E-3
-3.53427E-3	-221.404E-12	652.084E-3	-22.0741E-3	-224.035E-12	635.097E-3	-19.3350E-3
-3.53927E-3	-220.854E-12	628.505E-3	-19.8961E-3	-222.054E-12	659.211E-3	-6.21003E-3
-3.54427E-3	-222.765E-12	633.577E-3	-57.5612E-3	-220.893E-12	661.571E-3	10.5563E-3
-3.54927E-3	-223.939E-12	665.380E-3	-70.5942E-3	-221.787E-12	655.329E-3	2.04685E-3
-3.55428E-3	-224.480E-12	691.907E-3	-47.5692E-3	-221.656E-12	626.568E-3	-40.1112E-3
-3.55928E-3	-222.944E-12	685.551E-3	-46.7962E-3	-220.624E-12	602.620E-3	-37.5176E-3
-3.56428E-3	-224.595E-12	662.078E-3	-38.6424E-3	-219.453E-12	635.333E-3	-9.40686E-3
-3.56928E-3	-226.771E-12	655.492E-3	-27.2707E-3	-222.502E-12	639.151E-3	14.9653E-3
-3.57429E-3	-227.797E-12	651.059E-3	-47.5365E-3	-225.170E-12	627.497E-3	28.1792E-3
-3.57929E-3	-226.099E-12	628.714E-3	-62.4098E-3	-226.503E-12	648.725E-3	-7.02397E-3
-3.58429E-3	-226.548E-12	621.740E-3	-55.9740E-3	-225.713E-12	643.732E-3	-39.6811E-3
-3.58929E-3	-229.158E-12	656.675E-3	-32.3376E-3	-226.714E-12	630.920E-3	-34.4547E-3
-3.59430E-3	-230.673E-12	684.124E-3	-14.7007E-3	-228.329E-12	648.658E-3	-4.00970E-3
-3.59930E-3	-229.429E-12	656.161E-3	-14.0131E-3	-229.948E-12	673.785E-3	11.9450E-3
-3.60430E-3	-226.990E-12	621.987E-3	5.40112E-3	-228.359E-12	684.758E-3	-7.54736E-3
-3.60930E-3	-227.904E-12	624.480E-3	27.3821E-3	-229.200E-12	680.102E-3	-17.3135E-3
-3.61431E-3	-229.499E-12	620.582E-3	16.1264E-3	-230.657E-12	682.289E-3	-24.9134E-3
-3.61931E-3	-227.693E-12	619.554E-3	-4.90115E-3	-232.421E-12	678.166E-3	-30.7592E-3
-3.62431E-3	-226.659E-12	646.984E-3	9.54697E-3	-231.743E-12	650.428E-3	-7.84159E-3
-3.62931E-3	-224.841E-12	670.391E-3	19.7781E-3	-230.890E-12	650.217E-3	8.05354E-3
-3.63432E-3	-227.954E-12	677.379E-3	-8.98058E-3	-229.960E-12	665.550E-3	-8.00336E-3
-3.63932E-3	-227.667E-12	676.608E-3	-17.4230E-3	-229.114E-12	663.498E-3	-7.55399E-3
-3.64432E-3	-225.400E-12	669.011E-3	-9.79797E-3	-228.886E-12	664.054E-3	-6.23389E-3
-3.64932E-3	-222.747E-12	672.961E-3	-26.9036E-3	-229.045E-12	647.219E-3	-34.7767E-3
-3.65433E-3	-225.197E-12	693.593E-3	-25.6809E-3	-227.844E-12	644.912E-3	-51.2797E-3
-3.65933E-3	-227.515E-12	697.571E-3	-6.07310E-3	-226.836E-12	677.016E-3	-56.9523E-3
-3.66433E-3	-227.173E-12	679.002E-3	-7.46471E-3	-229.146E-12	693.658E-3	-49.9138E-3
-3.66933E-3	-225.922E-12	653.753E-3	-28.4401E-3	-231.292E-12	696.234E-3	-30.2998E-3
-3.67434E-3	-227.914E-12	639.872E-3	-61.5743E-3	-231.227E-12	677.132E-3	-29.1423E-3
-3.67934E-3	-231.953E-12	636.100E-3	-72.4655E-3	-229.408E-12	634.540E-3	-30.2971E-3
-3.68434E-3	-232.309E-12	624.673E-3	-50.8291E-3	-230.046E-12	611.574E-3	-34.9441E-3
-3.68934E-3	-232.219E-12	624.149E-3	-26.0924E-3	-232.206E-12	608.751E-3	-24.2812E-3
-3.69435E-3	-230.956E-12	654.873E-3	-18.5256E-3	-233.326E-12	624.196E-3	11.5165E-3
-3.69935E-3	-232.755E-12	665.297E-3	-24.9152E-3	-231.430E-12	640.150E-3	19.3408E-3
-3.70435E-3	-236.115E-12	653.805E-3	-21.9663E-3	-229.900E-12	637.743E-3	10.6173E-3
-3.70935E-3	-236.550E-12	651.877E-3	-18.7420E-3	-231.439E-12	629.451E-3	12.8434E-3
-3.71436E-3	-234.029E-12	651.559E-3	-32.9567E-3	-232.950E-12	610.375E-3	13.7690E-3
-3.71936E-3	-232.006E-12	665.372E-3	-28.6674E-3	-232.077E-12	605.154E-3	-2.49445E-3
-3.72436E-3	-235.237E-12	681.296E-3	-9.59137E-3	-230.528E-12	614.696E-3	-16.9050E-3
-3.72936E-3	-234.731E-12	680.277E-3	-3.53447E-3	-231.904E-12	609.594E-3	-13.0949E-3
-3.73437E-3	-234.409E-12	678.955E-3	6.48495E-3	-233.928E-12	619.452E-3	-14.3042E-3
-3.73937E-3	-230.262E-12	685.519E-3	14.5097E-3	-232.805E-12	624.854E-3	-19.9325E-3
-3.74437E-3	-231.790E-12	687.153E-3	-4.43721E-3	-232.878E-12	614.604E-3	-14.0914E-3
-3.74937E-3	-234.185E-12	683.595E-3	-20.4317E-3	-232.647E-12	631.906E-3	-30.2410E-3
-3.75438E-3	-233.261E-12	657.620E-3	-7.57534E-3	-234.275E-12	621.453E-3	-79.1913E-3
-3.75938E-3	-231.892E-12	634.551E-3	20.5365E-3	-234.508E-12	581.648E-3	-66.6791E-3
-3.76438E-3	-231.325E-12	647.368E-3	44.4004E-3	-234.428E-12	611.102E-3	-9.75715E-3
-3.76938E-3	-234.469E-12	657.479E-3	23.7579E-3	-232.313E-12	673.063E-3	-12.1180E-3
-3.77439E-3	-236.266E-12	664.299E-3	-20.3418E-3	-233.361E-12	703.227E-3	-20.9718E-3
-3.77939E-3	-236.270E-12	669.965E-3	-20.3699E-3	-234.078E-12	715.235E-3	5.61166E-3
-3.78439E-3	-235.465E-12	648.148E-3	2.28919E-3	-235.078E-12	700.779E-3	15.2252E-3
-3.78939E-3	-237.660E-12	641.209E-3	-6.99914E-3	-233.689E-12	658.530E-3	12.8324E-3
-3.79440E-3	-238.836E-12	685.564E-3	-23.3364E-3	-233.734E-12	638.056E-3	26.3795E-3
-3.79940E-3	-239.432E-12	711.803E-3	-25.9123E-3	-235.659E-12	639.104E-3	4.31582E-3
-3.80440E-3	-238.890E-12	699.745E-3	-38.1604E-3	-235.595E-12	621.446E-3	-38.6558E-3
-3.80940E-3	-237.912E-12	666.677E-3	-42.0968E-3	-233.736E-12	632.527E-3	-42.0332E-3
-3.81441E-3	-238.396E-12	632.615E-3	-51.5914E-3	-231.659E-12	665.767E-3	-53.8208E-3
-3.81941E-3	-236.986E-12	638.708E-3	-63.4613E-3	-235.564E-12	660.576E-3	-67.2224E-3
-3.82441E-3	-236.835E-12	656.659E-3	-40.1985E-3	-237.426E-12	659.869E-3	-42.0626E-3
-3.82941E-3	-235.389E-12	655.650E-3	-21.2421E-3	-235.599E-12	660.989E-3	-37.2288E-3
-3.83442E-3	-234.806E-12	648.691E-3	-13.1599E-3	-233.698E-12	646.438E-3	-66.6991E-3
-3.83942E-3	-232.827E-12	646.539E-3	-10.4727E-3	-235.450E-12	680.106E-3	-65.0488E-3
-3.84442E-3	-233.142E-12	651.105E-3	-40.9569E-3	-238.763E-12	726.561E-3	-47.8378E-3
-3.84942E-3	-233.827E-12	640.150E-3	-70.2065E-3	-237.310E-12	706.434E-3	-57.4538E-3
-3.85443E-3	-234.840E-12	631.632E-3	-56.7765E-3	-234.177E-12	663.068E-3	-45.3103E-3
-3.85943E-3	-234.812E-12	643.773E-3	-30.9763E-3	-233.575E-12	663.613E-3	-18.9011E-3
-3.86443E-3	-234.853E-12	641.730E-3	-43.7531E-3	-237.370E-12	673.406E-3	-22.4138E-3
-3.86943E-3	-236.663E-12	623.321E-3	-46.7516E-3	-238.711E-12	663.836E-3	-14.9157E-3
-3.87444E-3	-238.472E-12	606.133E-3	-6.18342E-3	-236.140E-12	666.349E-3	10.6227E-3
-3.87944E-3	-240.460E-12	622.042E-3	16.3019E-3	-234.488E-12	666.637E-3	-5.52425E-3
-3.88444E-3	-241.365E-12	676.181E-3	-7.35538E-3	-235.068E-12	622.153E-3	-13.0956E-3
-3.88944E-3	-240.425E-12	721.065E-3	-31.0220E-3	-238.836E-12	571.898E-3	19.2747E-3
-3.89445E-3	-241.689E-12	734.701E-3	-23.0004E-3	-237.286E-12	594.052E-3	5.84871E-3
-3.89945E-3	-242.584E-12	713.905E-3	5.71186E-3	-234.640E-12	658.050E-3	-29.5620E-3
-3.90445E-3	-243.707E-12	677.576E-3	26.1934E-3	-234.380E-12	707.320E-3	-32.1369E-3
-3.90945E-3	-242.546E-12	684.886E-3	16.8879E-3	-237.219E-12	707.826E-3	-10.0093E-3
-3.91446E-3	-242.457E-12	727.616E-3	-8.48450E-3	-239.170E-12	654.036E-3	24.6400E-3
-3.91946E-3	-242.133E-12	728.700E-3	-34.7440E-3	-237.978E-12	616.157E-3	39.2213E-3
-3.92446E-3	-242.506E-12	685.882E-3	-53.2923E-3	-237.256E-12	624.771E-3	21.1507E-3
-3.92946E-3	-242.618E-12	664.291E-3	-33.2391E-3	-238.209E-12	640.292E-3	-5.52619E-3
-3.93447E-3	-240.917E-12	664.325E-3	1.55953E-3	-241.335E-12	659.625E-3	-719.823E-6
-3.93947E-3	-241.238E-12	673.209E-3	71.2013E-6	-242.695E-12	693.369E-3	14.8739E-3
-3.94447E-3	-241.253E-12	680.804E-3	-26.3360E-3	-240.886E-12	723.172E-3	7.38498E-3
-3.94947E-3	-242.203E-12	659.989E-3	-38.8779E-3	-239.947E-12	723.193E-3	8.53948E-3
-3.95448E-3	-241.173E-12	649.973E-3	-40.8303E-3	-240.996E-12	689.822E-3	3.78785E-3
-3.95948E-3	-242.308E-12	664.451E-3	-60.7055E-3	-243.627E-12	671.292E-3	-5.89435E-3
-3.96448E-3	-243.677E-12	665.810E-3	-53.8868E-3	-242.842E-12	682.876E-3	-10.9557E-3
-3.96948E-3	-242.670E-12	681.303E-3	-40.8674E-3	-240.832E-12	691.053E-3	-35.7842E-3
-3.97449E-3	-242.936E-12	721.896E-3	-52.8400E-3	-240.763E-12	675.277E-3	-54.7887E-3
-3.97949E-3	-243.360E-12	727.482E-3	-38.8937E-3	-242.526E-12	647.052E-3	-47.7847E-3
-3.98449E-3	-243.386E-12	702.015E-3	-2.10483E-3	-243.065E-12	642.868E-3	-34.5652E-3
-3.98949E-3	-239.787E-12	698.589E-3	2.30277E-3	-241.831E-12	670.053E-3	-28.5623E-3
-3.99450E-3	-240.005E-12	680.276E-3	-35.9608E-3	-241.192E-12	691.951E-3	-9.83344E-3
-3.99950E-3	-241.656E-12	642.513E-3	-63.5943E-3	-242.519E-12	679.360E-3	-2.71652E-3
-4.00450E-3	-242.463E-12	661.479E-3	-72.0274E-3	-244.216E-12	657.477E-3	-31.9812E-3
-4.00950E-3	-240.239E-12	676.935E-3	-54.8834E-3	-245.592E-12	664.852E-3	-59.9406E-3
-4.01451E-3	-240.461E-12	641.189E-3	-10.8934E-3	-244.540E-12	699.993E-3	-50.7056E-3
-4.01951E-3	-241.881E-12	642.179E-3	9.53530E-3	-244.828E-12	727.066E-3	-7.12919E-3
-4.02451E-3	-242.131E-12	666.375E-3	-4.77039E-3	-249.125E-12	727.781E-3	17.1416E-3
-4.02951E-3	-242.067E-12	690.262E-3	-26.5168E-3	-249.898E-12	723.621E-3	-2.62453E-3
-4.03452E-3	-241.793E-12	706.160E-3	-36.5140E-3	-249.847E-12	692.264E-3	482.063E-6
-4.03952E-3	-244.086E-12	678.281E-3	-26.3314E-3	-248.035E-12	668.321E-3	19.3435E-3
-4.04452E-3	-247.226E-12	647.109E-3	-17.8122E-3	-250.100E-12	709.139E-3	-17.6670E-3
-4.04952E-3	-247.038E-12	645.191E-3	-20.4872E-3	-250.747E-12	736.391E-3	-34.0049E-3
-4.05453E-3	-246.886E-12	663.569E-3	4.59419E-3	-251.490E-12	722.046E-3	22.1208E-3
-4.05953E-3	-245.769E-12	674.346E-3	36.6807E-3	-250.320E-12	713.652E-3	52.4729E-3
-4.06453E-3	-247.524E-12	677.476E-3	18.7884E-3	-249.568E-12	712.223E-3	20.9339E-3
-4.06953E-3	-247.057E-12	701.721E-3	-21.9985E-3	-248.480E-12	698.990E-3	-5.49187E-3
-4.07454E-3	-246.394E-12	729.035E-3	-22.3397E-3	-247.681E-12	690.412E-3	-3.98819E-3
-4.07954E-3	-245.204E-12	729.550E-3	5.75368E-3	-246.659E-12	672.991E-3	14.4696E-3
-4.08454E-3	-245.498E-12	699.147E-3	13.6757E-3	-245.143E-12	648.679E-3	15.0482E-3
-4.08954E-3	-246.827E-12	652.549E-3	-3.43161E-3	-244.186E-12	673.617E-3	-11.8081E-3
-4.09455E-3	-247.822E-12	627.331E-3	-35.5281E-3	-245.878E-12	708.659E-3	-1.96878E-3
-4.09955E-3	-247.623E-12	659.935E-3	-54.0177E-3	-247.017E-12	710.346E-3	23.6136E-3
-4.10455E-3	-248.486E-12	709.412E-3	-24.3208E-3	-246.764E-12	705.253E-3	-7.29304E-3
-4.10955E-3	-249.878E-12	712.240E-3	2.07191E-3	-247.061E-12	712.812E-3	-53.5421E-3
-4.11456E-3	-250.517E-12	691.187E-3	-11.8093E-3	-249.026E-12	732.820E-3	-52.0153E-3
-4.11956E-3	-251.946E-12	680.737E-3	-38.9840E-3	-250.927E-12	741.229E-3	-28.1178E-3
-4.12456E-3	-252.687E-12	673.999E-3	-37.5647E-3	-250.756E-12	710.459E-3	-8.03735E-3
-4.12956E-3	-253.699E-12	681.904E-3	4.51204E-3	-250.372E-12	674.510E-3	11.1573E-3
-4.13457E-3	-254.523E-12	700.428E-3	20.3574E-3	-253.054E-12	688.148E-3	460.075E-6
-4.13957E-3	-254.196E-12	718.281E-3	-2.91683E-3	-253.848E-12	710.369E-3	-37.7009E-3
-4.14457E-3	-254.160E-12	724.735E-3	-3.49353E-3	-253.751E-12	696.373E-3	-32.6720E-3
-4.14957E-3	-255.906E-12	696.458E-3	6.00885E-3	-253.477E-12	671.928E-3	-18.4139E-3
-4.15458E-3	-254.585E-12	664.951E-3	-10.7163E-3	-253.532E-12	647.149E-3	-67.5443E-3
-4.15958E-3	-253.930E-12	645.473E-3	-17.6978E-3	-254.058E-12	628.269E-3	-81.6582E-3
-4.16458E-3	-250.497E-12	647.788E-3	-1.96671E-3	-251.922E-12	651.388E-3	-25.0232E-3
-4.16958E-3	-251.447E-12	664.015E-3	11.8613E-3	-251.663E-12	694.389E-3	-9.76711E-3
-4.17459E-3	-248.793E-12	681.973E-3	6.08030E-3	-249.776E-12	717.007E-3	-5.27040E-3
-4.17959E-3	-248.986E-12	709.804E-3	-3.54273E-3	-251.162E-12	701.817E-3	35.0216E-3
-4.18459E-3	-247.792E-12	709.856E-3	11.5323E-3	-251.470E-12	659.592E-3	39.8684E-3
-4.18959E-3	-248.990E-12	703.203E-3	4.13187E-3	-251.749E-12	664.437E-3	26.7135E-3
-4.19460E-3	-248.255E-12	710.985E-3	-31.0035E-3	-252.545E-12	705.829E-3	26.3943E-3
-4.19960E-3	-249.887E-12	688.712E-3	-45.0502E-3	-252.692E-12	705.982E-3	-1.29354E-3
-4.20460E-3	-252.971E-12	657.968E-3	-28.9042E-3	-253.400E-12	685.801E-3	-29.5798E-3
-4.20960E-3	-253.067E-12	650.292E-3	-9.82277E-3	-253.500E-12	680.282E-3	-16.5069E-3
-4.21461E-3	-252.687E-12	669.580E-3	-17.3913E-3	-254.762E-12	690.828E-3	-13.5905E-3
-4.21961E-3	-253.657E-12	695.390E-3	-48.3914E-3	-253.889E-12	700.179E-3	-47.3858E-3
-4.22461E-3	-256.803E-12	692.007E-3	-54.0018E-3	-253.530E-12	694.681E-3	-39.9980E-3
-4.22961E-3	-256.532E-12	679.954E-3	-9.36968E-3	-254.670E-12	675.359E-3	14.0716E-3
-4.23462E-3	-256.649E-12	684.103E-3	23.2306E-3	-255.178E-12	650.170E-3	29.2752E-3
-4.23962E-3	-256.813E-12	684.209E-3	1.46519E-3	-257.183E-12	666.460E-3	4.07786E-3
-4.24462E-3	-255.609E-12	670.240E-3	-43.6325E-3	-254.271E-12	701.150E-3	-11.4727E-3
-4.24962E-3	-254.386E-12	665.334E-3	-78.4464E-3	-255.272E-12	699.033E-3	-9.51725E-3
-4.25463E-3	-252.069E-12	669.316E-3	-87.0498E-3	-256.074E-12	670.689E-3	-868.636E-6
-4.25963E-3	-252.033E-12	669.746E-3	-50.2638E-3	-256.812E-12	643.973E-3	-13.0047E-3
-4.26463E-3	-249.240E-12	670.450E-3	-23.0814E-3	-255.357E-12	660.741E-3	-24.7700E-3
-4.26963E-3	-249.456E-12	679.519E-3	-26.1331E-3	-255.583E-12	700.520E-3	-978.978E-6
-4.27464E-3	-248.344E-12	679.725E-3	-21.1547E-3	-256.503E-12	699.106E-3	18.2729E-3
-4.27964E-3	-249.972E-12	644.611E-3	-37.6114E-3	-257.696E-12	687.169E-3	4.92028E-3
-4.28464E-3	-251.628E-12	603.093E-3	-64.6906E-3	-258.239E-12	690.646E-3	-8.71853E-3
-4.28964E-3	-251.851E-12	601.972E-3	-51.1384E-3	-259.131E-12	691.414E-3	-24.3100E-3
-4.29465E-3	-254.639E-12	624.737E-3	-7.13611E-3	-259.591E-12	676.557E-3	-52.9267E-3
-4.29965E-3	-256.274E-12	647.535E-3	-12.1578E-3	-259.562E-12	653.166E-3	-52.8946E-3
-4.30465E-3	-259.889E-12	666.357E-3	-44.2127E-3	-259.178E-12	636.813E-3	-45.0966E-3
-4.30965E-3	-259.808E-12	681.705E-3	-36.5351E-3	-258.523E-12	643.178E-3	-46.4481E-3
-4.31466E-3	-260.578E-12	683.765E-3	-30.0722E-3	-258.515E-12	656.656E-3	-40.6760E-3
-4.31966E-3	-261.412E-12	677.876E-3	-38.3064E-3	-258.863E-12	662.132E-3	-44.6879E-3
-4.32466E-3	-263.390E-12	689.250E-3	-23.9318E-3	-257.604E-12	686.273E-3	-51.2328E-3
-4.32966E-3	-261.296E-12	690.066E-3	897.295E-6	-257.106E-12	698.983E-3	-65.6020E-3
-4.33467E-3	-260.087E-12	680.905E-3	-13.1500E-3	-257.449E-12	670.240E-3	-80.8382E-3
-4.33967E-3	-259.619E-12	702.845E-3	-29.7973E-3	-258.173E-12	655.812E-3	-48.8448E-3
-4.34467E-3	-260.157E-12	724.532E-3	-7.60068E-3	-257.378E-12	659.561E-3	-24.3473E-3
-4.34967E-3	-259.150E-12	697.703E-3	1.17691E-3	-257.380E-12	641.503E-3	-46.3823E-3
-4.35468E-3	-258.251E-12	661.651E-3	-11.0461E-3	-256.970E-12	637.801E-3	-38.0805E-3
-4.35968E-3	-258.489E-12	672.912E-3	3.83147E-3	-260.053E-12	649.848E-3	-17.4229E-3
-4.36468E-3	-259.072E-12	696.327E-3	5.20617E-3	-262.433E-12	654.850E-3	-16.2538E-3
-4.36968E-3	-259.024E-12	690.525E-3	-30.8555E-3	-262.500E-12	671.580E-3	-13.3690E-3
-4.37469E-3	-258.114E-12	684.642E-3	-55.3836E-3	-263.165E-12	674.726E-3	-25.3657E-3
-4.37969E-3	-260.019E-12	693.918E-3	-69.5236E-3	-265.382E-12	651.234E-3	-30.6842E-3
-4.38469E-3	-262.047E-12	695.088E-3	-55.6328E-3	-267.172E-12	639.796E-3	-4.65479E-3
-4.38969E-3	-263.062E-12	680.981E-3	-31.9865E-3	-268.291E-12	626.313E-3	-6.41672E-3
-4.39470E-3	-265.196E-12	662.674E-3	-32.6048E-3	-266.203E-12	619.916E-3	-57.5362E-3
-4.39970E-3	-266.754E-12	646.538E-3	-30.6106E-3	-267.374E-12	638.964E-3	-67.8130E-3
-4.40470E-3	-267.389E-12	654.241E-3	-24.3630E-3	-266.585E-12	646.062E-3	-12.1245E-3
-4.40970E-3	-266.407E-12	671.097E-3	-31.5790E-3	-267.194E-12	619.500E-3	23.3189E-3
-4.41471E-3	-265.637E-12	684.965E-3	-44.1607E-3	-265.487E-12	625.867E-3	13.0557E-3
-4.41971E-3	-266.896E-12	701.527E-3	-22.6163E-3	-263.946E-12	679.919E-3	6.57720E-3
-4.42471E-3	-266.083E-12	697.387E-3	19.2884E-3	-263.274E-12	680.705E-3	13.3803E-3
-4.42971E-3	-263.048E-12	678.229E-3	27.2456E-3	-264.372E-12	648.824E-3	3.45596E-3
-4.43472E-3	-261.691E-12	669.893E-3	-3.16071E-3	-262.454E-12	642.552E-3	-14.4237E-3
-4.43972E-3	-264.017E-12	674.288E-3	-32.5729E-3	-262.125E-12	632.257E-3	-34.9685E-3
-4.44472E-3	-263.938E-12	680.573E-3	-27.5279E-3	-263.473E-12	609.246E-3	-35.0082E-3
-4.44972E-3	-263.212E-12	681.570E-3	-14.2849E-3	-264.647E-12	597.937E-3	-5.35055E-3
-4.45473E-3	-262.773E-12	672.358E-3	-21.2532E-3	-266.680E-12	606.490E-3	-116.969E-6
-4.45973E-3	-265.429E-12	685.128E-3	-24.5033E-3	-267.348E-12	633.431E-3	-31.9979E-3
-4.46473E-3	-266.409E-12	709.798E-3	-12.7333E-3	-268.985E-12	646.891E-3	-48.4845E-3
-4.46973E-3	-267.068E-12	684.720E-3	-7.03327E-3	-271.872E-12	631.703E-3	-4.97532E-3
-4.47474E-3	-267.542E-12	648.343E-3	-17.9457E-3	-272.116E-12	644.211E-3	19.6493E-3
-4.47974E-3	-266.907E-12	644.423E-3	-13.2907E-3	-271.306E-12	645.699E-3	-28.5570E-3
-4.48474E-3	-269.417E-12	649.872E-3	6.08517E-3	-271.405E-12	598.555E-3	-41.0328E-3
-4.48974E-3	-269.850E-12	652.343E-3	-21.8382E-3	-270.277E-12	594.760E-3	-37.5385E-3
-4.49475E-3	-268.651E-12	655.835E-3	-72.9337E-3	-267.330E-12	651.049E-3	-67.6965E-3
-4.49975E-3	-267.634E-12	644.304E-3	-74.4534E-3	-267.663E-12	675.794E-3	-64.7145E-3
-4.50475E-3	-267.328E-12	629.170E-3	-56.1734E-3	-266.444E-12	638.834E-3	-32.2750E-3
-4.50975E-3	-267.719E-12	640.757E-3	-47.9320E-3	-265.110E-12	605.216E-3	-7.45151E-3
-4.51476E-3	-267.374E-12	656.321E-3	-47.7269E-3	-261.842E-12	603.076E-3	4.66701E-3
-4.51976E-3	-265.666E-12	646.301E-3	-64.2040E-3	-262.727E-12	604.619E-3	7.13694E-3
-4.52476E-3	-265.297E-12	611.308E-3	-63.4785E-3	-263.616E-12	604.572E-3	-9.07260E-3
-4.52976E-3	-266.621E-12	570.081E-3	-32.1606E-3	-262.710E-12	595.417E-3	-24.0231E-3
-4.53477E-3	-267.941E-12	569.761E-3	-20.7626E-3	-263.437E-12	604.257E-3	-20.8859E-3
-4.53977E-3	-269.751E-12	586.368E-3	-48.6904E-3	-264.586E-12	627.679E-3	-17.2630E-3
-4.54477E-3	-270.717E-12	587.943E-3	-52.7599E-3	-267.286E-12	601.063E-3	-12.0887E-3
-4.54977E-3	-271.065E-12	601.251E-3	-28.2293E-3	-269.012E-12	588.427E-3	-2.67749E-3
-4.55478E-3	-272.355E-12	612.664E-3	-19.5360E-3	-271.198E-12	621.163E-3	-13.3860E-3
-4.55978E-3	-271.818E-12	608.453E-3	-5.01134E-3	-272.219E-12	638.895E-3	-49.9259E-3
-4.56478E-3	-274.695E-12	598.139E-3	-2.77665E-3	-272.218E-12	634.892E-3	-56.5290E-3
-4.56978E-3	-272.830E-12	613.926E-3	-35.1377E-3	-273.100E-12	634.214E-3	-31.3017E-3
-4.57479E-3	-272.384E-12	641.752E-3	-32.8847E-3	-273.578E-12	649.832E-3	-13.6210E-3
-4.57979E-3	-273.422E-12	638.826E-3	-18.4782E-3	-273.304E-12	652.148E-3	-10.9598E-3
-4.58479E-3	-271.343E-12	646.495E-3	-33.9508E-3	-272.407E-12	639.540E-3	-29.1764E-3
-4.58979E-3	-269.424E-12	662.687E-3	-14.3692E-3	-272.263E-12	625.610E-3	-31.9287E-3
-4.59480E-3	-267.272E-12	637.566E-3	15.7627E-3	-270.740E-12	615.905E-3	-11.5145E-3
-4.59980E-3	-267.824E-12	629.199E-3	-1.49710E-3	-269.136E-12	627.716E-3	-7.05642E-3
-4.60480E-3	-267.670E-12	652.488E-3	-35.7673E-3	-268.610E-12	643.134E-3	9.06199E-3
-4.60980E-3	-266.698E-12	637.481E-3	-57.3061E-3	-268.866E-12	647.099E-3	39.9103E-3
-4.61481E-3	-267.019E-12	627.529E-3	-60.2017E-3	-268.820E-12	651.327E-3	13.1793E-3
-4.61981E-3	-267.585E-12	647.364E-3	-33.8532E-3	-267.704E-12	655.074E-3	-24.2585E-3
-4.62481E-3	-269.196E-12	648.330E-3	-7.04190E-3	-268.106E-12	657.674E-3	-25.9575E-3
-4.62981E-3	-269.667E-12	619.780E-3	-16.7596E-3	-270.604E-12	638.443E-3	-43.3974E-3
-4.63482E-3	-272.272E-12	621.542E-3	-33.4257E-3	-273.070E-12	616.685E-3	-58.2981E-3
-4.63982E-3	-272.672E-12	657.207E-3	-42.2395E-3	-273.027E-12	630.423E-3	-39.4032E-3
-4.64482E-3	-274.508E-12	652.801E-3	-67.2871E-3	-274.111E-12	653.379E-3	-8.22657E-3
-4.64982E-3	-277.433E-12	635.221E-3	-91.7222E-3	-275.795E-12	664.633E-3	13.7603E-3
-4.65483E-3	-277.411E-12	650.597E-3	-66.3222E-3	-276.090E-12	666.346E-3	6.80125E-3
-4.65983E-3	-279.039E-12	669.996E-3	-35.0487E-3	-277.748E-12	637.685E-3	-19.9104E-3
-4.66483E-3	-277.641E-12	672.551E-3	-43.9090E-3	-276.828E-12	601.185E-3	-15.8324E-3
-4.66983E-3	-278.623E-12	680.224E-3	-45.4284E-3	-277.064E-12	588.253E-3	-11.7922E-3
-4.67484E-3	-278.454E-12	697.142E-3	-44.1062E-3	-275.758E-12	595.545E-3	-28.5370E-3
-4.67984E-3	-277.410E-12	701.474E-3	-61.7930E-3	-275.310E-12	605.233E-3	-8.15852E-3
-4.68484E-3	-274.837E-12	686.662E-3	-57.0577E-3	-275.930E-12	602.689E-3	5.56721E-3
-4.68984E-3	-272.686E-12	669.626E-3	-39.5099E-3	-275.328E-12	618.008E-3	-17.6273E-3
-4.69485E-3	-273.946E-12	666.635E-3	-40.4028E-3	-274.205E-12	635.175E-3	-33.1870E-3
-4.69985E-3	-274.383E-12	662.987E-3	-50.6965E-3	-274.318E-12	645.277E-3	-28.3323E-3
-4.70485E-3	-272.908E-12	653.032E-3	-51.0594E-3	-276.551E-12	649.836E-3	-2.29225E-3
-4.70985E-3	-272.099E-12	663.746E-3	-16.2095E-3	-276.157E-12	632.516E-3	19.7830E-3
-4.71486E-3	-274.566E-12	653.618E-3	19.7702E-3	-275.154E-12	618.882E-3	22.8884E-3
-4.71986E-3	-275.998E-12	626.043E-3	5.28753E-3	-273.999E-12	612.219E-3	3.33885E-3
-4.72486E-3	-277.556E-12	631.345E-3	-38.2269E-3	-276.666E-12	586.096E-3	-17.1511E-3
-4.72986E-3	-276.374E-12	633.693E-3	-38.4280E-3	-279.307E-12	581.666E-3	-21.9203E-3
-4.73487E-3	-277.145E-12	633.069E-3	-20.6895E-3	-278.178E-12	619.873E-3	-29.4353E-3
-4.73987E-3	-280.267E-12	663.919E-3	-55.6698E-3	-274.639E-12	639.503E-3	-31.5503E-3
-4.74487E-3	-283.964E-12	716.136E-3	-71.4339E-3	-277.013E-12	625.656E-3	-11.3896E-3
-4.74988E-3	-283.577E-12	727.718E-3	-33.5437E-3	-279.380E-12	627.577E-3	25.1339E-3
-4.75488E-3	-282.834E-12	678.838E-3	-9.18139E-3	-277.792E-12	650.575E-3	43.3404E-3
-4.75988E-3	-284.653E-12	644.846E-3	-3.39790E-3	-274.010E-12	649.615E-3	42.7453E-3
-4.76488E-3	-283.006E-12	639.477E-3	-1.12075E-3	-272.925E-12	627.856E-3	25.6802E-3
-4.76988E-3	-280.698E-12	620.747E-3	-19.5306E-3	-277.011E-12	615.548E-3	-10.8435E-3
-4.77489E-3	-277.983E-12	613.984E-3	-57.0647E-3	-277.390E-12	599.934E-3	-26.3863E-3
-4.77989E-3	-277.930E-12	631.314E-3	-68.2203E-3	-275.391E-12	609.356E-3	-18.0824E-3
-4.78489E-3	-279.302E-12	650.018E-3	-39.9906E-3	-275.448E-12	654.906E-3	-6.71523E-3
-4.78989E-3	-276.614E-12	670.392E-3	-10.7472E-3	-279.565E-12	669.900E-3	276.707E-6
-4.79490E-3	-275.121E-12	686.865E-3	-312.343E-6	-283.361E-12	651.960E-3	-11.2887E-3
-4.79990E-3	-274.459E-12	656.004E-3	-18.3084E-3	-282.687E-12	626.705E-3	-2.73580E-3
-4.80490E-3	-276.320E-12	604.482E-3	-43.2535E-3	-281.804E-12	612.849E-3	25.2557E-3
-4.80990E-3	-276.310E-12	604.774E-3	-33.7766E-3	-281.334E-12	645.616E-3	9.13121E-3
-4.81491E-3	-276.317E-12	622.035E-3	-21.7321E-3	-287.187E-12	672.405E-3	-32.0693E-3
-4.81991E-3	-276.404E-12	602.574E-3	-22.1526E-3	-285.582E-12	642.200E-3	-47.6820E-3
-4.82491E-3	-277.447E-12	574.945E-3	-1.13044E-3	-282.853E-12	620.906E-3	-21.7722E-3
-4.82991E-3	-279.980E-12	582.713E-3	27.4272E-3	-279.554E-12	639.353E-3	1.89417E-3
-4.83492E-3	-278.428E-12	621.035E-3	36.8436E-3	-283.058E-12	665.176E-3	-10.1158E-3
-4.83992E-3	-277.904E-12	638.225E-3	22.5622E-3	-281.652E-12	678.158E-3	-22.3036E-3
-4.84492E-3	-277.561E-12	626.927E-3	939.574E-6	-278.813E-12	647.103E-3	-43.6108E-3
-4.84992E-3	-279.509E-12	632.777E-3	-24.4088E-3	-276.987E-12	594.955E-3	-68.8416E-3
-4.85493E-3	-279.766E-12	647.210E-3	-39.1590E-3	-276.671E-12	575.395E-3	-53.9450E-3
-4.85993E-3	-277.152E-12	653.757E-3	-42.5946E-3	-277.696E-12	589.587E-3	-29.5295E-3
-4.86493E-3	-275.971E-12	650.491E-3	-43.6826E-3	-276.897E-12	598.373E-3	-9.95873E-3
-4.86993E-3	-277.855E-12	629.482E-3	-34.1872E-3	-277.104E-12	591.263E-3	23.9831E-3
-4.87494E-3	-279.193E-12	625.422E-3	-48.4569E-3	-278.087E-12	613.020E-3	32.8877E-3
-4.87994E-3	-279.170E-12	640.257E-3	-55.9403E-3	-280.337E-12	641.797E-3	-4.65560E-3
-4.88494E-3	-277.384E-12	655.087E-3	-25.0260E-3	-282.284E-12	636.751E-3	-18.4588E-3
-4.88995E-3	-278.905E-12	655.250E-3	-3.77481E-3	-284.237E-12	622.027E-3	-15.7471E-3
-4.89495E-3	-282.963E-12	655.172E-3	-10.6977E-3	-286.564E-12	604.940E-3	-36.9792E-3
-4.89995E-3	-282.354E-12	670.574E-3	-24.6247E-3	-286.221E-12	593.981E-3	-37.4857E-3
-4.90495E-3	-282.418E-12	639.813E-3	-27.8105E-3	-289.099E-12	618.079E-3	-38.9325E-3
-4.90995E-3	-282.751E-12	588.121E-3	-25.5650E-3	-288.629E-12	624.027E-3	-62.1070E-3
-4.91496E-3	-284.794E-12	603.246E-3	-28.6854E-3	-288.322E-12	604.808E-3	-67.0948E-3
-4.91996E-3	-285.215E-12	641.337E-3	-16.5421E-3	-284.649E-12	633.823E-3	-58.4751E-3
-4.92496E-3	-284.880E-12	641.541E-3	-7.67366E-3	-284.647E-12	642.475E-3	-72.7598E-3
-4.92996E-3	-283.660E-12	646.164E-3	-18.4815E-3	-283.713E-12	601.953E-3	-72.2476E-3
-4.93497E-3	-284.638E-12	653.345E-3	-13.7008E-3	-280.280E-12	580.737E-3	-22.6150E-3
-4.93997E-3	-284.482E-12	635.064E-3	-16.3976E-3	-278.613E-12	587.820E-3	10.9181E-3
-4.94497E-3	-283.268E-12	623.324E-3	-31.9943E-3	-278.582E-12	607.245E-3	6.70413E-3
-4.94997E-3	-282.191E-12	608.843E-3	-34.4741E-3	-277.794E-12	636.205E-3	23.9451E-3
-4.95498E-3	-282.119E-12	593.350E-3	-38.1798E-3	-277.437E-12	661.395E-3	17.1164E-3
-4.95998E-3	-283.426E-12	601.743E-3	-29.6150E-3	-277.338E-12	644.129E-3	-14.5298E-3
-4.96498E-3	-285.055E-12	630.563E-3	-9.39198E-3	-277.940E-12	632.901E-3	-2.70420E-3
-4.96998E-3	-283.715E-12	653.975E-3	-4.34946E-3	-280.619E-12	657.836E-3	892.099E-6
-4.97499E-3	-285.863E-12	644.741E-3	-17.3021E-3	-283.278E-12	650.785E-3	-31.3601E-3
-4.97999E-3	-286.996E-12	630.271E-3	-55.3681E-3	-283.915E-12	615.063E-3	-45.1616E-3
-4.98499E-3	-290.804E-12	640.724E-3	-65.0405E-3	-287.021E-12	610.965E-3	-2.75684E-3
-4.98999E-3	-291.111E-12	671.198E-3	-7.46007E-3	-288.779E-12	617.261E-3	10.3030E-3
-4.99500E-3	-291.331E-12	712.959E-3	8.36873E-3	-290.423E-12	622.635E-3	-35.1278E-3
-5.00000E-3	-291.126E-12	713.278E-3	-28.8126E-3	-291.565E-12	662.605E-3	-49.4542E-3
