Experiment	bias spectroscopy	
Date	19.01.2016 18:12:01	
User		
X (m)	50.4391E-9	
Y (m)	256.114E-9	
Z (m)	-132.618E-9	
Z offset (m)	0E+0	
Settling time (s)	200E-6	
Integration time (s)	5E-3	
Z-Ctrl hold	TRUE	
Final Z (m)	N/A	
Filter type	None	
Order		
Cutoff frq		
Comment01	MnPc/Pb(111)	
Comment02	dz =00pm	
Comment03	7 Sweeps	
Comment04	MagField =0.T	
Comment05	Divider 1:10	
Comment06	Setpoint:5mV,200 pA	
Comment07	Lockin: 50uVrms,5ms,5mV	
Comment08	Gain:9; 912Hz modulation	
Comment09	T=1.06K	
Bias>Bias (V)	5E-3	
Bias>Calibration (V/V)	81.475E-3	
Bias>Offset (V)	1.046E-3	
Bias Spectroscopy>Sweep Start (V)	5E-3	
Bias Spectroscopy>Sweep End (V)	-5E-3	
Bias Spectroscopy>Num Pixel	2000	
Bias Spectroscopy>Z Avg time (s)	500E-3	
Bias Spectroscopy>Z offset (m)	0E+0	
Bias Spectroscopy>1st Settling time (s)	500E-3	
Bias Spectroscopy>Settling time (s)	200E-6	
Bias Spectroscopy>Integration time (s)	5E-3	
Bias Spectroscopy>End Settling time (s)	500E-3	
Bias Spectroscopy>Z control time (s)	500E-3	
Bias Spectroscopy>Max Slew rate (V/s)	Inf	
Bias Spectroscopy>backward sweep	TRUE	
Bias Spectroscopy>Z-controller hold	TRUE	
Bias Spectroscopy>Number of sweeps	7	
Bias Spectroscopy>Channels	Current (A);X% LockIn (V);Y% LockIn (V)	
Bias Spectroscopy>Reset Bias	TRUE	
Bias Spectroscopy>Record final Z	FALSE	
Bias Spectroscopy>Lock-In run	FALSE	
Bias Spectroscopy>Sweep mode	Linear	
Bias Spectroscopy>MultiLine Settings : Segment Start (V), Segment End (V), Settling (s), Integration (s), Steps (xn)	100E-3,3.3E-3,100E-6,10E-3,2500;3.3E-3,-3.3E-3,100E-6,10E-3,10;-3.3E-3,-100E-3,100E-6,10E-3,2500	
Current>Current (A)	200.068E-12	
Current>Calibration (A/V)	999.99900E-12	
Current>Offset (A)	-455.429E-15	
Current>Gain	LN 10^9	
Z-Controller>Z (m)	-132.617E-9	
Z-Controller>Controller name	log Current	
Z-Controller>Controller status	ON	
Z-Controller>Setpoint	200E-12	
Z-Controller>Setpoint unit	A	
Z-Controller>P gain	2.96994E-12	
Z-Controller>I gain	67.0321E-9	
Z-Controller>Time const (s)	44.3062E-6	
Z-Controller>TipLift (m)	0E+0	
Z-Controller>Switch off delay (s)	50E-3	
Current (A)	200.147E-12	
Z (m)	-132.617E-9	

[DATA]
Bias calc (V)	Current (A)	X% LockIn (V)	Y% LockIn (V)	Current [bwd] (A)	X% LockIn [bwd] (V)	Y% LockIn [bwd] (V)
5.00000E-3	198.609E-12	649.481E-3	-30.4992E-3	200.637E-12	629.601E-3	-1.95793E-3
4.99500E-3	198.563E-12	647.221E-3	-26.1830E-3	199.677E-12	635.527E-3	-14.3466E-3
4.98999E-3	197.792E-12	660.417E-3	-2.24101E-3	199.445E-12	684.311E-3	-9.96597E-3
4.98499E-3	197.865E-12	654.260E-3	16.0126E-3	198.778E-12	706.051E-3	5.70283E-3
4.97999E-3	196.932E-12	617.988E-3	4.56681E-3	198.883E-12	664.256E-3	-6.33592E-3
4.97499E-3	196.946E-12	634.866E-3	-39.7688E-3	198.791E-12	644.089E-3	-31.4516E-3
4.96998E-3	196.402E-12	672.566E-3	-82.2755E-3	198.806E-12	663.754E-3	-38.1791E-3
4.96498E-3	197.188E-12	660.862E-3	-77.9151E-3	198.741E-12	673.952E-3	-15.6859E-3
4.95998E-3	197.591E-12	636.985E-3	-39.6475E-3	198.910E-12	659.446E-3	14.8093E-3
4.95498E-3	198.296E-12	652.358E-3	-12.6009E-3	199.189E-12	634.271E-3	20.5938E-3
4.94997E-3	198.090E-12	695.982E-3	-3.91085E-3	199.218E-12	629.753E-3	-4.86540E-3
4.94497E-3	199.198E-12	705.129E-3	7.34899E-3	199.196E-12	637.131E-3	-51.8171E-3
4.93997E-3	199.081E-12	680.080E-3	-3.50333E-3	199.301E-12	646.991E-3	-50.7737E-3
4.93497E-3	199.317E-12	665.377E-3	-39.4538E-3	199.133E-12	648.886E-3	-7.95281E-3
4.92996E-3	198.625E-12	671.244E-3	-46.6442E-3	198.795E-12	630.681E-3	-2.67783E-3
4.92496E-3	199.034E-12	672.257E-3	-19.3851E-3	197.812E-12	640.711E-3	-11.3079E-3
4.91996E-3	198.538E-12	658.555E-3	6.70041E-3	197.257E-12	675.781E-3	-24.5430E-3
4.91496E-3	198.383E-12	651.189E-3	6.27279E-3	196.882E-12	679.031E-3	-35.7865E-3
4.90995E-3	197.361E-12	655.241E-3	-10.7442E-3	197.198E-12	649.997E-3	-13.9823E-3
4.90495E-3	197.028E-12	660.604E-3	-35.8357E-3	196.449E-12	632.362E-3	-14.7873E-3
4.89995E-3	195.632E-12	666.150E-3	-33.7301E-3	195.322E-12	650.098E-3	-36.1698E-3
4.89495E-3	195.634E-12	655.509E-3	579.852E-6	194.375E-12	666.659E-3	-44.1448E-3
4.88995E-3	194.668E-12	649.884E-3	16.2623E-3	194.452E-12	645.742E-3	-64.4935E-3
4.88494E-3	194.317E-12	659.285E-3	-1.34830E-3	194.188E-12	614.765E-3	-66.1689E-3
4.87994E-3	193.844E-12	654.413E-3	-4.50194E-3	193.596E-12	592.152E-3	-46.5894E-3
4.87494E-3	193.875E-12	639.788E-3	30.3454E-3	193.422E-12	579.908E-3	-54.9615E-3
4.86993E-3	193.581E-12	628.184E-3	38.3661E-3	193.708E-12	591.230E-3	-80.2963E-3
4.86493E-3	194.411E-12	629.254E-3	-6.35019E-3	194.236E-12	632.663E-3	-67.5333E-3
4.85993E-3	194.584E-12	624.693E-3	-34.1450E-3	193.744E-12	685.359E-3	-17.4842E-3
4.85493E-3	195.029E-12	619.758E-3	-6.74297E-3	193.797E-12	681.731E-3	8.55127E-3
4.84992E-3	195.562E-12	638.600E-3	41.0032E-3	194.396E-12	648.148E-3	-5.26253E-3
4.84492E-3	195.568E-12	682.840E-3	60.1111E-3	194.588E-12	637.417E-3	-23.5512E-3
4.83992E-3	195.098E-12	717.683E-3	22.8491E-3	194.425E-12	641.083E-3	-37.5561E-3
4.83492E-3	195.141E-12	691.080E-3	-13.0116E-3	193.478E-12	664.805E-3	-39.4995E-3
4.82991E-3	195.471E-12	638.332E-3	-31.0264E-3	193.558E-12	660.372E-3	-21.0068E-3
4.82491E-3	194.584E-12	624.647E-3	-45.8553E-3	193.685E-12	623.226E-3	2.47722E-3
4.81991E-3	193.607E-12	650.989E-3	-38.3466E-3	193.778E-12	628.399E-3	30.3439E-3
4.81491E-3	192.995E-12	663.965E-3	-42.6984E-3	193.129E-12	683.035E-3	31.3553E-3
4.80990E-3	192.510E-12	661.817E-3	-80.8913E-3	192.045E-12	692.803E-3	13.2394E-3
4.80490E-3	191.143E-12	664.801E-3	-90.6133E-3	191.501E-12	634.172E-3	10.3948E-3
4.79990E-3	190.294E-12	667.322E-3	-48.1998E-3	191.070E-12	608.378E-3	-13.7311E-3
4.79490E-3	189.967E-12	678.529E-3	-9.64067E-3	190.947E-12	611.960E-3	-55.9259E-3
4.78989E-3	189.154E-12	680.184E-3	6.87344E-3	190.211E-12	609.173E-3	-55.9865E-3
4.78489E-3	189.184E-12	666.311E-3	-5.36351E-3	189.227E-12	624.746E-3	-18.2606E-3
4.77989E-3	188.780E-12	663.337E-3	-27.1993E-3	189.848E-12	613.228E-3	-5.61332E-3
4.77489E-3	188.907E-12	655.039E-3	-16.8090E-3	190.037E-12	601.081E-3	-19.5858E-3
4.76988E-3	189.121E-12	638.273E-3	-10.4432E-3	189.107E-12	641.724E-3	-15.1996E-3
4.76488E-3	188.986E-12	647.317E-3	-36.7453E-3	188.394E-12	672.803E-3	-3.30312E-3
4.75988E-3	189.087E-12	663.274E-3	-54.8208E-3	189.027E-12	659.751E-3	-10.0841E-3
4.75488E-3	188.948E-12	647.304E-3	-47.1200E-3	189.147E-12	642.937E-3	-23.4521E-3
4.74988E-3	189.266E-12	628.726E-3	-26.0889E-3	189.203E-12	665.964E-3	-24.6911E-3
4.74487E-3	188.865E-12	641.539E-3	-3.17603E-3	188.919E-12	699.769E-3	-18.9694E-3
4.73987E-3	189.377E-12	645.481E-3	5.29271E-3	188.939E-12	702.967E-3	-27.2188E-3
4.73487E-3	188.507E-12	638.808E-3	-10.1612E-3	189.192E-12	706.605E-3	-20.1283E-3
4.72986E-3	188.891E-12	633.581E-3	-18.9197E-3	190.186E-12	694.482E-3	2.46011E-3
4.72486E-3	188.464E-12	614.272E-3	-6.99772E-3	190.012E-12	649.823E-3	-17.8765E-3
4.71986E-3	187.839E-12	606.633E-3	4.78347E-3	189.504E-12	612.171E-3	-66.9649E-3
4.71486E-3	186.928E-12	618.302E-3	6.85338E-3	188.056E-12	596.171E-3	-67.7523E-3
4.70985E-3	186.745E-12	619.737E-3	-19.0758E-3	187.998E-12	622.003E-3	-28.7253E-3
4.70485E-3	185.834E-12	615.995E-3	-45.3384E-3	187.716E-12	661.771E-3	-13.5055E-3
4.69985E-3	185.309E-12	638.467E-3	-30.6786E-3	187.016E-12	671.805E-3	-27.0957E-3
4.69485E-3	185.146E-12	666.327E-3	-23.9689E-3	185.662E-12	679.701E-3	-51.9475E-3
4.68984E-3	184.944E-12	672.190E-3	-40.2446E-3	186.019E-12	689.848E-3	-62.7645E-3
4.68484E-3	184.971E-12	676.774E-3	-43.6712E-3	187.055E-12	677.481E-3	-37.8531E-3
4.67984E-3	185.078E-12	673.961E-3	-39.8014E-3	186.698E-12	650.846E-3	-14.5463E-3
4.67484E-3	184.708E-12	641.903E-3	-20.5410E-3	185.557E-12	620.050E-3	-19.2632E-3
4.66983E-3	184.761E-12	633.088E-3	2.26606E-3	185.493E-12	602.410E-3	-21.4000E-3
4.66483E-3	184.590E-12	666.001E-3	-15.2247E-3	186.671E-12	623.178E-3	-14.9146E-3
4.65983E-3	184.991E-12	685.125E-3	-53.5761E-3	186.625E-12	659.965E-3	-4.09755E-3
4.65483E-3	184.500E-12	672.478E-3	-55.1064E-3	186.447E-12	674.640E-3	-498.797E-6
4.64982E-3	184.545E-12	658.415E-3	-17.2643E-3	185.828E-12	677.567E-3	-7.05983E-3
4.64482E-3	183.708E-12	653.617E-3	3.15866E-3	186.932E-12	682.806E-3	-24.6118E-3
4.63982E-3	183.662E-12	657.906E-3	-13.1875E-3	186.534E-12	676.823E-3	-40.3537E-3
4.63482E-3	183.121E-12	680.878E-3	-39.0955E-3	186.585E-12	657.262E-3	-35.6516E-3
4.62981E-3	183.689E-12	674.507E-3	-34.0646E-3	186.045E-12	653.127E-3	-38.5216E-3
4.62481E-3	182.561E-12	628.814E-3	-1.43474E-3	186.213E-12	672.304E-3	-43.8176E-3
4.61981E-3	182.827E-12	615.765E-3	7.35668E-3	186.086E-12	674.681E-3	-28.3887E-3
4.61481E-3	182.221E-12	639.545E-3	-21.9810E-3	185.960E-12	661.987E-3	-8.12671E-3
4.60980E-3	181.904E-12	652.332E-3	-39.2571E-3	185.353E-12	652.107E-3	-13.1340E-3
4.60480E-3	180.592E-12	654.427E-3	-13.5571E-3	184.924E-12	635.225E-3	-29.9500E-3
4.59980E-3	180.242E-12	633.002E-3	10.0944E-3	183.598E-12	610.715E-3	-39.3583E-3
4.59480E-3	180.514E-12	618.321E-3	6.80391E-3	183.384E-12	617.762E-3	-48.1799E-3
4.58979E-3	181.469E-12	635.074E-3	-17.6356E-3	183.730E-12	655.026E-3	-36.3802E-3
4.58479E-3	181.341E-12	634.552E-3	-29.3777E-3	183.447E-12	670.582E-3	-14.1951E-3
4.57979E-3	181.433E-12	624.814E-3	-40.1936E-3	183.264E-12	659.902E-3	-6.45350E-3
4.57479E-3	181.436E-12	626.483E-3	-49.3048E-3	182.320E-12	648.199E-3	5.60896E-3
4.56978E-3	182.054E-12	644.136E-3	-28.2580E-3	182.458E-12	642.232E-3	-1.68719E-3
4.56478E-3	181.385E-12	665.314E-3	-19.1817E-3	182.265E-12	650.005E-3	-22.8575E-3
4.55978E-3	181.716E-12	679.053E-3	-24.5427E-3	181.859E-12	671.309E-3	-12.6606E-3
4.55478E-3	180.727E-12	667.786E-3	-17.0185E-3	180.878E-12	680.410E-3	-592.398E-6
4.54977E-3	181.145E-12	641.699E-3	-15.7373E-3	180.149E-12	671.920E-3	-6.74185E-3
4.54477E-3	180.992E-12	644.424E-3	-23.3467E-3	180.736E-12	663.518E-3	-10.9316E-3
4.53977E-3	181.786E-12	664.307E-3	-24.8728E-3	180.910E-12	669.501E-3	-18.2094E-3
4.53477E-3	181.369E-12	663.041E-3	-31.2980E-3	180.087E-12	661.705E-3	-13.9643E-3
4.52976E-3	181.334E-12	659.406E-3	-39.0958E-3	178.925E-12	628.854E-3	24.3715E-3
4.52476E-3	180.911E-12	664.656E-3	-27.8705E-3	178.714E-12	607.935E-3	44.0791E-3
4.51976E-3	180.264E-12	668.405E-3	-9.34129E-3	179.043E-12	621.708E-3	-1.65978E-3
4.51476E-3	180.304E-12	712.461E-3	-5.21283E-3	178.227E-12	660.455E-3	-49.2473E-3
4.50975E-3	180.282E-12	734.125E-3	-15.8542E-3	176.429E-12	694.355E-3	-39.7892E-3
4.50475E-3	180.427E-12	683.398E-3	-46.3601E-3	176.756E-12	684.310E-3	-17.5065E-3
4.49975E-3	179.252E-12	652.080E-3	-55.6601E-3	177.750E-12	644.446E-3	-12.8056E-3
4.49475E-3	178.411E-12	665.593E-3	-11.0838E-3	177.710E-12	638.893E-3	-37.3847E-3
4.48974E-3	177.967E-12	674.395E-3	18.3578E-3	176.551E-12	664.995E-3	-86.8590E-3
4.48474E-3	177.733E-12	692.126E-3	-4.85548E-3	176.517E-12	676.321E-3	-89.5551E-3
4.47974E-3	177.257E-12	697.301E-3	-22.3573E-3	176.154E-12	666.695E-3	-34.8339E-3
4.47474E-3	176.707E-12	654.054E-3	-8.67863E-3	176.932E-12	640.140E-3	3.85537E-3
4.46973E-3	176.245E-12	626.856E-3	-8.86600E-3	176.451E-12	611.991E-3	-2.67664E-3
4.46473E-3	175.906E-12	637.647E-3	-13.1144E-3	175.383E-12	616.784E-3	-12.7851E-3
4.45973E-3	176.329E-12	642.684E-3	-7.34178E-3	174.585E-12	636.657E-3	-21.2652E-3
4.45473E-3	176.486E-12	629.422E-3	2.87495E-3	175.371E-12	641.544E-3	-21.3072E-3
4.44972E-3	176.287E-12	616.470E-3	-604.693E-6	175.065E-12	631.008E-3	-1.31879E-3
4.44472E-3	176.224E-12	623.484E-3	-27.1079E-3	174.870E-12	615.383E-3	-10.0771E-3
4.43972E-3	176.562E-12	657.142E-3	-41.0973E-3	174.262E-12	606.427E-3	-35.7034E-3
4.43472E-3	176.613E-12	678.688E-3	-30.9075E-3	175.519E-12	620.342E-3	-37.1674E-3
4.42971E-3	177.019E-12	666.551E-3	-23.7292E-3	175.864E-12	642.003E-3	-24.3781E-3
4.42471E-3	177.084E-12	658.055E-3	-17.9914E-3	175.735E-12	643.746E-3	-27.5125E-3
4.41971E-3	177.139E-12	661.092E-3	16.0428E-3	175.178E-12	642.193E-3	-40.8473E-3
4.41471E-3	177.038E-12	651.658E-3	30.8688E-3	175.399E-12	647.511E-3	-40.1935E-3
4.40970E-3	176.241E-12	651.916E-3	3.14723E-3	175.834E-12	649.665E-3	-21.8645E-3
4.40470E-3	175.127E-12	661.844E-3	-17.2163E-3	175.695E-12	634.232E-3	949.977E-6
4.39970E-3	173.452E-12	642.771E-3	-6.91973E-3	174.500E-12	625.800E-3	-2.69966E-3
4.39470E-3	172.537E-12	638.838E-3	14.3032E-3	174.392E-12	645.221E-3	-29.6995E-3
4.38969E-3	171.144E-12	680.195E-3	10.6574E-3	174.419E-12	668.766E-3	-43.5451E-3
4.38469E-3	170.844E-12	693.319E-3	-14.9497E-3	174.240E-12	676.201E-3	-37.3370E-3
4.37969E-3	169.989E-12	661.521E-3	-32.6471E-3	173.247E-12	640.583E-3	-24.8429E-3
4.37469E-3	169.073E-12	655.287E-3	-48.3835E-3	173.066E-12	610.667E-3	-9.49574E-3
4.36968E-3	168.332E-12	659.925E-3	-39.0086E-3	171.944E-12	628.880E-3	-5.48617E-3
4.36468E-3	168.971E-12	641.545E-3	-26.1837E-6	171.494E-12	629.396E-3	-28.5875E-3
4.35968E-3	169.544E-12	616.732E-3	12.2066E-3	171.971E-12	622.150E-3	-27.5420E-3
4.35468E-3	170.143E-12	617.144E-3	1.95151E-3	171.501E-12	655.740E-3	3.29893E-3
4.34967E-3	169.861E-12	641.686E-3	-15.8410E-3	171.531E-12	663.452E-3	-6.27067E-3
4.34467E-3	171.161E-12	651.166E-3	-31.3372E-3	171.829E-12	621.249E-3	-27.4062E-3
4.33967E-3	171.607E-12	661.671E-3	-22.7925E-3	173.161E-12	610.031E-3	-28.1789E-3
4.33467E-3	172.472E-12	663.941E-3	-14.2148E-3	173.017E-12	649.923E-3	-37.2459E-3
4.32966E-3	172.285E-12	659.568E-3	-25.5989E-3	173.223E-12	689.670E-3	-29.7206E-3
4.32466E-3	172.830E-12	666.614E-3	-13.7242E-3	172.939E-12	688.527E-3	-2.54045E-3
4.31966E-3	172.628E-12	654.098E-3	10.5380E-3	173.621E-12	660.875E-3	-2.75219E-3
4.31466E-3	172.503E-12	643.941E-3	-2.58573E-3	172.999E-12	655.025E-3	-29.8701E-3
4.30965E-3	171.564E-12	654.140E-3	-25.7438E-3	172.228E-12	675.339E-3	-38.9800E-3
4.30465E-3	170.949E-12	646.345E-3	-31.5918E-3	171.490E-12	674.761E-3	-19.6632E-3
4.29965E-3	169.917E-12	628.386E-3	-31.5200E-3	171.191E-12	646.759E-3	-12.1616E-3
4.29465E-3	168.488E-12	635.763E-3	-29.3703E-3	170.646E-12	639.432E-3	-26.5302E-3
4.28964E-3	167.704E-12	652.821E-3	-14.5213E-3	169.773E-12	664.083E-3	-50.9374E-3
4.28464E-3	167.557E-12	657.974E-3	-21.1624E-3	168.970E-12	697.977E-3	-56.3524E-3
4.27964E-3	166.701E-12	652.870E-3	-48.1004E-3	168.356E-12	694.415E-3	-26.0442E-3
4.27464E-3	166.298E-12	645.397E-3	-54.2361E-3	167.777E-12	646.314E-3	-15.9757E-3
4.26963E-3	165.702E-12	628.008E-3	-39.9426E-3	167.300E-12	625.327E-3	-22.3869E-3
4.26463E-3	166.093E-12	634.606E-3	-20.2592E-3	166.511E-12	654.864E-3	-8.64875E-3
4.25963E-3	166.480E-12	658.989E-3	-20.4010E-3	166.671E-12	686.336E-3	-7.02797E-3
4.25463E-3	166.361E-12	655.891E-3	-26.4839E-3	166.448E-12	688.896E-3	-28.3092E-3
4.24962E-3	166.824E-12	622.905E-3	-5.92318E-3	167.506E-12	653.839E-3	-31.4651E-3
4.24462E-3	167.275E-12	578.853E-3	10.3519E-3	166.916E-12	624.788E-3	-31.8161E-3
4.23962E-3	168.354E-12	581.361E-3	-12.1944E-3	167.317E-12	645.067E-3	-51.4194E-3
4.23462E-3	168.757E-12	636.216E-3	-30.3009E-3	167.299E-12	672.457E-3	-42.7826E-3
4.22961E-3	168.575E-12	668.611E-3	-32.8336E-3	167.927E-12	676.285E-3	-27.4638E-3
4.22461E-3	168.705E-12	657.616E-3	-45.2602E-3	167.635E-12	648.957E-3	-27.6569E-3
4.21961E-3	169.173E-12	668.774E-3	-43.8001E-3	167.994E-12	614.138E-3	-28.6775E-3
4.21461E-3	169.445E-12	680.801E-3	-24.1456E-3	167.286E-12	622.128E-3	-31.4256E-3
4.20960E-3	169.045E-12	663.596E-3	-32.6631E-3	167.042E-12	647.884E-3	-22.7777E-3
4.20460E-3	167.152E-12	672.164E-3	-59.7449E-3	166.371E-12	654.843E-3	-16.8310E-3
4.19960E-3	166.419E-12	684.663E-3	-40.0951E-3	166.200E-12	656.170E-3	-10.2434E-3
4.19460E-3	165.640E-12	656.100E-3	-9.02526E-3	165.377E-12	650.725E-3	-3.88534E-3
4.18959E-3	164.649E-12	634.750E-3	-15.6037E-3	165.454E-12	650.211E-3	-10.6331E-3
4.18459E-3	164.231E-12	643.647E-3	-19.9804E-3	164.260E-12	672.843E-3	-4.86088E-3
4.17959E-3	164.345E-12	657.884E-3	-26.1162E-3	163.980E-12	686.922E-3	1.11298E-3
4.17459E-3	164.238E-12	674.466E-3	-36.8210E-3	163.328E-12	670.127E-3	-11.1543E-3
4.16958E-3	163.389E-12	691.174E-3	-26.5933E-3	163.332E-12	651.946E-3	-25.8170E-3
4.16458E-3	163.024E-12	681.773E-3	-19.7044E-3	162.266E-12	651.268E-3	-43.2950E-3
4.15958E-3	162.724E-12	652.933E-3	-16.4314E-3	162.245E-12	656.659E-3	-48.0351E-3
4.15458E-3	162.278E-12	652.742E-3	-9.93899E-3	162.096E-12	667.637E-3	-39.2589E-3
4.14957E-3	161.882E-12	658.454E-3	-14.3024E-3	162.379E-12	671.512E-3	-29.8768E-3
4.14457E-3	162.334E-12	647.011E-3	-24.9333E-3	162.119E-12	651.962E-3	-16.1579E-3
4.13957E-3	162.809E-12	638.485E-3	-27.3865E-3	162.271E-12	648.766E-3	-16.7029E-3
4.13457E-3	162.815E-12	641.941E-3	-20.3627E-3	161.387E-12	668.999E-3	-27.9973E-3
4.12956E-3	162.743E-12	652.355E-3	-15.7038E-3	161.736E-12	657.678E-3	-38.0058E-3
4.12456E-3	162.770E-12	653.333E-3	-14.8393E-3	160.937E-12	631.388E-3	-31.9661E-3
4.11956E-3	162.599E-12	634.150E-3	-21.7258E-3	161.233E-12	623.695E-3	-21.0000E-3
4.11456E-3	162.708E-12	620.123E-3	-29.2172E-3	161.200E-12	628.631E-3	-26.2843E-3
4.10955E-3	162.621E-12	636.186E-3	-27.5579E-3	161.593E-12	655.804E-3	-33.7966E-3
4.10455E-3	162.421E-12	648.859E-3	-23.6824E-3	161.761E-12	697.591E-3	-39.5755E-3
4.09955E-3	162.682E-12	643.970E-3	-34.7926E-3	161.595E-12	700.517E-3	-24.0423E-3
4.09455E-3	162.559E-12	631.311E-3	-36.0321E-3	161.031E-12	667.312E-3	-5.25520E-3
4.08954E-3	161.723E-12	628.427E-3	-7.38827E-3	160.682E-12	657.717E-3	-16.8387E-3
4.08454E-3	160.795E-12	644.937E-3	14.3698E-3	161.043E-12	659.100E-3	-28.7588E-3
4.07954E-3	159.868E-12	661.550E-3	15.9891E-3	160.025E-12	646.064E-3	-31.2025E-3
4.07454E-3	159.058E-12	669.893E-3	-8.76256E-3	159.463E-12	644.886E-3	-44.5313E-3
4.06953E-3	158.483E-12	666.494E-3	-30.9559E-3	159.370E-12	650.620E-3	-43.9141E-3
4.06453E-3	157.403E-12	660.258E-3	-16.8996E-3	159.581E-12	665.016E-3	-15.8698E-3
4.05953E-3	156.949E-12	656.719E-3	4.29058E-3	158.930E-12	684.373E-3	-3.67636E-3
4.05453E-3	156.033E-12	651.244E-3	-4.28836E-3	157.886E-12	671.029E-3	-19.6082E-3
4.04952E-3	156.086E-12	649.465E-3	-31.5217E-3	157.854E-12	651.484E-3	-19.8812E-3
4.04452E-3	155.395E-12	655.536E-3	-34.3770E-3	158.040E-12	646.238E-3	4.91086E-3
4.03952E-3	155.134E-12	652.564E-3	-20.7430E-3	157.509E-12	642.501E-3	4.85909E-3
4.03452E-3	155.518E-12	631.046E-3	-19.5721E-3	156.743E-12	642.564E-3	-18.9966E-3
4.02951E-3	155.772E-12	626.188E-3	-8.52323E-3	156.758E-12	650.674E-3	-30.8386E-3
4.02451E-3	155.673E-12	646.137E-3	5.71714E-3	157.589E-12	653.798E-3	-28.0873E-3
4.01951E-3	155.240E-12	661.400E-3	-12.2812E-3	157.730E-12	630.729E-3	-25.7250E-3
4.01451E-3	156.104E-12	671.176E-3	-17.6624E-3	157.792E-12	611.294E-3	-23.4111E-3
4.00950E-3	156.363E-12	669.108E-3	-8.19591E-3	158.058E-12	631.641E-3	-32.2503E-3
4.00450E-3	156.456E-12	667.195E-3	-32.2612E-3	158.785E-12	670.681E-3	-40.4872E-3
3.99950E-3	156.577E-12	675.685E-3	-52.9347E-3	158.710E-12	693.730E-3	-3.55850E-3
3.99450E-3	156.204E-12	660.112E-3	-34.7192E-3	158.729E-12	687.586E-3	27.3873E-3
3.98949E-3	156.061E-12	645.390E-3	-19.2635E-3	158.515E-12	664.983E-3	13.3604E-3
3.98449E-3	155.135E-12	658.741E-3	-342.076E-6	158.293E-12	658.457E-3	-8.62978E-3
3.97949E-3	154.709E-12	670.260E-3	17.9072E-3	157.548E-12	661.602E-3	-17.2486E-3
3.97449E-3	153.744E-12	672.718E-3	-10.2078E-3	157.549E-12	661.316E-3	-13.5803E-3
3.96948E-3	153.893E-12	665.859E-3	-38.5238E-3	157.024E-12	665.388E-3	-11.7490E-3
3.96448E-3	153.454E-12	647.060E-3	-24.0325E-3	155.843E-12	649.198E-3	-18.8942E-3
3.95948E-3	153.001E-12	643.645E-3	2.87124E-3	154.901E-12	628.395E-3	-19.9675E-3
3.95448E-3	152.361E-12	649.184E-3	11.2405E-3	154.628E-12	645.605E-3	-1.66354E-3
3.94947E-3	152.260E-12	646.785E-3	-7.97151E-3	154.038E-12	674.848E-3	9.85565E-3
3.94447E-3	153.054E-12	647.507E-3	-25.5732E-3	153.112E-12	685.010E-3	-5.76983E-3
3.93947E-3	153.045E-12	652.356E-3	-19.1563E-3	152.605E-12	692.066E-3	-22.4426E-3
3.93447E-3	153.091E-12	661.269E-3	-16.0475E-3	152.335E-12	697.819E-3	-20.4363E-3
3.92946E-3	153.270E-12	660.255E-3	-27.4128E-3	152.505E-12	686.088E-3	-290.101E-6
3.92446E-3	153.546E-12	654.077E-3	-30.7592E-3	152.289E-12	665.618E-3	31.1440E-3
3.91946E-3	153.701E-12	646.730E-3	-10.3257E-3	152.111E-12	659.979E-3	35.9262E-3
3.91446E-3	153.382E-12	639.789E-3	-1.57030E-3	152.707E-12	659.346E-3	13.1529E-3
3.90945E-3	153.732E-12	665.530E-3	-8.88253E-3	152.758E-12	649.669E-3	-5.13625E-3
3.90445E-3	154.173E-12	707.637E-3	-9.19462E-3	153.068E-12	654.181E-3	-25.0569E-3
3.89945E-3	153.975E-12	723.150E-3	-27.3035E-3	153.146E-12	659.987E-3	-33.1676E-3
3.89445E-3	153.639E-12	700.320E-3	-54.6379E-3	152.911E-12	651.225E-3	-11.7534E-3
3.88944E-3	153.508E-12	674.220E-3	-53.2725E-3	152.571E-12	644.564E-3	-704.931E-6
3.88444E-3	153.506E-12	672.019E-3	-27.8942E-3	152.724E-12	655.402E-3	-21.8166E-3
3.87944E-3	153.229E-12	674.951E-3	-16.1647E-3	152.047E-12	659.661E-3	-28.0800E-3
3.87444E-3	152.652E-12	687.880E-3	-31.3521E-3	151.206E-12	654.004E-3	-3.04357E-3
3.86943E-3	152.035E-12	682.628E-3	-47.2755E-3	149.977E-12	651.838E-3	-4.70825E-3
3.86443E-3	151.829E-12	665.259E-3	-33.2842E-3	149.853E-12	628.042E-3	-40.0129E-3
3.85943E-3	151.430E-12	666.565E-3	-5.67166E-3	149.324E-12	630.397E-3	-65.8354E-3
3.85443E-3	151.338E-12	670.805E-3	6.43204E-3	149.050E-12	667.710E-3	-69.5736E-3
3.84942E-3	151.216E-12	677.070E-3	356.280E-6	148.445E-12	669.301E-3	-36.3875E-3
3.84442E-3	151.166E-12	668.935E-3	-839.547E-6	148.055E-12	651.328E-3	2.78797E-3
3.83942E-3	150.541E-12	653.670E-3	20.4235E-3	148.214E-12	638.075E-3	-2.48513E-3
3.83442E-3	150.312E-12	664.244E-3	22.9748E-3	148.311E-12	622.758E-3	-31.7523E-3
3.82941E-3	150.450E-12	690.256E-3	-7.02407E-3	148.088E-12	626.889E-3	-26.9464E-3
3.82441E-3	149.851E-12	699.929E-3	-35.8921E-3	148.009E-12	641.066E-3	-5.00520E-3
3.81941E-3	149.301E-12	679.380E-3	-46.5121E-3	148.287E-12	653.201E-3	-14.5588E-3
3.81441E-3	149.620E-12	651.290E-3	-27.9148E-3	148.475E-12	669.021E-3	-19.7950E-3
3.80940E-3	149.869E-12	647.954E-3	1.73400E-3	148.328E-12	682.233E-3	-12.1196E-3
3.80440E-3	149.462E-12	665.585E-3	3.88199E-3	147.870E-12	686.946E-3	-12.0571E-3
3.79940E-3	148.886E-12	680.051E-3	-8.29524E-3	148.296E-12	687.582E-3	-3.34865E-3
3.79440E-3	148.844E-12	664.126E-3	-18.1518E-3	148.162E-12	683.763E-3	10.8406E-3
3.78939E-3	149.065E-12	648.238E-3	-29.1081E-3	148.245E-12	660.428E-3	6.32122E-3
3.78439E-3	148.562E-12	685.319E-3	-27.8402E-3	147.679E-12	636.265E-3	634.861E-6
3.77939E-3	147.994E-12	720.681E-3	-9.40478E-3	147.292E-12	652.833E-3	6.53698E-3
3.77439E-3	147.900E-12	696.245E-3	-7.24282E-3	147.165E-12	689.906E-3	-1.59590E-3
3.76938E-3	147.203E-12	668.629E-3	-25.2066E-3	147.024E-12	688.696E-3	-10.0989E-3
3.76438E-3	146.355E-12	672.836E-3	-15.4045E-3	146.458E-12	671.905E-3	-5.11250E-3
3.75938E-3	145.856E-12	669.265E-3	-47.6335E-6	145.487E-12	662.395E-3	-11.6619E-3
3.75438E-3	145.118E-12	660.878E-3	-8.74577E-3	145.966E-12	646.487E-3	-30.4358E-3
3.74937E-3	144.577E-12	659.979E-3	-18.8409E-3	145.986E-12	650.173E-3	-25.7511E-3
3.74437E-3	144.363E-12	647.174E-3	-23.5042E-3	146.129E-12	661.679E-3	11.7935E-3
3.73937E-3	144.103E-12	647.045E-3	-23.0855E-3	144.978E-12	656.433E-3	44.0585E-3
3.73437E-3	143.724E-12	659.896E-3	-6.94754E-3	144.591E-12	642.241E-3	40.7481E-3
3.72936E-3	142.971E-12	661.154E-3	-1.99987E-3	144.620E-12	639.435E-3	16.9587E-3
3.72436E-3	142.988E-12	654.085E-3	-24.6549E-3	144.014E-12	654.449E-3	1.67361E-3
3.71936E-3	142.920E-12	641.194E-3	-22.2707E-3	143.296E-12	652.406E-3	-6.02495E-3
3.71436E-3	143.049E-12	626.450E-3	9.82366E-3	143.095E-12	651.645E-3	-10.0861E-3
3.70935E-3	142.517E-12	630.605E-3	20.8638E-3	143.173E-12	680.757E-3	-1.33981E-3
3.70435E-3	142.802E-12	659.185E-3	6.87185E-3	143.515E-12	683.095E-3	2.48496E-3
3.69935E-3	143.340E-12	674.528E-3	-13.2231E-3	143.237E-12	662.468E-3	106.777E-6
3.69435E-3	142.992E-12	666.103E-3	-30.8890E-3	143.274E-12	658.737E-3	2.05411E-3
3.68934E-3	142.526E-12	656.748E-3	-32.2181E-3	143.999E-12	644.015E-3	-114.947E-6
3.68434E-3	142.311E-12	655.437E-3	-10.6239E-3	144.083E-12	618.486E-3	-4.54423E-3
3.67934E-3	142.932E-12	668.870E-3	13.0838E-3	143.290E-12	629.251E-3	-12.0618E-3
3.67434E-3	142.392E-12	696.528E-3	5.37024E-3	143.130E-12	671.711E-3	-24.5991E-3
3.66933E-3	142.222E-12	687.962E-3	-30.9847E-3	143.869E-12	698.091E-3	-21.6532E-3
3.66433E-3	141.792E-12	663.462E-3	-48.8648E-3	144.201E-12	696.077E-3	3.37474E-3
3.65933E-3	141.134E-12	681.291E-3	-31.2363E-3	143.611E-12	681.513E-3	9.78618E-3
3.65433E-3	140.098E-12	684.214E-3	-11.6259E-3	143.114E-12	677.993E-3	-10.5461E-3
3.64932E-3	139.985E-12	656.479E-3	-15.2722E-3	142.601E-12	680.184E-3	-18.5067E-3
3.64432E-3	140.088E-12	649.488E-3	-23.9684E-3	142.130E-12	663.344E-3	-3.14714E-3
3.63932E-3	139.119E-12	655.280E-3	-18.6251E-3	141.432E-12	646.742E-3	13.1216E-3
3.63432E-3	139.031E-12	654.416E-3	-20.9523E-3	140.195E-12	644.237E-3	10.6220E-3
3.62931E-3	139.029E-12	652.510E-3	-32.8042E-3	139.737E-12	645.978E-3	-12.4944E-3
3.62431E-3	139.466E-12	653.701E-3	-33.4361E-3	139.684E-12	650.292E-3	-35.1857E-3
3.61931E-3	139.560E-12	646.305E-3	-32.6689E-3	139.024E-12	647.780E-3	-31.5977E-3
3.61431E-3	139.697E-12	630.934E-3	-40.7147E-3	138.714E-12	642.060E-3	-8.83024E-3
3.60930E-3	139.911E-12	628.489E-3	-39.4620E-3	138.265E-12	632.650E-3	-2.64988E-3
3.60430E-3	140.212E-12	639.426E-3	-19.1913E-3	138.743E-12	632.331E-3	-22.0392E-3
3.59930E-3	140.480E-12	666.800E-3	-5.74604E-3	139.116E-12	649.513E-3	-29.7220E-3
3.59430E-3	140.927E-12	686.903E-3	-8.79694E-3	138.339E-12	677.264E-3	-25.5038E-3
3.58929E-3	140.814E-12	673.611E-3	-6.02716E-3	138.731E-12	695.208E-3	-29.5030E-3
3.58429E-3	140.242E-12	658.933E-3	14.6191E-3	139.156E-12	671.655E-3	-35.1507E-3
3.57929E-3	140.023E-12	661.528E-3	34.9313E-3	139.601E-12	646.813E-3	-26.9673E-3
3.57429E-3	139.551E-12	653.407E-3	6.13517E-3	139.081E-12	646.231E-3	-15.4239E-3
3.56928E-3	138.885E-12	635.727E-3	-45.5531E-3	138.746E-12	641.906E-3	-9.36984E-3
3.56428E-3	138.066E-12	645.156E-3	-29.9973E-3	138.588E-12	626.926E-3	286.377E-6
3.55928E-3	137.496E-12	664.665E-3	24.1364E-3	138.203E-12	616.015E-3	-10.7631E-3
3.55428E-3	137.257E-12	682.803E-3	29.0544E-3	137.546E-12	635.834E-3	-33.0441E-3
3.54927E-3	136.655E-12	686.141E-3	1.55058E-3	136.525E-12	672.912E-3	-43.5273E-3
3.54427E-3	136.380E-12	656.681E-3	-13.4943E-3	135.759E-12	684.152E-3	-53.3335E-3
3.53927E-3	136.105E-12	632.681E-3	-14.5063E-3	135.467E-12	674.703E-3	-45.7145E-3
3.53427E-3	135.565E-12	637.076E-3	-2.63021E-3	134.960E-12	671.898E-3	-10.5365E-3
3.52926E-3	135.491E-12	649.879E-3	7.01966E-3	134.212E-12	670.264E-3	7.27592E-3
3.52426E-3	135.402E-12	661.181E-3	4.90267E-3	133.474E-12	653.365E-3	3.52490E-3
3.51926E-3	135.232E-12	665.441E-3	-6.51549E-3	133.313E-12	650.248E-3	7.12214E-3
3.51426E-3	134.981E-12	655.288E-3	-8.89844E-3	132.686E-12	658.289E-3	1.76523E-3
3.50925E-3	135.187E-12	644.360E-3	1.73713E-3	131.827E-12	649.010E-3	-18.5353E-3
3.50425E-3	134.997E-12	649.698E-3	-5.87852E-3	132.007E-12	650.071E-3	-19.4699E-3
3.49925E-3	135.325E-12	663.584E-3	-29.9808E-3	132.840E-12	659.854E-3	-4.28680E-3
3.49425E-3	134.740E-12	667.749E-3	-33.4140E-3	133.043E-12	654.778E-3	-12.2851E-3
3.48924E-3	135.020E-12	664.526E-3	-7.63593E-3	133.121E-12	657.854E-3	-31.4422E-3
3.48424E-3	134.715E-12	672.464E-3	3.86644E-3	133.432E-12	672.853E-3	-39.2253E-3
3.47924E-3	134.553E-12	687.988E-3	-2.65424E-3	133.956E-12	668.677E-3	-34.3443E-3
3.47424E-3	133.663E-12	698.542E-3	-10.7359E-3	134.639E-12	673.092E-3	-6.76524E-3
3.46923E-3	133.284E-12	695.402E-3	-18.2324E-3	134.105E-12	692.398E-3	21.7138E-3
3.46423E-3	133.278E-12	669.694E-3	-13.8699E-3	133.668E-12	683.773E-3	14.1915E-3
3.45923E-3	132.807E-12	660.127E-3	3.09352E-3	133.417E-12	672.714E-3	-4.35359E-3
3.45423E-3	132.226E-12	670.539E-3	11.1047E-3	133.450E-12	681.013E-3	-7.62699E-3
3.44922E-3	132.114E-12	666.953E-3	-11.8095E-3	132.802E-12	685.950E-3	-11.1353E-3
3.44422E-3	131.801E-12	672.364E-3	-25.4833E-3	132.472E-12	675.055E-3	-24.3113E-3
3.43922E-3	131.399E-12	673.568E-3	-843.593E-6	131.908E-12	663.996E-3	-38.3624E-3
3.43422E-3	131.225E-12	657.160E-3	10.9387E-3	131.167E-12	670.816E-3	-46.3068E-3
3.42921E-3	130.571E-12	655.139E-3	-6.65058E-3	130.763E-12	681.462E-3	-42.2780E-3
3.42421E-3	130.099E-12	665.990E-3	-19.5434E-3	130.632E-12	673.330E-3	-29.1858E-3
3.41921E-3	129.410E-12	658.342E-3	-26.6388E-3	130.314E-12	656.759E-3	-22.2927E-3
3.41421E-3	129.161E-12	634.181E-3	-25.7144E-3	130.183E-12	664.355E-3	-18.8145E-3
3.40920E-3	129.255E-12	633.376E-3	-5.76656E-3	130.256E-12	676.068E-3	-17.3175E-3
3.40420E-3	128.776E-12	647.444E-3	6.58231E-3	130.698E-12	673.213E-3	-23.7742E-3
3.39920E-3	128.252E-12	650.545E-3	-14.0320E-3	130.494E-12	671.446E-3	-27.4064E-3
3.39420E-3	128.771E-12	649.828E-3	-34.3922E-3	130.307E-12	666.328E-3	-11.9121E-3
3.38919E-3	129.091E-12	654.061E-3	-32.8748E-3	130.423E-12	659.733E-3	3.29293E-3
3.38419E-3	128.915E-12	658.405E-3	-33.5055E-3	130.947E-12	657.043E-3	-4.38197E-3
3.37919E-3	128.335E-12	673.577E-3	-28.0967E-3	130.691E-12	665.865E-3	-13.1789E-3
3.37419E-3	128.796E-12	686.725E-3	-17.7225E-3	130.635E-12	678.843E-3	-5.38565E-3
3.36918E-3	128.856E-12	671.022E-3	-27.8102E-3	129.851E-12	667.449E-3	9.30868E-3
3.36418E-3	128.813E-12	646.189E-3	-44.4083E-3	129.637E-12	653.243E-3	4.09653E-3
3.35918E-3	128.482E-12	635.824E-3	-38.7292E-3	129.156E-12	664.615E-3	-13.4842E-3
3.35418E-3	128.444E-12	642.477E-3	-17.4980E-3	128.901E-12	668.626E-3	-3.72219E-3
3.34917E-3	128.517E-12	666.238E-3	-13.1319E-3	127.879E-12	662.902E-3	13.0628E-3
3.34417E-3	127.716E-12	676.726E-3	-26.1158E-3	127.012E-12	677.500E-3	7.76229E-3
3.33917E-3	127.459E-12	665.057E-3	-29.8913E-3	126.996E-12	688.549E-3	-741.411E-6
3.33417E-3	127.109E-12	668.262E-3	-24.3423E-3	127.043E-12	691.932E-3	5.09068E-3
3.32916E-3	126.306E-12	682.440E-3	-17.1005E-3	126.744E-12	696.787E-3	11.8637E-3
3.32416E-3	125.683E-12	681.377E-3	-8.67019E-3	126.012E-12	692.265E-3	10.0771E-3
3.31916E-3	125.121E-12	676.299E-3	-12.2247E-3	125.727E-12	684.904E-3	4.71977E-3
3.31416E-3	125.032E-12	680.663E-3	-19.1221E-3	126.088E-12	680.329E-3	-4.06517E-3
3.30915E-3	124.966E-12	681.653E-3	-17.5094E-3	125.651E-12	682.423E-3	-6.93624E-3
3.30415E-3	125.336E-12	683.589E-3	-19.8893E-3	124.934E-12	687.586E-3	-7.30140E-3
3.29915E-3	124.873E-12	686.593E-3	-17.9542E-3	124.638E-12	678.707E-3	-11.1694E-3
3.29415E-3	124.978E-12	686.757E-3	-18.2957E-3	124.836E-12	661.268E-3	-6.32463E-3
3.28914E-3	125.000E-12	685.180E-3	-34.5855E-3	124.775E-12	646.419E-3	-6.24050E-3
3.28414E-3	125.656E-12	664.109E-3	-44.3073E-3	124.295E-12	633.496E-3	-5.66363E-3
3.27914E-3	125.590E-12	645.782E-3	-34.6907E-3	123.829E-12	640.942E-3	11.5829E-3
3.27414E-3	125.308E-12	668.487E-3	-24.7917E-3	123.797E-12	660.227E-3	10.9225E-3
3.26913E-3	125.033E-12	688.295E-3	-20.9556E-3	124.386E-12	670.565E-3	-1.49601E-3
3.26413E-3	125.925E-12	655.827E-3	-13.4378E-3	124.119E-12	673.938E-3	-3.03616E-3
3.25913E-3	125.769E-12	629.182E-3	-11.7502E-3	123.892E-12	667.237E-3	562.491E-6
3.25413E-3	124.961E-12	653.978E-3	-23.0702E-3	123.346E-12	666.034E-3	541.792E-6
3.24912E-3	124.745E-12	678.118E-3	-38.2664E-3	123.426E-12	677.311E-3	2.88891E-3
3.24412E-3	124.821E-12	673.528E-3	-54.7049E-3	123.314E-12	684.235E-3	1.00640E-3
3.23912E-3	124.468E-12	662.691E-3	-55.1708E-3	123.392E-12	688.024E-3	-20.0547E-3
3.23412E-3	123.410E-12	651.232E-3	-30.4938E-3	122.163E-12	681.816E-3	-33.3702E-3
3.22911E-3	122.777E-12	653.928E-3	-13.3952E-3	121.592E-12	656.031E-3	-26.7108E-3
3.22411E-3	122.211E-12	675.562E-3	-22.7780E-3	121.579E-12	639.970E-3	-18.1592E-3
3.21911E-3	121.710E-12	685.484E-3	-25.5907E-3	121.551E-12	637.813E-3	-13.2673E-3
3.21411E-3	121.044E-12	689.748E-3	-16.8120E-3	120.513E-12	631.222E-3	7.15901E-3
3.20910E-3	120.589E-12	704.693E-3	-10.7446E-3	119.605E-12	640.452E-3	20.6359E-3
3.20410E-3	120.120E-12	708.040E-3	9.93550E-3	119.268E-12	663.534E-3	5.02927E-3
3.19910E-3	120.041E-12	686.493E-3	25.7628E-3	119.242E-12	669.292E-3	11.7125E-3
3.19410E-3	120.235E-12	664.646E-3	4.75491E-3	118.978E-12	668.516E-3	21.1213E-3
3.18909E-3	120.221E-12	657.339E-3	-17.6710E-3	118.504E-12	672.967E-3	-7.50473E-3
3.18409E-3	119.939E-12	656.861E-3	-10.6959E-3	118.508E-12	674.351E-3	-36.7431E-3
3.17909E-3	120.352E-12	670.010E-3	1.62980E-3	118.920E-12	677.823E-3	-35.6708E-3
3.17409E-3	120.059E-12	685.072E-3	8.63198E-3	119.101E-12	689.420E-3	-19.2340E-3
3.16908E-3	120.039E-12	680.020E-3	1.68928E-3	119.776E-12	699.568E-3	-24.1278E-3
3.16408E-3	119.772E-12	681.118E-3	-20.7980E-3	120.137E-12	700.103E-3	-37.7822E-3
3.15908E-3	119.676E-12	671.207E-3	-23.5773E-3	120.582E-12	705.028E-3	-30.1109E-3
3.15408E-3	119.566E-12	641.104E-3	-18.4369E-3	120.597E-12	704.408E-3	-16.3254E-3
3.14907E-3	118.891E-12	661.339E-3	-26.9567E-3	121.097E-12	699.898E-3	-7.71956E-3
3.14407E-3	118.380E-12	708.722E-3	-23.8671E-3	120.994E-12	701.496E-3	6.41623E-3
3.13907E-3	118.154E-12	702.465E-3	-16.2542E-3	120.676E-12	694.764E-3	14.2699E-3
3.13407E-3	117.420E-12	676.857E-3	-12.5781E-3	119.985E-12	691.476E-3	-14.8266E-3
3.12906E-3	116.536E-12	681.274E-3	-12.5974E-3	119.521E-12	696.152E-3	-46.6356E-3
3.12406E-3	115.641E-12	690.918E-3	-19.4871E-3	118.746E-12	692.070E-3	-38.2571E-3
3.11906E-3	115.775E-12	690.089E-3	-27.8128E-3	117.775E-12	683.207E-3	-14.3077E-3
3.11406E-3	115.124E-12	683.456E-3	-30.7723E-3	117.003E-12	679.575E-3	839.730E-6
3.10905E-3	114.315E-12	671.997E-3	-23.7110E-3	115.937E-12	682.402E-3	-7.95014E-3
3.10405E-3	113.787E-12	665.788E-3	-19.2896E-3	115.835E-12	693.839E-3	-31.6757E-3
3.09905E-3	113.802E-12	674.658E-3	-11.3263E-3	115.328E-12	697.981E-3	-37.9577E-3
3.09405E-3	114.044E-12	670.984E-3	-6.21723E-3	114.871E-12	683.893E-3	-31.8730E-3
3.08904E-3	114.002E-12	645.509E-3	-23.7960E-3	114.440E-12	673.998E-3	-24.3179E-3
3.08404E-3	114.353E-12	652.230E-3	-38.3995E-3	114.965E-12	680.108E-3	-20.9387E-3
3.07904E-3	114.493E-12	678.300E-3	-30.7062E-3	115.145E-12	687.800E-3	-18.1334E-3
3.07404E-3	115.201E-12	689.412E-3	-21.8343E-3	115.695E-12	681.632E-3	-699.114E-6
3.06903E-3	115.051E-12	688.602E-3	-29.4441E-3	115.661E-12	664.440E-3	-43.7722E-6
3.06403E-3	115.160E-12	668.159E-3	-42.1175E-3	116.322E-12	657.230E-3	-27.2911E-3
3.05903E-3	114.633E-12	645.909E-3	-52.2780E-3	117.262E-12	674.282E-3	-35.4787E-3
3.05403E-3	114.838E-12	644.510E-3	-48.0930E-3	117.348E-12	710.713E-3	-18.6520E-3
3.04902E-3	114.636E-12	670.604E-3	-27.6836E-3	117.526E-12	728.613E-3	-18.9994E-3
3.04402E-3	114.699E-12	696.487E-3	-13.9425E-3	117.240E-12	708.721E-3	-33.9726E-3
3.03902E-3	113.867E-12	692.147E-3	-10.4913E-3	116.723E-12	689.424E-3	-25.7636E-3
3.03402E-3	113.585E-12	679.728E-3	9.44714E-3	116.038E-12	684.675E-3	-10.8373E-3
3.02901E-3	113.468E-12	678.686E-3	38.7852E-3	115.527E-12	684.261E-3	-8.37523E-3
3.02401E-3	113.294E-12	681.657E-3	37.3490E-3	114.679E-12	680.192E-3	-13.0395E-3
3.01901E-3	112.508E-12	679.128E-3	13.1202E-3	114.081E-12	661.621E-3	-25.0111E-3
3.01401E-3	111.564E-12	667.468E-3	-18.0715E-3	113.234E-12	652.819E-3	-21.1817E-3
3.00900E-3	111.277E-12	668.792E-3	-34.1076E-3	112.660E-12	668.143E-3	-9.38957E-3
3.00400E-3	111.434E-12	673.174E-3	-21.2253E-3	112.357E-12	665.632E-3	-7.66005E-3
2.99900E-3	110.704E-12	658.690E-3	-1.84297E-3	111.336E-12	655.149E-3	3.44350E-3
2.99400E-3	109.972E-12	659.216E-3	-14.4927E-3	110.994E-12	664.200E-3	10.6012E-3
2.98899E-3	109.728E-12	668.572E-3	-47.5912E-3	110.830E-12	672.040E-3	-2.34177E-3
2.98399E-3	109.913E-12	660.023E-3	-53.6894E-3	110.918E-12	685.150E-3	-11.5605E-3
2.97899E-3	110.480E-12	664.267E-3	-30.9742E-3	110.578E-12	698.627E-3	-15.7152E-3
2.97399E-3	110.506E-12	687.806E-3	-1.39256E-3	110.414E-12	709.583E-3	-21.3856E-3
2.96898E-3	110.424E-12	692.685E-3	1.87775E-3	110.887E-12	716.286E-3	-21.1256E-3
2.96398E-3	110.648E-12	691.518E-3	-18.1273E-3	110.870E-12	705.806E-3	-20.8338E-3
2.95898E-3	110.946E-12	691.094E-3	-20.1221E-3	110.739E-12	696.938E-3	-38.6808E-3
2.95398E-3	111.422E-12	678.813E-3	-2.36949E-3	110.821E-12	691.697E-3	-49.7845E-3
2.94897E-3	110.963E-12	686.452E-3	7.61379E-3	111.042E-12	687.514E-3	-26.3962E-3
2.94397E-3	110.354E-12	714.013E-3	4.28256E-3	110.871E-12	689.473E-3	258.702E-6
2.93897E-3	110.248E-12	703.037E-3	-8.36187E-3	110.078E-12	693.585E-3	4.17786E-3
2.93397E-3	110.617E-12	673.113E-3	-28.2386E-3	109.866E-12	695.482E-3	-16.5976E-3
2.92896E-3	110.115E-12	674.517E-3	-34.1109E-3	109.671E-12	690.291E-3	-44.0064E-3
2.92396E-3	109.279E-12	676.184E-3	-17.3783E-3	108.688E-12	681.711E-3	-50.3289E-3
2.91896E-3	108.951E-12	681.781E-3	-6.07872E-3	107.919E-12	674.111E-3	-35.7052E-3
2.91396E-3	108.450E-12	695.551E-3	-5.10767E-3	107.368E-12	663.807E-3	-25.0173E-3
2.90895E-3	107.895E-12	689.543E-3	-11.2011E-3	107.417E-12	660.702E-3	-24.2457E-3
2.90395E-3	106.753E-12	683.566E-3	-20.5329E-3	107.201E-12	672.386E-3	-6.93693E-3
2.89895E-3	106.793E-12	694.092E-3	-12.7415E-3	106.610E-12	684.674E-3	16.9434E-3
2.89395E-3	106.720E-12	696.975E-3	-1.06378E-3	106.357E-12	689.050E-3	9.85878E-3
2.88894E-3	106.339E-12	696.809E-3	-3.35537E-3	105.878E-12	681.576E-3	-5.07162E-3
2.88394E-3	105.614E-12	693.587E-3	-8.88302E-3	105.292E-12	669.625E-3	-6.90890E-3
2.87894E-3	105.954E-12	682.830E-3	-14.8705E-3	104.885E-12	661.343E-3	-26.2852E-3
2.87394E-3	105.797E-12	689.790E-3	-27.8396E-3	104.509E-12	665.990E-3	-32.4815E-3
2.86893E-3	105.898E-12	705.232E-3	-43.8847E-3	104.298E-12	682.640E-3	-5.64607E-3
2.86393E-3	105.554E-12	700.577E-3	-34.1534E-3	103.848E-12	689.298E-3	1.73301E-3
2.85893E-3	105.217E-12	672.172E-3	-6.71546E-3	103.513E-12	683.523E-3	-6.37330E-3
2.85393E-3	105.115E-12	646.754E-3	3.37534E-3	103.734E-12	685.525E-3	-11.5487E-3
2.84892E-3	104.828E-12	663.130E-3	-2.09098E-3	103.672E-12	691.769E-3	-21.6627E-3
2.84392E-3	104.777E-12	696.409E-3	-19.1106E-3	103.672E-12	690.731E-3	-28.6549E-3
2.83892E-3	104.476E-12	702.490E-3	-28.0610E-3	103.576E-12	684.964E-3	-22.1332E-3
2.83392E-3	104.186E-12	691.831E-3	-15.1277E-3	103.922E-12	680.095E-3	-8.75010E-3
2.82891E-3	104.630E-12	674.948E-3	-17.2629E-3	103.622E-12	688.422E-3	-9.24672E-3
2.82391E-3	104.396E-12	676.411E-3	-32.5058E-3	103.941E-12	707.812E-3	-17.1890E-3
2.81891E-3	104.400E-12	701.973E-3	-22.8810E-3	104.301E-12	716.465E-3	-14.3281E-3
2.81391E-3	103.648E-12	705.139E-3	-13.2283E-3	104.331E-12	705.139E-3	-7.26193E-3
2.80890E-3	102.975E-12	686.228E-3	-21.9291E-3	103.873E-12	697.431E-3	5.28461E-3
2.80390E-3	102.363E-12	675.621E-3	-9.80271E-3	103.897E-12	704.793E-3	10.1248E-3
2.79890E-3	102.264E-12	679.854E-3	23.9506E-3	104.079E-12	705.887E-3	-1.33952E-3
2.79390E-3	101.367E-12	698.756E-3	34.3081E-3	103.778E-12	692.664E-3	-4.44861E-3
2.78889E-3	100.994E-12	710.492E-3	4.62779E-3	103.117E-12	678.960E-3	-4.15944E-3
2.78389E-3	100.964E-12	687.714E-3	-22.0998E-3	102.609E-12	676.900E-3	-5.66631E-3
2.77889E-3	100.801E-12	652.049E-3	-22.0874E-3	102.160E-12	678.736E-3	-10.8768E-3
2.77389E-3	100.359E-12	643.266E-3	-23.1450E-3	101.699E-12	679.509E-3	-21.2163E-3
2.76888E-3	100.208E-12	661.942E-3	-26.8521E-3	101.530E-12	682.478E-3	-10.3424E-3
2.76388E-3	100.196E-12	671.118E-3	-24.5798E-3	100.643E-12	680.071E-3	2.33296E-3
2.75888E-3	100.251E-12	675.058E-3	-22.4139E-3	100.504E-12	685.584E-3	-5.46600E-3
2.75388E-3	100.659E-12	683.239E-3	-22.0906E-3	100.708E-12	706.059E-3	-13.7270E-3
2.74887E-3	100.328E-12	683.537E-3	-21.0360E-3	100.690E-12	725.699E-3	-13.8330E-3
2.74387E-3	100.084E-12	695.655E-3	-27.8334E-3	100.664E-12	727.207E-3	-17.1016E-3
2.73887E-3	99.9270E-12	703.895E-3	-38.3347E-3	100.987E-12	709.701E-3	-26.9369E-3
2.73387E-3	100.120E-12	687.003E-3	-33.0717E-3	101.045E-12	695.567E-3	-31.4172E-3
2.72886E-3	99.7475E-12	680.297E-3	-16.7449E-3	101.500E-12	695.094E-3	-25.3624E-3
2.72386E-3	99.1194E-12	696.639E-3	-1.51581E-3	101.749E-12	706.687E-3	-7.08048E-3
2.71886E-3	98.9895E-12	698.763E-3	8.21010E-3	101.449E-12	721.004E-3	2.16833E-3
2.71386E-3	99.1391E-12	692.729E-3	3.78564E-3	101.504E-12	726.389E-3	-13.5272E-3
2.70885E-3	98.8347E-12	702.275E-3	-6.57018E-3	101.245E-12	709.191E-3	-21.3176E-3
2.70385E-3	97.7306E-12	716.299E-3	-8.00455E-3	100.835E-12	700.364E-3	-10.6910E-3
2.69885E-3	97.2793E-12	718.349E-3	824.934E-6	100.156E-12	714.017E-3	-9.93689E-3
2.69385E-3	97.0739E-12	707.960E-3	2.45502E-3	99.5539E-12	716.213E-3	-14.9982E-3
2.68884E-3	97.0174E-12	702.414E-3	-28.8590E-3	98.7339E-12	708.099E-3	-17.5629E-3
2.68384E-3	96.6221E-12	713.632E-3	-57.8152E-3	98.1301E-12	695.045E-3	-30.3753E-3
2.67884E-3	96.8726E-12	711.172E-3	-45.7148E-3	97.6598E-12	681.109E-3	-31.1782E-3
2.67384E-3	97.0952E-12	686.405E-3	-19.7029E-3	96.9926E-12	676.903E-3	-25.7814E-3
2.66883E-3	97.1364E-12	691.843E-3	-10.0223E-3	96.2044E-12	681.445E-3	-39.1480E-3
2.66383E-3	96.9829E-12	715.743E-3	-21.9671E-3	95.8421E-12	686.672E-3	-37.8120E-3
2.65883E-3	96.4426E-12	704.574E-3	-33.7118E-3	95.4853E-12	688.724E-3	-12.8039E-3
2.65383E-3	96.4269E-12	683.126E-3	-28.0674E-3	95.3233E-12	702.383E-3	7.67934E-3
2.64882E-3	96.5314E-12	687.963E-3	-23.7432E-3	95.1840E-12	721.988E-3	13.2899E-3
2.64382E-3	96.6699E-12	702.602E-3	-31.9719E-3	95.3026E-12	718.835E-3	-3.20707E-3
2.63882E-3	96.1260E-12	708.588E-3	-27.5353E-3	95.4614E-12	704.391E-3	-33.9616E-3
2.63382E-3	96.2190E-12	703.303E-3	-16.1694E-3	95.6081E-12	698.376E-3	-38.9754E-3
2.62881E-3	95.9945E-12	692.433E-3	-6.97055E-3	95.4430E-12	699.780E-3	-18.6113E-3
2.62381E-3	95.9127E-12	691.344E-3	-1.18998E-3	95.3172E-12	701.996E-3	-8.92140E-3
2.61881E-3	95.2770E-12	708.787E-3	-10.9560E-3	95.2617E-12	703.065E-3	-7.58585E-3
2.61381E-3	94.6302E-12	717.074E-3	-18.4229E-3	94.9628E-12	710.380E-3	-9.51301E-3
2.60880E-3	93.8905E-12	694.343E-3	-22.1357E-3	94.3375E-12	713.988E-3	-17.8570E-3
2.60380E-3	93.6771E-12	681.722E-3	-25.2424E-3	94.1253E-12	705.516E-3	-27.1246E-3
2.59880E-3	93.3276E-12	697.076E-3	-19.1040E-3	93.4971E-12	704.704E-3	-38.2074E-3
2.59380E-3	92.9946E-12	718.800E-3	-17.9174E-3	92.7409E-12	715.171E-3	-33.3299E-3
2.58879E-3	92.6673E-12	729.885E-3	-26.8723E-3	92.3193E-12	714.200E-3	-3.20447E-3
2.58379E-3	92.5958E-12	721.533E-3	-20.0226E-3	92.0381E-12	711.272E-3	14.8240E-3
2.57879E-3	92.4243E-12	711.636E-3	3.90239E-3	91.4749E-12	706.826E-3	-1.76155E-3
2.57379E-3	92.1614E-12	706.814E-3	22.0492E-3	90.9126E-12	698.322E-3	-19.5755E-3
2.56878E-3	91.5539E-12	706.966E-3	26.6461E-3	90.9914E-12	703.735E-3	-24.3888E-3
2.56378E-3	91.1686E-12	710.556E-3	15.0005E-3	90.7876E-12	713.234E-3	-25.9278E-3
2.55878E-3	91.0690E-12	712.289E-3	-3.73676E-3	90.6592E-12	714.432E-3	-25.6630E-3
2.55378E-3	91.2790E-12	711.037E-3	-11.6481E-3	90.0442E-12	711.937E-3	-30.0467E-3
2.54877E-3	90.9874E-12	703.700E-3	-11.2225E-3	90.1860E-12	714.589E-3	-36.2762E-3
2.54377E-3	90.8970E-12	703.785E-3	-9.48969E-3	90.0380E-12	718.323E-3	-29.6912E-3
2.53877E-3	90.6164E-12	709.281E-3	-15.1095E-3	90.5231E-12	714.573E-3	-20.9498E-3
2.53377E-3	90.5540E-12	700.345E-3	-23.5144E-3	90.5435E-12	709.601E-3	-25.9905E-3
2.52876E-3	90.5365E-12	688.824E-3	-14.1158E-3	90.4583E-12	706.952E-3	-32.6077E-3
2.52376E-3	89.8953E-12	700.505E-3	3.32048E-3	90.2278E-12	691.800E-3	-25.6728E-3
2.51876E-3	89.1295E-12	725.341E-3	-4.38342E-3	90.1089E-12	679.419E-3	-21.4190E-3
2.51376E-3	88.9404E-12	738.993E-3	-35.8896E-3	89.8028E-12	698.164E-3	-34.0338E-3
2.50875E-3	88.7667E-12	729.266E-3	-37.0487E-3	89.4786E-12	711.047E-3	-46.6885E-3
2.50375E-3	88.6087E-12	707.518E-3	-4.72029E-3	88.5359E-12	705.414E-3	-47.4647E-3
2.49875E-3	87.7761E-12	698.633E-3	10.5480E-3	87.7493E-12	707.856E-3	-22.1044E-3
2.49375E-3	87.6511E-12	711.533E-3	3.85239E-3	87.6978E-12	707.238E-3	9.04019E-3
2.48874E-3	87.5149E-12	734.295E-3	3.20306E-3	87.8361E-12	705.151E-3	11.6692E-3
2.48374E-3	87.3413E-12	730.611E-3	4.24573E-3	87.4967E-12	707.386E-3	3.36818E-3
2.47874E-3	87.0021E-12	703.834E-3	-8.13421E-3	87.1341E-12	703.730E-3	-7.50705E-3
2.47374E-3	86.6366E-12	699.695E-3	-12.5981E-3	86.5767E-12	702.475E-3	-18.0245E-3
2.46873E-3	86.4045E-12	714.314E-3	-7.75690E-3	87.0494E-12	703.373E-3	-29.6103E-3
2.46373E-3	86.5741E-12	725.376E-3	-11.2158E-3	86.8452E-12	706.451E-3	-40.1219E-3
2.45873E-3	86.6964E-12	729.905E-3	-27.7478E-3	86.3204E-12	725.240E-3	-24.6024E-3
2.45373E-3	86.2226E-12	726.885E-3	-40.5866E-3	86.0694E-12	744.177E-3	-7.59010E-3
2.44872E-3	86.2531E-12	727.024E-3	-25.8822E-3	86.3467E-12	742.697E-3	-15.7124E-3
2.44372E-3	86.2428E-12	731.011E-3	-11.5578E-3	86.4163E-12	739.615E-3	-9.96422E-3
2.43872E-3	86.3628E-12	737.932E-3	-10.9316E-3	86.2649E-12	749.443E-3	17.6071E-3
2.43372E-3	85.8546E-12	741.032E-3	-13.3634E-3	85.9534E-12	752.927E-3	15.9044E-3
2.42871E-3	85.6246E-12	720.553E-3	-17.0445E-3	85.6977E-12	745.033E-3	-11.1003E-3
2.42371E-3	85.6115E-12	705.141E-3	-8.93005E-3	85.6564E-12	755.646E-3	-13.2560E-3
2.41871E-3	85.1975E-12	728.461E-3	-1.74490E-3	85.4394E-12	770.919E-3	-3.12278E-3
2.41371E-3	84.3702E-12	755.423E-3	-10.5917E-3	85.0834E-12	759.915E-3	-5.17160E-3
2.40870E-3	83.7340E-12	742.115E-3	-17.6903E-3	84.8109E-12	748.957E-3	6.37462E-3
2.40370E-3	83.7672E-12	718.435E-3	-17.6309E-3	84.6356E-12	744.891E-3	9.73785E-3
2.39870E-3	83.3941E-12	723.180E-3	-14.8947E-3	85.0121E-12	744.471E-3	-10.6006E-3
2.39370E-3	83.1159E-12	732.255E-3	-13.5351E-3	84.6395E-12	752.049E-3	-15.4033E-3
2.38869E-3	82.9409E-12	735.524E-3	-17.8176E-3	84.3772E-12	744.793E-3	-6.42535E-3
2.38369E-3	82.5918E-12	740.472E-3	-22.7610E-3	84.5027E-12	720.499E-3	-5.70414E-3
2.37869E-3	82.2889E-12	727.680E-3	-23.8838E-3	84.2913E-12	708.925E-3	-18.8883E-3
2.37369E-3	81.8060E-12	715.040E-3	-11.9222E-3	83.7850E-12	717.501E-3	-33.7561E-3
2.36868E-3	81.9985E-12	722.993E-3	2.53098E-3	83.2680E-12	725.354E-3	-33.5249E-3
2.36368E-3	81.8303E-12	743.006E-3	2.01984E-3	82.9811E-12	728.045E-3	-17.6931E-3
2.35868E-3	81.8610E-12	756.197E-3	-4.92084E-3	82.3208E-12	737.291E-3	-5.11740E-3
2.35368E-3	81.2463E-12	745.207E-3	-3.47417E-3	82.3116E-12	746.340E-3	-10.0177E-3
2.34867E-3	81.4289E-12	732.198E-3	5.47508E-3	81.4037E-12	746.266E-3	-15.5458E-3
2.34367E-3	81.3532E-12	749.713E-3	-11.8723E-3	80.9570E-12	739.047E-3	-12.1548E-3
2.33867E-3	80.9694E-12	765.440E-3	-40.9008E-3	80.4899E-12	734.743E-3	-21.2596E-3
2.33367E-3	80.4626E-12	749.024E-3	-31.5911E-3	80.8506E-12	734.015E-3	-33.6531E-3
2.32866E-3	80.1949E-12	733.403E-3	-21.8210E-3	79.9954E-12	736.360E-3	-33.6767E-3
2.32366E-3	79.9769E-12	732.210E-3	-23.7820E-3	79.7993E-12	748.277E-3	-28.8270E-3
2.31866E-3	79.5746E-12	732.749E-3	-16.0951E-3	79.8046E-12	754.551E-3	-8.75824E-3
2.31366E-3	79.3240E-12	729.148E-3	-22.3122E-3	80.0410E-12	755.128E-3	3.76621E-3
2.30865E-3	78.8865E-12	742.554E-3	-33.5260E-3	79.8929E-12	759.928E-3	-3.55575E-3
2.30365E-3	78.7075E-12	752.378E-3	-26.0107E-3	79.5902E-12	760.746E-3	2.78401E-3
2.29865E-3	77.9237E-12	737.119E-3	-15.7798E-3	79.4012E-12	758.780E-3	3.34680E-3
2.29365E-3	77.6523E-12	732.931E-3	-15.8330E-3	79.5364E-12	765.622E-3	-15.4038E-3
2.28864E-3	77.2857E-12	737.553E-3	-15.1292E-3	79.6463E-12	766.919E-3	-20.1076E-3
2.28364E-3	77.2612E-12	732.066E-3	-25.6279E-3	78.6808E-12	767.130E-3	-14.0302E-3
2.27864E-3	76.9183E-12	732.589E-3	-31.1438E-3	78.1824E-12	773.117E-3	-16.2173E-3
2.27364E-3	76.8241E-12	745.396E-3	-17.7415E-3	78.1255E-12	767.162E-3	-17.5818E-3
2.26863E-3	76.6131E-12	754.535E-3	-5.10156E-3	77.6020E-12	762.365E-3	-18.4859E-3
2.26363E-3	76.3496E-12	756.659E-3	-5.41485E-3	76.6885E-12	761.075E-3	-33.2012E-3
2.25863E-3	76.4269E-12	759.539E-3	-27.8222E-3	75.9157E-12	758.353E-3	-34.4147E-3
2.25363E-3	76.2370E-12	754.628E-3	-37.1041E-3	75.3830E-12	746.420E-3	-15.9841E-3
2.24862E-3	76.0910E-12	744.767E-3	-26.6818E-3	75.0382E-12	724.594E-3	-11.5989E-3
2.24362E-3	75.8327E-12	749.417E-3	-29.4679E-3	74.5624E-12	722.776E-3	-16.7846E-3
2.23862E-3	75.7070E-12	755.751E-3	-26.5415E-3	74.3358E-12	747.515E-3	-12.1673E-3
2.23362E-3	75.3040E-12	755.681E-3	-17.9991E-3	74.1443E-12	768.665E-3	-6.74405E-3
2.22861E-3	74.8815E-12	754.953E-3	-24.3121E-3	73.9462E-12	772.156E-3	-9.58282E-3
2.22361E-3	74.4351E-12	749.952E-3	-29.8433E-3	74.2619E-12	770.030E-3	-19.9766E-3
2.21861E-3	74.1639E-12	747.803E-3	-28.6645E-3	74.1690E-12	759.798E-3	-29.5215E-3
2.21361E-3	73.9211E-12	759.714E-3	-20.8287E-3	74.1584E-12	746.177E-3	-16.8243E-3
2.20860E-3	73.6822E-12	766.354E-3	-5.90647E-3	73.9662E-12	752.542E-3	11.4929E-3
2.20360E-3	73.4156E-12	759.686E-3	1.76453E-3	74.5014E-12	762.006E-3	14.0858E-3
2.19860E-3	73.3113E-12	757.750E-3	-2.20255E-3	74.6127E-12	763.806E-3	-2.54004E-3
2.19360E-3	72.8842E-12	754.840E-3	-12.5827E-3	74.1752E-12	778.502E-3	-7.87545E-3
2.18859E-3	72.6808E-12	754.757E-3	-19.7760E-3	73.8622E-12	788.046E-3	-8.67766E-3
2.18359E-3	72.4855E-12	769.027E-3	-15.2469E-3	73.8828E-12	781.440E-3	-12.5093E-3
2.17859E-3	72.2273E-12	768.856E-3	-11.1166E-3	73.5381E-12	781.153E-3	-4.41154E-3
2.17359E-3	72.0776E-12	744.972E-3	-8.50559E-3	73.0518E-12	788.169E-3	-5.32908E-3
2.16858E-3	71.6404E-12	740.169E-3	-3.01671E-3	72.3370E-12	780.774E-3	-26.5118E-3
2.16358E-3	71.4184E-12	768.175E-3	6.40198E-3	71.7418E-12	764.005E-3	-25.3829E-3
2.15858E-3	71.5519E-12	782.198E-3	6.74358E-3	71.4438E-12	762.150E-3	-6.57302E-3
2.15358E-3	71.3178E-12	780.647E-3	-8.06261E-3	71.1994E-12	774.674E-3	-1.09274E-3
2.14857E-3	71.1996E-12	781.051E-3	-12.1698E-3	70.1819E-12	792.379E-3	-12.4425E-3
2.14357E-3	70.5641E-12	775.658E-3	-8.79241E-3	69.7742E-12	806.919E-3	-19.7074E-3
2.13857E-3	70.6502E-12	773.317E-3	-4.72341E-3	69.8825E-12	798.071E-3	-4.54136E-3
2.13357E-3	70.3808E-12	767.001E-3	3.12123E-3	70.2541E-12	775.656E-3	16.9163E-3
2.12856E-3	70.0006E-12	763.628E-3	-5.37769E-3	70.1855E-12	780.487E-3	12.6042E-3
2.12356E-3	69.5640E-12	777.707E-3	-28.2604E-3	69.9535E-12	800.032E-3	-10.1930E-3
2.11856E-3	69.4597E-12	787.776E-3	-34.2919E-3	70.1224E-12	803.468E-3	-20.8804E-3
2.11356E-3	69.7869E-12	783.898E-3	-25.8416E-3	70.3874E-12	807.316E-3	-25.7070E-3
2.10855E-3	69.7501E-12	780.956E-3	-27.5966E-3	70.3057E-12	810.514E-3	-32.2952E-3
2.10355E-3	69.8052E-12	775.510E-3	-33.1723E-3	70.2084E-12	804.176E-3	-25.7902E-3
2.09855E-3	69.6885E-12	768.328E-3	-33.4114E-3	69.8523E-12	812.287E-3	-19.3914E-3
2.09355E-3	69.7299E-12	784.952E-3	-24.6885E-3	69.6960E-12	822.061E-3	-31.1218E-3
2.08854E-3	69.0372E-12	813.386E-3	-13.7070E-3	69.2385E-12	806.753E-3	-24.6168E-3
2.08354E-3	68.6657E-12	816.210E-3	-12.5540E-3	68.9579E-12	797.584E-3	2.40882E-3
2.07854E-3	68.1696E-12	807.888E-3	-16.3957E-3	68.0296E-12	801.252E-3	508.335E-6
2.07354E-3	67.7012E-12	807.090E-3	-17.4855E-3	67.8144E-12	793.728E-3	-17.3877E-3
2.06853E-3	67.3104E-12	810.296E-3	-11.9775E-3	67.2405E-12	788.063E-3	-16.6784E-3
2.06353E-3	66.6176E-12	813.465E-3	-9.95700E-3	66.9167E-12	794.744E-3	-9.56002E-3
2.05853E-3	66.4037E-12	816.780E-3	-31.8854E-3	66.5206E-12	796.180E-3	-15.0473E-3
2.05353E-3	65.8603E-12	813.477E-3	-63.4379E-3	66.1630E-12	798.126E-3	-13.6270E-3
2.04852E-3	65.0225E-12	801.856E-3	-53.9887E-3	65.6150E-12	805.071E-3	-6.27271E-3
2.04352E-3	64.7946E-12	798.031E-3	-16.0600E-3	65.5523E-12	799.071E-3	-11.0320E-3
2.03852E-3	64.9010E-12	800.687E-3	3.76856E-3	65.4586E-12	798.736E-3	-12.3557E-3
2.03352E-3	65.0242E-12	795.223E-3	-1.85903E-3	65.3194E-12	815.575E-3	-13.9315E-3
2.02851E-3	64.6561E-12	786.625E-3	-10.3196E-3	64.8302E-12	827.031E-3	-27.1633E-3
2.02351E-3	64.6822E-12	796.117E-3	-8.09777E-3	64.6087E-12	831.905E-3	-36.6462E-3
2.01851E-3	64.7561E-12	810.585E-3	-14.4650E-3	64.3788E-12	841.863E-3	-44.5871E-3
2.01351E-3	64.6507E-12	815.736E-3	-40.4765E-3	64.3789E-12	843.207E-3	-43.7617E-3
2.00850E-3	64.3671E-12	825.477E-3	-54.8588E-3	63.8087E-12	829.946E-3	-12.1341E-3
2.00350E-3	64.0231E-12	827.542E-3	-44.6485E-3	63.5909E-12	827.422E-3	10.9641E-3
1.99850E-3	63.8957E-12	810.404E-3	-35.5007E-3	63.6080E-12	822.202E-3	-1.25392E-3
1.99350E-3	63.4841E-12	805.518E-3	-23.3093E-3	63.2677E-12	802.213E-3	-16.0797E-3
1.98849E-3	62.7830E-12	818.350E-3	-13.6234E-3	62.7914E-12	800.950E-3	-23.7870E-3
1.98349E-3	62.0336E-12	831.360E-3	-22.7377E-3	62.5933E-12	821.489E-3	-29.0469E-3
1.97849E-3	61.5404E-12	834.862E-3	-23.5951E-3	62.1956E-12	839.652E-3	-24.1274E-3
1.97349E-3	61.1891E-12	830.019E-3	-7.99170E-3	61.7755E-12	853.191E-3	-23.3158E-3
1.96848E-3	60.6787E-12	823.809E-3	4.95921E-3	61.7133E-12	861.286E-3	-37.4699E-3
1.96348E-3	60.1018E-12	823.565E-3	10.6509E-3	61.7088E-12	860.691E-3	-40.6658E-3
1.95848E-3	59.7037E-12	828.126E-3	7.43406E-3	61.1066E-12	860.146E-3	-28.3775E-3
1.95348E-3	59.6965E-12	824.535E-3	4.41402E-3	60.7327E-12	858.703E-3	-22.2669E-3
1.94847E-3	59.4865E-12	825.088E-3	10.7950E-3	60.6791E-12	848.790E-3	-24.6070E-3
1.94347E-3	59.2656E-12	826.637E-3	8.27709E-3	60.2537E-12	845.109E-3	-27.7970E-3
1.93847E-3	58.9311E-12	832.158E-3	-6.31730E-3	59.7262E-12	854.316E-3	-22.7267E-3
1.93347E-3	59.0868E-12	841.670E-3	-19.7303E-3	59.2558E-12	862.206E-3	-12.3259E-3
1.92846E-3	59.2451E-12	832.027E-3	-34.2751E-3	59.1746E-12	864.119E-3	-11.9999E-3
1.92346E-3	59.1019E-12	821.146E-3	-33.5289E-3	58.9335E-12	870.326E-3	-14.6679E-3
1.91846E-3	58.7427E-12	832.279E-3	-5.82821E-3	58.2101E-12	868.335E-3	-9.41289E-3
1.91346E-3	58.3812E-12	852.648E-3	14.8196E-3	57.6873E-12	856.765E-3	-2.79792E-3
1.90845E-3	58.1415E-12	863.050E-3	-424.273E-6	57.6085E-12	862.349E-3	-7.66622E-3
1.90345E-3	57.5487E-12	858.986E-3	-27.5276E-3	57.4628E-12	874.211E-3	-13.5813E-3
1.89845E-3	56.9396E-12	846.337E-3	-32.2812E-3	57.0260E-12	878.971E-3	-14.0863E-3
1.89345E-3	56.5876E-12	844.509E-3	-25.2230E-3	56.7087E-12	881.955E-3	-26.1841E-3
1.88844E-3	56.1450E-12	854.113E-3	-26.5199E-3	56.6765E-12	885.329E-3	-42.9759E-3
1.88344E-3	55.8259E-12	860.349E-3	-32.3000E-3	57.0098E-12	903.941E-3	-34.3366E-3
1.87844E-3	55.7635E-12	857.002E-3	-44.5315E-3	56.9312E-12	926.243E-3	-4.68803E-3
1.87344E-3	55.2032E-12	851.956E-3	-61.8398E-3	56.7934E-12	920.384E-3	10.1301E-3
1.86843E-3	54.9290E-12	855.576E-3	-51.4483E-3	56.7913E-12	911.028E-3	1.51211E-3
1.86343E-3	54.7878E-12	864.818E-3	-17.6780E-3	56.6755E-12	922.780E-3	-8.63895E-3
1.85843E-3	54.7137E-12	874.717E-3	-8.04772E-3	56.2467E-12	924.229E-3	-4.73756E-3
1.85343E-3	54.6705E-12	876.011E-3	-21.8689E-3	55.9750E-12	911.836E-3	-8.60599E-3
1.84842E-3	54.6570E-12	870.905E-3	-26.7888E-3	55.3444E-12	897.090E-3	-21.3076E-3
1.84342E-3	54.5238E-12	871.421E-3	-18.1232E-3	54.7763E-12	880.574E-3	-28.3876E-3
1.83842E-3	54.1784E-12	883.163E-3	-14.3194E-3	54.0758E-12	872.572E-3	-26.2335E-3
1.83342E-3	54.0137E-12	898.029E-3	-26.0650E-3	53.5856E-12	872.647E-3	-18.1386E-3
1.82841E-3	54.0121E-12	898.700E-3	-35.1934E-3	52.9003E-12	880.429E-3	-15.5382E-3
1.82341E-3	53.7193E-12	895.997E-3	-28.6280E-3	52.3814E-12	891.855E-3	-11.3701E-3
1.81841E-3	53.1203E-12	908.015E-3	-20.1494E-3	52.0225E-12	895.625E-3	-12.2039E-3
1.81341E-3	52.4139E-12	919.509E-3	-19.9050E-3	51.5572E-12	890.604E-3	-17.1148E-3
1.80840E-3	51.9909E-12	922.454E-3	-23.0874E-3	51.1713E-12	895.268E-3	-6.54102E-3
1.80340E-3	51.7525E-12	914.681E-3	-24.7035E-3	51.2447E-12	924.692E-3	3.06246E-3
1.79840E-3	51.1590E-12	907.267E-3	-30.8284E-3	51.2702E-12	946.909E-3	1.88362E-3
1.79340E-3	50.5567E-12	916.272E-3	-34.0903E-3	51.3319E-12	941.255E-3	10.9987E-3
1.78839E-3	50.2382E-12	923.882E-3	-15.7298E-3	51.2881E-12	943.078E-3	16.1430E-3
1.78339E-3	50.3576E-12	922.252E-3	-7.97478E-3	51.4304E-12	966.141E-3	-2.43857E-3
1.77839E-3	50.0267E-12	925.278E-3	-31.9376E-3	51.5777E-12	973.061E-3	-15.5653E-3
1.77339E-3	50.0787E-12	930.590E-3	-37.2720E-3	51.3679E-12	962.593E-3	-13.6567E-3
1.76838E-3	49.6854E-12	931.087E-3	-16.8669E-3	51.4614E-12	959.990E-3	-12.0552E-3
1.76338E-3	49.7725E-12	939.484E-3	-1.08398E-3	51.0329E-12	960.115E-3	-8.75870E-3
1.75838E-3	49.6314E-12	949.787E-3	-1.53742E-3	50.5512E-12	971.553E-3	-5.80546E-3
1.75338E-3	49.5860E-12	946.756E-3	-17.5341E-3	49.9408E-12	988.371E-3	-7.11445E-3
1.74837E-3	49.0107E-12	948.837E-3	-29.0879E-3	49.4174E-12	980.274E-3	-4.44199E-3
1.74337E-3	48.7696E-12	964.143E-3	-29.1699E-3	48.7493E-12	956.389E-3	1.76787E-3
1.73837E-3	48.3179E-12	972.656E-3	-24.4270E-3	48.1260E-12	944.438E-3	-10.5487E-3
1.73337E-3	48.0986E-12	972.913E-3	-24.3574E-3	47.6961E-12	944.404E-3	-27.6407E-3
1.72836E-3	47.4662E-12	976.119E-3	-35.5874E-3	46.9459E-12	953.489E-3	-8.88081E-3
1.72336E-3	46.8808E-12	977.597E-3	-35.7341E-3	46.3855E-12	970.403E-3	8.21552E-3
1.71836E-3	46.1807E-12	962.880E-3	-16.7602E-3	45.9662E-12	983.250E-3	-9.93034E-3
1.71336E-3	45.8913E-12	950.784E-3	-1.51137E-3	45.7758E-12	993.074E-3	-27.4572E-3
1.70835E-3	45.5059E-12	968.251E-3	-5.88909E-3	45.5381E-12	1.00859E+0	-33.0097E-3
1.70335E-3	45.0275E-12	981.879E-3	-24.9031E-3	45.3053E-12	1.01005E+0	-39.8992E-3
1.69835E-3	44.6453E-12	968.680E-3	-30.4292E-3	45.1389E-12	1.00011E+0	-36.3315E-3
1.69335E-3	44.3667E-12	952.695E-3	-20.6677E-3	45.3145E-12	1.00785E+0	-16.5690E-3
1.68834E-3	44.2019E-12	948.055E-3	-15.8411E-3	45.0527E-12	1.01451E+0	-8.09068E-3
1.68334E-3	43.7905E-12	955.680E-3	-18.6015E-3	44.8298E-12	1.01904E+0	-7.41529E-3
1.67834E-3	43.5869E-12	959.701E-3	-20.7000E-3	44.5972E-12	1.03743E+0	-5.37118E-3
1.67334E-3	43.5729E-12	961.026E-3	-17.2340E-3	44.4433E-12	1.03861E+0	-23.8835E-3
1.66833E-3	43.5560E-12	984.813E-3	-4.58846E-3	43.9355E-12	1.02729E+0	-40.0108E-3
1.66333E-3	43.1422E-12	1.02610E+0	3.54730E-3	43.4969E-12	1.03963E+0	-27.2378E-3
1.65833E-3	42.6369E-12	1.05294E+0	-8.77570E-3	43.1272E-12	1.04905E+0	-18.7091E-3
1.65333E-3	42.1769E-12	1.04505E+0	-22.6879E-3	42.9053E-12	1.03035E+0	-18.7052E-3
1.64832E-3	41.7351E-12	1.02690E+0	-20.4279E-3	42.2592E-12	1.02058E+0	-10.7039E-3
1.64332E-3	41.4677E-12	1.03131E+0	-9.05813E-3	41.5752E-12	1.03005E+0	-6.99509E-3
1.63832E-3	41.0105E-12	1.04576E+0	-5.78639E-3	41.3131E-12	1.03339E+0	-2.72838E-3
1.63332E-3	40.4809E-12	1.04942E+0	-9.65123E-3	41.1436E-12	1.03575E+0	1.44422E-3
1.62831E-3	40.1710E-12	1.04222E+0	-25.5845E-3	40.5261E-12	1.04258E+0	-10.5334E-3
1.62331E-3	39.9677E-12	1.03841E+0	-40.0873E-3	39.8241E-12	1.04706E+0	-22.9156E-3
1.61831E-3	39.5802E-12	1.03737E+0	-19.8706E-3	39.4111E-12	1.06156E+0	-21.6595E-3
1.61331E-3	38.9826E-12	1.03756E+0	897.923E-6	39.1722E-12	1.08181E+0	-26.5278E-3
1.60830E-3	38.5856E-12	1.04690E+0	-12.0683E-3	38.7167E-12	1.08642E+0	-31.9873E-3
1.60330E-3	38.5540E-12	1.05163E+0	-27.2177E-3	38.3339E-12	1.08154E+0	-15.0470E-3
1.59830E-3	38.5432E-12	1.05837E+0	-26.8551E-3	37.9509E-12	1.08322E+0	-2.80965E-3
1.59330E-3	38.1681E-12	1.07450E+0	-16.9769E-3	37.7154E-12	1.09305E+0	-13.0015E-3
1.58829E-3	37.6458E-12	1.09043E+0	-8.27113E-3	37.3758E-12	1.10533E+0	-23.7070E-3
1.58329E-3	37.3933E-12	1.09854E+0	-14.3923E-3	37.0884E-12	1.11063E+0	-23.9041E-3
1.57829E-3	37.3531E-12	1.09757E+0	-25.1789E-3	36.6626E-12	1.10666E+0	-14.1714E-3
1.57329E-3	36.6697E-12	1.09211E+0	-24.7828E-3	36.5217E-12	1.10843E+0	1.25398E-3
1.56828E-3	36.0256E-12	1.08966E+0	-13.1817E-3	36.0454E-12	1.12023E+0	1.28275E-3
1.56328E-3	35.6139E-12	1.10446E+0	-13.9738E-3	35.6568E-12	1.12108E+0	-18.1097E-3
1.55828E-3	35.1685E-12	1.11756E+0	-25.7550E-3	35.5165E-12	1.12209E+0	-27.1379E-3
1.55328E-3	34.7294E-12	1.10854E+0	-32.2444E-3	35.1698E-12	1.13854E+0	-24.8918E-3
1.54827E-3	34.3080E-12	1.10195E+0	-39.6296E-3	34.7986E-12	1.14763E+0	-20.9273E-3
1.54327E-3	33.9450E-12	1.10656E+0	-35.6835E-3	34.7669E-12	1.14671E+0	-8.81172E-3
1.53827E-3	33.4873E-12	1.11308E+0	-19.2096E-3	34.4695E-12	1.15508E+0	-8.78667E-3
1.53327E-3	33.3114E-12	1.12268E+0	-18.8126E-3	34.0715E-12	1.15617E+0	-19.4329E-3
1.52826E-3	33.1308E-12	1.12776E+0	-29.7479E-3	33.5295E-12	1.13580E+0	-15.5129E-3
1.52326E-3	32.8091E-12	1.12689E+0	-34.1365E-3	33.1988E-12	1.13196E+0	-3.79828E-3
1.51826E-3	32.4919E-12	1.12103E+0	-29.2946E-3	32.7522E-12	1.14754E+0	-2.65322E-3
1.51326E-3	32.0480E-12	1.11950E+0	-24.7477E-3	32.3337E-12	1.15516E+0	-13.3263E-3
1.50825E-3	31.9831E-12	1.13398E+0	-25.5718E-3	31.7834E-12	1.16511E+0	-9.00828E-3
1.50325E-3	31.7553E-12	1.14664E+0	-31.2563E-3	31.2929E-12	1.17586E+0	-7.89316E-3
1.49825E-3	31.2196E-12	1.14676E+0	-35.8720E-3	31.0235E-12	1.18025E+0	-13.9192E-3
1.49325E-3	30.6526E-12	1.14761E+0	-25.9915E-3	30.5112E-12	1.18275E+0	-3.93921E-3
1.48824E-3	30.4689E-12	1.15698E+0	-18.0542E-3	29.9556E-12	1.18234E+0	-4.37325E-3
1.48324E-3	29.9894E-12	1.17182E+0	-16.2521E-3	29.6120E-12	1.18003E+0	-8.22628E-3
1.47824E-3	29.4632E-12	1.18155E+0	-8.28974E-3	29.3450E-12	1.18885E+0	-9.66579E-3
1.47324E-3	28.8220E-12	1.17368E+0	-3.24751E-3	28.8649E-12	1.20527E+0	-22.6857E-3
1.46823E-3	28.3867E-12	1.15702E+0	-3.29953E-3	28.5637E-12	1.20134E+0	-32.9620E-3
1.46323E-3	28.0208E-12	1.15367E+0	5.88828E-3	28.1847E-12	1.18937E+0	-35.3381E-3
1.45823E-3	27.5602E-12	1.16470E+0	16.3093E-3	28.1554E-12	1.19339E+0	-27.2043E-3
1.45323E-3	27.0539E-12	1.17306E+0	8.02761E-3	27.7955E-12	1.19805E+0	-12.0028E-3
1.44822E-3	26.6251E-12	1.17390E+0	-5.04502E-3	27.4840E-12	1.19752E+0	-2.91330E-3
1.44322E-3	26.3300E-12	1.16765E+0	-5.24895E-3	27.1723E-12	1.20024E+0	3.17267E-3
1.43822E-3	26.0351E-12	1.16091E+0	-2.62388E-3	27.0283E-12	1.18976E+0	7.17103E-3
1.43322E-3	25.8485E-12	1.17050E+0	-1.07774E-3	26.6627E-12	1.17633E+0	4.20934E-3
1.42821E-3	25.5324E-12	1.17326E+0	-10.6183E-3	26.2278E-12	1.17907E+0	-11.6336E-3
1.42321E-3	25.3310E-12	1.15885E+0	-35.1189E-3	25.7314E-12	1.17636E+0	-27.0040E-3
1.41821E-3	24.9702E-12	1.15379E+0	-40.3770E-3	25.0961E-12	1.16527E+0	-28.0702E-3
1.41321E-3	24.7563E-12	1.16022E+0	-30.7332E-3	24.5452E-12	1.15615E+0	-28.7810E-3
1.40820E-3	24.4057E-12	1.17744E+0	-30.1166E-3	24.0052E-12	1.14218E+0	-28.6412E-3
1.40320E-3	23.9749E-12	1.18523E+0	-26.4755E-3	23.5768E-12	1.13256E+0	-23.3090E-3
1.39820E-3	23.5122E-12	1.16752E+0	-24.5229E-3	23.0182E-12	1.14121E+0	-7.54757E-3
1.39320E-3	23.0925E-12	1.15751E+0	-28.1808E-3	22.4310E-12	1.14048E+0	9.63847E-3
1.38819E-3	22.6715E-12	1.16414E+0	-30.5521E-3	22.1395E-12	1.11406E+0	6.67761E-3
1.38319E-3	22.0786E-12	1.16369E+0	-29.3696E-3	21.8633E-12	1.10799E+0	-8.65430E-3
1.37819E-3	21.6119E-12	1.15150E+0	-28.4716E-3	21.5465E-12	1.12218E+0	-19.7905E-3
1.37319E-3	21.1842E-12	1.14015E+0	-26.4633E-3	21.1218E-12	1.12802E+0	-21.0951E-3
1.36818E-3	20.8007E-12	1.13357E+0	-7.52961E-3	20.8261E-12	1.12887E+0	-23.5312E-3
1.36318E-3	20.2875E-12	1.12441E+0	8.37052E-3	20.6476E-12	1.11767E+0	-29.0777E-3
1.35818E-3	19.8946E-12	1.11853E+0	3.76127E-3	20.4443E-12	1.11219E+0	-18.4227E-3
1.35318E-3	19.5731E-12	1.11080E+0	-9.98601E-3	20.0665E-12	1.12206E+0	-3.25630E-3
1.34817E-3	19.2663E-12	1.09412E+0	-24.9520E-3	19.7615E-12	1.11934E+0	-10.6436E-3
1.34317E-3	19.0477E-12	1.08177E+0	-26.8131E-3	19.4858E-12	1.09820E+0	-23.4757E-3
1.33817E-3	18.5822E-12	1.08560E+0	-15.6650E-3	19.1170E-12	1.07680E+0	-28.2472E-3
1.33317E-3	18.2994E-12	1.10343E+0	-16.8041E-3	18.5460E-12	1.06420E+0	-29.0707E-3
1.32816E-3	18.1835E-12	1.10882E+0	-25.8235E-3	18.1173E-12	1.04659E+0	-23.6591E-3
1.32316E-3	17.8515E-12	1.08986E+0	-26.8805E-3	17.6857E-12	1.02902E+0	-16.0762E-3
1.31816E-3	17.3759E-12	1.07593E+0	-21.9628E-3	17.1628E-12	1.01583E+0	-15.0917E-3
1.31316E-3	17.1044E-12	1.08016E+0	-10.3989E-3	16.6633E-12	994.654E-3	-13.2832E-3
1.30815E-3	16.9035E-12	1.08477E+0	-98.7112E-6	16.2087E-12	984.549E-3	-14.1724E-3
1.30315E-3	16.4202E-12	1.07926E+0	-5.17907E-3	15.9114E-12	994.937E-3	-27.7495E-3
1.29815E-3	15.9034E-12	1.06800E+0	-9.98632E-3	15.5080E-12	992.849E-3	-28.8290E-3
1.29315E-3	15.6094E-12	1.05583E+0	817.793E-6	15.2061E-12	975.194E-3	-16.4411E-3
1.28814E-3	15.2405E-12	1.03537E+0	6.29353E-3	14.9778E-12	971.426E-3	-11.6623E-3
1.28314E-3	14.6953E-12	1.01680E+0	1.04097E-3	14.6859E-12	963.272E-3	-20.7628E-3
1.27814E-3	14.4158E-12	1.01172E+0	-11.6962E-3	14.4079E-12	941.624E-3	-34.0407E-3
1.27314E-3	14.1802E-12	1.00043E+0	-23.4209E-3	14.1278E-12	930.744E-3	-37.1075E-3
1.26813E-3	13.6965E-12	975.783E-3	-14.6105E-3	14.0163E-12	926.767E-3	-27.6026E-3
1.26313E-3	13.3633E-12	954.461E-3	-453.753E-6	13.7111E-12	927.104E-3	-18.4631E-3
1.25813E-3	13.1119E-12	944.146E-3	-9.11523E-3	13.3789E-12	930.979E-3	-17.4540E-3
1.25313E-3	12.9378E-12	934.648E-3	-30.3127E-3	13.0602E-12	920.634E-3	-13.6753E-3
1.24812E-3	12.5367E-12	918.179E-3	-38.5309E-3	12.8876E-12	892.102E-3	-3.98316E-3
1.24312E-3	12.1498E-12	902.084E-3	-34.0242E-3	12.5206E-12	866.465E-3	2.38164E-3
1.23812E-3	11.9575E-12	892.933E-3	-26.0102E-3	12.1714E-12	852.648E-3	-3.64982E-3
1.23312E-3	11.8543E-12	891.001E-3	-22.7769E-3	11.8656E-12	832.470E-3	-15.9536E-3
1.22811E-3	11.5215E-12	894.384E-3	-22.5050E-3	11.6368E-12	815.063E-3	-22.3784E-3
1.22311E-3	11.1862E-12	883.192E-3	-28.2999E-3	11.2843E-12	811.734E-3	-23.7075E-3
1.21811E-3	10.8915E-12	860.018E-3	-38.2878E-3	10.8534E-12	802.007E-3	-20.1571E-3
1.21311E-3	10.7255E-12	848.033E-3	-27.9907E-3	10.5467E-12	784.234E-3	-17.8454E-3
1.20810E-3	10.4484E-12	837.722E-3	-10.2539E-3	10.3237E-12	763.047E-3	-29.2305E-3
1.20310E-3	10.0729E-12	825.099E-3	-7.10728E-3	10.0558E-12	741.041E-3	-35.0463E-3
1.19810E-3	9.92194E-12	812.774E-3	-9.14221E-3	9.73426E-12	732.880E-3	-20.0149E-3
1.19310E-3	9.64232E-12	793.791E-3	-12.4848E-3	9.46913E-12	727.058E-3	-9.06587E-3
1.18809E-3	9.37608E-12	775.475E-3	-10.4335E-3	9.23588E-12	704.025E-3	-12.7101E-3
1.18309E-3	9.13641E-12	763.941E-3	725.769E-6	9.01765E-12	680.802E-3	-15.4146E-3
1.17809E-3	8.89563E-12	752.193E-3	-2.43815E-3	8.84452E-12	671.454E-3	-14.9937E-3
1.17309E-3	8.69270E-12	740.728E-3	-21.5613E-3	8.59121E-12	660.879E-3	-12.7975E-3
1.16808E-3	8.49363E-12	722.092E-3	-22.2129E-3	8.40774E-12	642.552E-3	-9.56638E-3
1.16308E-3	8.18364E-12	697.025E-3	-2.22150E-3	8.22062E-12	621.736E-3	-13.3922E-3
1.15808E-3	7.99974E-12	686.609E-3	8.81146E-3	7.98217E-12	603.356E-3	-25.1603E-3
1.15308E-3	7.80063E-12	673.500E-3	6.26497E-3	7.80870E-12	602.661E-3	-34.2762E-3
1.14807E-3	7.42901E-12	637.372E-3	-2.49789E-3	7.58552E-12	609.569E-3	-35.1501E-3
1.14307E-3	7.27592E-12	612.656E-3	-9.50434E-3	7.34739E-12	591.859E-3	-26.7443E-3
1.13807E-3	7.25873E-12	612.271E-3	-5.98824E-3	7.26038E-12	557.225E-3	-17.6934E-3
1.13307E-3	6.92788E-12	610.267E-3	-3.96058E-3	7.08041E-12	536.775E-3	-19.0103E-3
1.12806E-3	6.63147E-12	596.547E-3	-14.6850E-3	6.90933E-12	522.399E-3	-27.3039E-3
1.12306E-3	6.49934E-12	573.208E-3	-21.6688E-3	6.61024E-12	507.382E-3	-28.4579E-3
1.11806E-3	6.40954E-12	550.890E-3	-18.1776E-3	6.49199E-12	497.192E-3	-19.9477E-3
1.11306E-3	6.19656E-12	534.031E-3	-11.9151E-3	6.30821E-12	472.430E-3	-13.5823E-3
1.10805E-3	5.97714E-12	529.181E-3	-1.62214E-3	6.08218E-12	441.478E-3	-9.40690E-3
1.10305E-3	5.81336E-12	530.874E-3	4.21845E-3	5.90867E-12	437.477E-3	-12.5595E-3
1.09805E-3	5.74747E-12	514.941E-3	-4.64971E-3	5.71631E-12	447.376E-3	-26.6571E-3
1.09305E-3	5.63419E-12	479.415E-3	-18.9100E-3	5.60531E-12	439.725E-3	-36.3966E-3
1.08804E-3	5.40565E-12	454.723E-3	-16.1875E-3	5.38942E-12	420.660E-3	-36.2969E-3
1.08304E-3	5.26145E-12	455.680E-3	-9.95481E-3	5.17758E-12	389.564E-3	-34.5034E-3
1.07804E-3	5.19745E-12	457.449E-3	-18.4201E-3	5.09418E-12	357.972E-3	-29.0578E-3
1.07304E-3	5.04539E-12	439.603E-3	-25.6129E-3	4.96937E-12	359.879E-3	-20.3754E-3
1.06803E-3	4.84314E-12	412.135E-3	-25.2678E-3	4.78562E-12	368.683E-3	-5.90859E-3
1.06303E-3	4.69294E-12	398.727E-3	-7.74688E-3	4.67746E-12	350.757E-3	5.19117E-3
1.05803E-3	4.62805E-12	398.103E-3	5.50897E-3	4.51876E-12	333.338E-3	-4.97131E-3
1.05303E-3	4.47692E-12	403.377E-3	-15.3544E-3	4.40173E-12	327.333E-3	-26.1912E-3
1.04802E-3	4.26997E-12	395.176E-3	-36.3347E-3	4.36513E-12	316.588E-3	-27.1613E-3
1.04302E-3	4.33165E-12	356.218E-3	-29.8991E-3	4.42990E-12	303.526E-3	-6.68474E-3
1.03802E-3	4.11387E-12	324.545E-3	-13.1897E-3	4.18960E-12	281.662E-3	-2.13153E-3
1.03302E-3	3.83282E-12	319.496E-3	-7.57366E-3	3.96856E-12	252.976E-3	-14.9258E-3
1.02801E-3	3.66632E-12	309.134E-3	-16.7296E-3	3.77778E-12	245.794E-3	-19.1070E-3
1.02301E-3	3.58267E-12	283.179E-3	-30.5690E-3	3.64080E-12	248.433E-3	-17.4721E-3
1.01801E-3	3.41584E-12	263.081E-3	-30.7821E-3	3.55984E-12	238.945E-3	-12.2819E-3
1.01301E-3	3.23966E-12	260.774E-3	-19.1906E-3	3.44639E-12	230.087E-3	-6.36268E-3
1.00800E-3	3.27603E-12	260.869E-3	-13.8910E-3	3.26203E-12	221.084E-3	-14.3214E-3
1.00300E-3	3.29575E-12	251.165E-3	-19.3139E-3	3.23628E-12	199.443E-3	-17.0266E-3
997.999E-6	3.19315E-12	229.496E-3	-24.4622E-3	3.23883E-12	187.351E-3	-9.45208E-3
992.997E-6	3.04187E-12	209.987E-3	-18.5120E-3	3.06548E-12	187.003E-3	-12.4201E-3
987.994E-6	2.95688E-12	216.633E-3	-7.25678E-3	2.92599E-12	168.297E-3	-11.2395E-3
982.991E-6	3.02903E-12	222.378E-3	-4.76658E-3	2.88189E-12	151.917E-3	-3.03955E-3
977.989E-6	2.92359E-12	203.026E-3	-16.2183E-3	2.87582E-12	154.954E-3	-8.55568E-3
972.986E-6	2.79779E-12	180.599E-3	-36.6253E-3	2.76216E-12	153.496E-3	-18.8457E-3
967.984E-6	2.74432E-12	166.912E-3	-42.0169E-3	2.64468E-12	150.185E-3	-20.2722E-3
962.981E-6	2.79132E-12	158.910E-3	-24.0899E-3	2.60500E-12	152.164E-3	-13.2387E-3
957.979E-6	2.67947E-12	155.626E-3	-4.12934E-3	2.61675E-12	135.894E-3	-10.8586E-3
952.976E-6	2.52954E-12	152.351E-3	-1.64737E-3	2.55968E-12	118.323E-3	-15.9090E-3
947.974E-6	2.49924E-12	148.368E-3	-17.8681E-3	2.44364E-12	129.076E-3	-15.1288E-3
942.971E-6	2.48711E-12	142.832E-3	-22.2796E-3	2.48014E-12	141.834E-3	-15.5091E-3
937.969E-6	2.45046E-12	134.728E-3	-5.55453E-3	2.43667E-12	139.494E-3	-13.9337E-3
932.966E-6	2.37978E-12	131.317E-3	861.703E-6	2.39633E-12	129.712E-3	-9.06539E-3
927.964E-6	2.28809E-12	134.098E-3	-10.8877E-3	2.41722E-12	115.379E-3	-15.9532E-3
922.961E-6	2.31752E-12	137.202E-3	-22.0437E-3	2.31806E-12	104.761E-3	-14.9734E-3
917.959E-6	2.22592E-12	128.242E-3	-30.9237E-3	2.27098E-12	105.718E-3	-5.76443E-3
912.956E-6	2.21089E-12	110.597E-3	-32.5798E-3	2.24993E-12	103.351E-3	-12.5083E-3
907.954E-6	2.20880E-12	108.733E-3	-21.6132E-3	2.22862E-12	90.4826E-3	-17.2700E-3
902.951E-6	2.13577E-12	114.989E-3	-7.12627E-3	2.23347E-12	84.6970E-3	-16.8470E-3
897.949E-6	2.07521E-12	109.181E-3	2.39416E-3	2.10936E-12	87.9453E-3	-32.2020E-3
892.946E-6	2.06981E-12	97.2677E-3	-2.64953E-3	2.02236E-12	97.7578E-3	-39.7964E-3
887.944E-6	2.14468E-12	99.9289E-3	-8.72911E-3	2.05619E-12	104.678E-3	-26.6070E-3
882.941E-6	1.99641E-12	104.477E-3	-7.28169E-3	2.08037E-12	88.3877E-3	-25.1287E-3
877.939E-6	1.94099E-12	100.313E-3	-12.7851E-3	1.97694E-12	70.3212E-3	-32.8678E-3
872.936E-6	1.88106E-12	97.8890E-3	-24.3354E-3	1.87913E-12	72.3174E-3	-25.7730E-3
867.934E-6	1.97785E-12	83.4305E-3	-33.2986E-3	1.87245E-12	72.3193E-3	-15.8544E-3
862.931E-6	1.94101E-12	70.7567E-3	-32.1100E-3	1.96142E-12	58.8601E-3	-17.7002E-3
857.929E-6	1.79691E-12	75.1864E-3	-17.1044E-3	1.85541E-12	50.8518E-3	-19.4295E-3
852.926E-6	1.75612E-12	83.3861E-3	-10.5453E-3	1.77137E-12	65.8449E-3	-21.7053E-3
847.924E-6	1.82702E-12	83.4392E-3	-23.2282E-3	1.82763E-12	81.4584E-3	-22.4559E-3
842.921E-6	1.76539E-12	67.5940E-3	-31.9020E-3	1.87703E-12	79.9982E-3	-6.56590E-3
837.919E-6	1.72213E-12	54.2825E-3	-24.1480E-3	1.84111E-12	74.2623E-3	-365.810E-6
832.916E-6	1.72117E-12	57.9689E-3	-10.0379E-3	1.71661E-12	63.7450E-3	-22.0295E-3
827.914E-6	1.76677E-12	64.8452E-3	1.36297E-3	1.79545E-12	48.2466E-3	-29.0947E-3
822.911E-6	1.73020E-12	66.0464E-3	2.29015E-3	1.80429E-12	44.9902E-3	-19.6935E-3
817.909E-6	1.69210E-12	61.3676E-3	-8.73274E-3	1.70939E-12	53.6912E-3	-24.5282E-3
812.906E-6	1.66682E-12	56.3656E-3	-10.1149E-3	1.66491E-12	61.2558E-3	-28.2714E-3
807.904E-6	1.63847E-12	59.2854E-3	-1.38678E-3	1.71094E-12	55.6033E-3	-16.3507E-3
802.901E-6	1.65030E-12	64.6236E-3	-3.66028E-3	1.66261E-12	35.8179E-3	-8.95302E-3
797.899E-6	1.61432E-12	58.1240E-3	-12.6603E-3	1.62403E-12	32.1698E-3	-6.91431E-3
792.896E-6	1.55587E-12	44.8961E-3	-18.6381E-3	1.64299E-12	46.9098E-3	506.496E-6
787.894E-6	1.60723E-12	35.6064E-3	-15.9100E-3	1.63143E-12	51.7795E-3	-5.61013E-3
782.891E-6	1.48711E-12	36.2206E-3	-3.39379E-3	1.57796E-12	41.8865E-3	-19.4254E-3
777.889E-6	1.51981E-12	43.0965E-3	43.8754E-6	1.47368E-12	36.2348E-3	-22.2640E-3
772.886E-6	1.55646E-12	41.3780E-3	-14.5240E-3	1.54906E-12	39.3562E-3	-16.4924E-3
767.884E-6	1.48203E-12	37.1831E-3	-17.8756E-3	1.53985E-12	41.3117E-3	-18.1495E-3
762.881E-6	1.41669E-12	33.0182E-3	-5.19105E-3	1.49051E-12	42.4042E-3	-25.5591E-3
757.879E-6	1.45813E-12	31.5364E-3	1.71308E-3	1.35508E-12	34.2033E-3	-23.3197E-3
752.876E-6	1.51636E-12	51.0194E-3	2.17703E-3	1.43308E-12	26.4985E-3	-17.7784E-3
747.874E-6	1.45392E-12	68.7374E-3	-6.08438E-3	1.46700E-12	35.3417E-3	-20.3110E-3
742.871E-6	1.35673E-12	50.0375E-3	-20.7400E-3	1.35631E-12	44.6945E-3	-28.2806E-3
737.869E-6	1.34796E-12	34.4106E-3	-26.7181E-3	1.32504E-12	43.8686E-3	-30.2641E-3
732.866E-6	1.45738E-12	43.3065E-3	-18.5251E-3	1.37856E-12	34.3064E-3	-22.7174E-3
727.864E-6	1.39945E-12	51.8401E-3	-12.1438E-3	1.43848E-12	23.7865E-3	-16.8725E-3
722.861E-6	1.30850E-12	53.1515E-3	-18.1712E-3	1.34248E-12	25.1885E-3	-12.6615E-3
717.859E-6	1.26895E-12	38.3316E-3	-24.0116E-3	1.26077E-12	32.8750E-3	-13.7706E-3
712.856E-6	1.37899E-12	18.6806E-3	-19.1854E-3	1.28826E-12	31.4746E-3	-21.0163E-3
707.854E-6	1.37176E-12	17.5560E-3	-11.3069E-3	1.40994E-12	26.8618E-3	-18.3278E-3
702.851E-6	1.24620E-12	33.6345E-3	-11.6157E-3	1.27112E-12	23.7424E-3	-14.9643E-3
697.849E-6	1.24464E-12	48.8655E-3	-20.1198E-3	1.22312E-12	14.5245E-3	-26.7940E-3
692.846E-6	1.26282E-12	47.5293E-3	-30.3207E-3	1.29184E-12	21.9310E-3	-35.4458E-3
687.844E-6	1.21648E-12	33.2345E-3	-20.6354E-3	1.26957E-12	42.3476E-3	-18.3393E-3
682.841E-6	1.26065E-12	31.2492E-3	3.02421E-3	1.18779E-12	37.7378E-3	3.71443E-3
677.839E-6	1.17259E-12	49.7329E-3	4.07878E-3	1.22660E-12	26.9602E-3	4.70524E-3
672.836E-6	1.17913E-12	58.5758E-3	-16.7767E-3	1.19116E-12	38.7535E-3	-2.98322E-3
667.834E-6	1.16198E-12	48.4735E-3	-32.0779E-3	1.11293E-12	54.9801E-3	-6.45292E-3
662.831E-6	1.13600E-12	29.4731E-3	-30.3546E-3	1.14374E-12	54.7304E-3	-15.6689E-3
657.829E-6	1.16976E-12	20.8633E-3	-24.1462E-3	1.19017E-12	46.1998E-3	-20.7945E-3
652.826E-6	1.12053E-12	38.7492E-3	-19.2497E-3	1.19201E-12	34.2338E-3	-16.9519E-3
647.824E-6	1.06452E-12	52.8749E-3	-8.65183E-3	1.04762E-12	25.2271E-3	-20.3646E-3
642.821E-6	1.06148E-12	44.1031E-3	-762.957E-6	1.06248E-12	33.8740E-3	-19.1691E-3
637.819E-6	1.13795E-12	34.8751E-3	-5.59518E-3	1.06643E-12	42.3413E-3	-5.65524E-3
632.816E-6	1.07469E-12	41.0997E-3	-11.2017E-3	1.15486E-12	31.7785E-3	-1.78550E-3
627.814E-6	960.787E-15	54.1693E-3	-12.7706E-3	1.00132E-12	22.7034E-3	-11.1613E-3
622.811E-6	987.564E-15	59.7013E-3	-18.3125E-3	964.624E-15	25.2716E-3	-22.6668E-3
617.809E-6	1.09708E-12	58.0400E-3	-18.7768E-3	1.02396E-12	28.1476E-3	-18.0918E-3
612.806E-6	1.03021E-12	57.7915E-3	-14.1805E-3	1.07558E-12	39.5059E-3	3.29823E-3
607.804E-6	942.032E-15	59.7889E-3	-12.1406E-3	947.839E-15	55.3040E-3	10.3500E-3
602.801E-6	903.135E-15	59.7524E-3	-7.68488E-3	930.941E-15	60.9504E-3	1.99530E-3
597.799E-6	1.01904E-12	54.6698E-3	-11.6478E-3	978.304E-15	66.5708E-3	1.56451E-3
592.796E-6	962.505E-15	43.7926E-3	-26.8951E-3	984.111E-15	70.9307E-3	-756.897E-6
587.794E-6	888.251E-15	32.7709E-3	-26.9119E-3	905.280E-15	63.2975E-3	-13.0736E-3
582.791E-6	887.065E-15	32.6094E-3	-12.3638E-3	862.294E-15	51.0160E-3	-22.0918E-3
577.789E-6	960.430E-15	44.6348E-3	286.255E-6	896.561E-15	41.9943E-3	-20.8127E-3
572.786E-6	893.544E-15	52.3775E-3	5.62035E-3	927.776E-15	37.7388E-3	-21.2420E-3
567.784E-6	814.573E-15	46.5862E-3	-7.81771E-3	861.718E-15	33.1724E-3	-27.7703E-3
562.781E-6	831.602E-15	38.8352E-3	-15.9884E-3	850.967E-15	29.6320E-3	-18.9881E-3
557.779E-6	818.000E-15	38.2468E-3	-11.2298E-3	812.786E-15	36.8784E-3	-3.19497E-3
552.776E-6	828.541E-15	40.8539E-3	-13.9896E-3	794.022E-15	42.2279E-3	-1.76898E-3
547.774E-6	809.350E-15	43.9599E-3	-18.2119E-3	761.551E-15	39.2451E-3	-12.3038E-3
542.771E-6	768.622E-15	45.8099E-3	-19.1768E-3	819.037E-15	49.1836E-3	-18.0979E-3
537.769E-6	758.168E-15	45.2926E-3	-15.9641E-3	766.669E-15	58.6066E-3	-8.40813E-3
532.766E-6	667.888E-15	47.5830E-3	-9.53657E-3	700.246E-15	49.7830E-3	5.04660E-3
527.764E-6	734.826E-15	51.0183E-3	-5.11241E-3	731.783E-15	42.4192E-3	-411.438E-6
522.761E-6	784.570E-15	57.4987E-3	-3.58040E-3	726.360E-15	43.8063E-3	-24.3563E-3
517.759E-6	668.071E-15	59.6639E-3	-7.10571E-3	749.658E-15	47.3810E-3	-40.6402E-3
512.756E-6	612.913E-15	43.5722E-3	-5.55951E-3	686.608E-15	49.2859E-3	-33.8854E-3
507.754E-6	652.080E-15	40.9925E-3	3.28855E-3	587.548E-15	42.6088E-3	-20.7951E-3
502.751E-6	730.205E-15	55.9956E-3	923.941E-6	629.183E-15	29.8049E-3	-16.1754E-3
497.749E-6	622.975E-15	60.2984E-3	-11.4101E-3	724.686E-15	30.8450E-3	-21.1091E-3
492.746E-6	528.432E-15	54.3689E-3	-22.0372E-3	563.701E-15	42.3761E-3	-29.6836E-3
487.744E-6	532.643E-15	40.0373E-3	-25.6103E-3	550.805E-15	44.3747E-3	-22.2326E-3
482.741E-6	690.489E-15	27.1189E-3	-23.6434E-3	598.134E-15	41.0490E-3	-1.40551E-3
477.739E-6	615.939E-15	28.9164E-3	-16.2966E-3	616.392E-15	41.2750E-3	-2.41066E-3
472.736E-6	520.296E-15	47.0741E-3	-7.51525E-3	533.253E-15	36.7243E-3	-25.2630E-3
467.734E-6	515.483E-15	58.8326E-3	-10.7310E-3	500.033E-15	28.7170E-3	-30.8411E-3
462.731E-6	542.234E-15	42.4319E-3	-15.0985E-3	479.246E-15	27.6589E-3	-14.5995E-3
457.729E-6	545.931E-15	32.5972E-3	-9.41741E-3	546.698E-15	30.2648E-3	-2.88054E-3
452.726E-6	439.224E-15	49.3194E-3	-11.2146E-3	456.672E-15	29.8465E-3	-1.09524E-3
447.724E-6	469.681E-15	62.0561E-3	-24.4612E-3	420.085E-15	27.8023E-3	-1.87713E-3
442.721E-6	497.068E-15	50.5533E-3	-34.7687E-3	458.128E-15	38.5366E-3	-11.5541E-3
437.719E-6	439.652E-15	27.4155E-3	-30.3893E-3	449.086E-15	47.2564E-3	-20.5470E-3
432.716E-6	448.816E-15	18.1148E-3	-10.8962E-3	402.028E-15	40.1021E-3	-14.0662E-3
427.714E-6	347.532E-15	34.2638E-3	8.27930E-3	482.097E-15	36.7612E-3	-1.65587E-3
422.711E-6	405.359E-15	54.4334E-3	8.64758E-3	357.088E-15	32.0667E-3	-5.79704E-3
417.709E-6	378.712E-15	46.3158E-3	-9.17537E-3	339.842E-15	19.9889E-3	-24.7452E-3
412.706E-6	388.068E-15	28.0011E-3	-17.7097E-3	354.342E-15	16.9775E-3	-27.4283E-3
407.704E-6	380.413E-15	32.1293E-3	-7.70932E-3	414.557E-15	26.5095E-3	-8.19193E-3
402.701E-6	369.958E-15	48.0095E-3	-2.85262E-3	361.692E-15	31.3987E-3	1.55049E-3
397.699E-6	251.794E-15	54.9212E-3	-9.97220E-3	271.770E-15	26.7760E-3	-8.73558E-3
392.696E-6	327.844E-15	50.6245E-3	-18.5067E-3	252.806E-15	30.5508E-3	-17.8113E-3
387.694E-6	369.871E-15	41.5646E-3	-17.0283E-3	304.023E-15	50.2756E-3	-17.2961E-3
382.691E-6	262.170E-15	35.5752E-3	-10.3304E-3	360.567E-15	59.7698E-3	-11.9348E-3
377.689E-6	206.576E-15	42.4102E-3	-11.5068E-3	280.786E-15	46.7091E-3	-5.26921E-3
372.686E-6	259.511E-15	56.2528E-3	-20.6539E-3	181.822E-15	29.8661E-3	-17.4650E-3
367.684E-6	340.888E-15	54.2434E-3	-31.4048E-3	241.654E-15	26.6709E-3	-37.1447E-3
362.681E-6	258.011E-15	39.1344E-3	-34.6191E-3	322.726E-15	35.0508E-3	-32.0806E-3
357.679E-6	188.073E-15	35.8159E-3	-17.4753E-3	189.146E-15	33.4471E-3	-17.8023E-3
352.676E-6	157.129E-15	45.3067E-3	3.88811E-3	180.976E-15	25.4925E-3	-10.7855E-3
347.674E-6	236.099E-15	46.8260E-3	-133.955E-6	179.223E-15	20.1383E-3	-16.4360E-3
342.671E-6	252.091E-15	42.2845E-3	-16.9364E-3	231.879E-15	13.8314E-3	-28.0757E-3
337.669E-6	131.354E-15	36.5832E-3	-17.5557E-3	185.859E-15	22.7184E-3	-19.9619E-3
332.666E-6	133.351E-15	26.2012E-3	-2.90816E-3	126.437E-15	29.4471E-3	2.28844E-3
327.664E-6	194.962E-15	26.5707E-3	3.97251E-3	177.636E-15	14.7029E-3	6.16401E-3
322.661E-6	161.183E-15	40.4869E-3	-9.52165E-3	192.634E-15	3.73792E-3	-13.4834E-3
317.659E-6	124.501E-15	35.6076E-3	-27.5075E-3	134.955E-15	7.90639E-3	-28.1509E-3
312.656E-6	131.825E-15	19.4740E-3	-29.6868E-3	101.857E-15	21.6877E-3	-24.6316E-3
307.654E-6	131.433E-15	19.8583E-3	-20.1139E-3	151.435E-15	28.4211E-3	-18.3695E-3
302.651E-6	114.325E-15	24.8954E-3	-11.2723E-3	128.294E-15	17.5472E-3	-18.7901E-3
297.649E-6	80.9044E-15	26.6851E-3	-16.1531E-3	77.2161E-15	9.42552E-3	-24.0262E-3
292.646E-6	106.129E-15	20.2545E-3	-24.8489E-3	151.304E-15	17.8620E-3	-23.2656E-3
287.644E-6	43.1672E-15	1.65606E-3	-16.6994E-3	94.5065E-15	30.7534E-3	-10.7815E-3
282.641E-6	37.6304E-15	-5.71034E-3	6.73007E-3	8.08070E-15	29.2661E-3	-575.283E-6
277.639E-6	74.4085E-15	5.06737E-3	19.6330E-3	7.02566E-15	5.86026E-3	1.01331E-3
272.636E-6	94.5762E-15	14.9831E-3	526.289E-6	62.4979E-15	-7.24933E-3	-7.03093E-3
267.634E-6	54.4936E-15	17.0816E-3	-24.2999E-3	97.7152E-15	8.52100E-3	-26.0940E-3
262.631E-6	-2.62662E-15	12.2401E-3	-27.2899E-3	11.5510E-15	23.9971E-3	-30.4626E-3
257.629E-6	56.3072E-15	11.0004E-3	-16.4692E-3	-76.7320E-15	33.1317E-3	-16.7910E-3
252.626E-6	90.2689E-15	12.9688E-3	-17.5737E-3	-7.50071E-15	34.0717E-3	-7.75914E-3
247.624E-6	67.0668E-15	13.8705E-3	-27.6054E-3	85.5169E-15	25.5577E-3	-14.4285E-3
242.621E-6	-11.9301E-15	20.2300E-3	-18.8136E-3	44.9372E-15	31.2353E-3	-24.6612E-3
237.619E-6	5.52593E-15	18.6486E-3	-2.23734E-3	-53.4079E-15	39.7802E-3	-23.3401E-3
232.616E-6	28.8065E-15	5.20230E-3	-7.62088E-3	24.2376E-15	24.7464E-3	-15.9421E-3
227.614E-6	-4.48383E-15	6.09017E-3	-17.5600E-3	7.14773E-15	7.21404E-3	-7.92698E-3
222.611E-6	-65.8852E-15	20.0949E-3	-12.8843E-3	-20.3181E-15	-1.06042E-3	-20.3125E-3
217.609E-6	-48.6471E-15	25.9541E-3	-15.2507E-3	-55.8144E-15	-9.84952E-3	-48.6523E-3
212.606E-6	25.5803E-15	20.9049E-3	-21.2421E-3	-9.33176E-15	-525.356E-6	-46.9536E-3
207.604E-6	-7.97155E-15	12.1156E-3	-14.6858E-3	13.4605E-15	18.1091E-3	-21.9075E-3
202.601E-6	-50.4695E-15	11.7436E-3	-11.2356E-3	-13.0898E-15	23.1747E-3	-12.8684E-3
197.599E-6	-30.7551E-15	22.5275E-3	-19.2049E-3	-92.4616E-15	16.4307E-3	-26.0692E-3
192.596E-6	-36.3267E-15	28.4749E-3	-16.0689E-3	-35.5856E-15	15.2955E-3	-41.8415E-3
187.594E-6	-66.0073E-15	18.4862E-3	-1.66896E-3	-66.8356E-15	23.2237E-3	-37.8020E-3
182.591E-6	-72.3985E-15	3.47503E-3	-1.38243E-3	-95.4436E-15	16.2681E-3	-20.1676E-3
177.589E-6	-92.5227E-15	-4.79762E-3	-5.71116E-3	-37.5998E-15	1.81233E-3	-8.60045E-3
172.586E-6	-84.5096E-15	-5.51342E-3	-10.7552E-3	-65.4231E-15	1.45102E-3	-10.3346E-3
167.584E-6	-58.8923E-15	597.787E-6	-24.6642E-3	-111.679E-15	12.1982E-3	-19.1457E-3
162.581E-6	-71.3522E-15	1.71362E-3	-26.3867E-3	-81.8415E-15	22.5930E-3	-24.3028E-3
157.579E-6	-31.7840E-15	80.3140E-6	-17.0177E-3	-61.5691E-15	17.7060E-3	-16.7243E-3
152.576E-6	-83.3325E-15	10.2189E-3	-11.8074E-3	-40.2068E-15	-40.4485E-6	-8.47594E-3
147.574E-6	-172.086E-15	18.9680E-3	-2.51729E-3	-104.913E-15	-6.13183E-3	-13.6308E-3
142.571E-6	-111.888E-15	20.1899E-3	-3.82096E-3	-145.763E-15	1.81082E-3	-14.8398E-3
137.569E-6	-29.8832E-15	17.5337E-3	-27.4002E-3	-102.480E-15	7.50406E-3	-8.80753E-3
132.566E-6	-94.4409E-15	8.66108E-3	-37.7497E-3	-60.5839E-15	2.73730E-3	-5.20017E-3
127.564E-6	-181.747E-15	10.5194E-3	-23.2726E-3	-124.950E-15	-1.03760E-3	-4.43639E-3
122.561E-6	-158.493E-15	23.3695E-3	-17.2061E-3	-161.362E-15	-2.42527E-3	-10.7896E-3
117.559E-6	-27.7295E-15	25.4411E-3	-19.4109E-3	-115.219E-15	-5.61653E-3	-20.4147E-3
112.556E-6	-86.2971E-15	15.7178E-3	-11.5602E-3	-66.7135E-15	5.91751E-3	-23.7298E-3
107.554E-6	-164.727E-15	5.40122E-3	-5.47654E-3	-159.670E-15	11.7466E-3	-21.4528E-3
102.551E-6	-152.389E-15	-3.84411E-3	-4.18859E-3	-188.086E-15	860.125E-6	-19.5200E-3
97.5488E-6	-65.4405E-15	-12.2836E-3	1.61957E-3	-124.828E-15	-4.84849E-3	-18.0812E-3
92.5463E-6	-97.9287E-15	-15.9756E-3	3.27065E-3	-98.1030E-15	-6.16160E-3	-19.7470E-3
87.5438E-6	-167.352E-15	-18.5810E-3	-4.51228E-3	-140.924E-15	489.929E-6	-22.1415E-3
82.5413E-6	-158.946E-15	-20.5148E-3	-9.35073E-3	-163.114E-15	2.84666E-3	-12.7272E-3
77.5388E-6	-103.064E-15	-17.3133E-3	-29.3485E-6	-141.272E-15	-6.15409E-3	-7.25329E-3
72.5363E-6	-144.307E-15	-5.94488E-3	5.37705E-3	-72.2067E-15	-11.6315E-3	-20.4805E-3
67.5338E-6	-169.148E-15	4.19705E-3	-7.84889E-3	-168.747E-15	-11.2658E-3	-29.2255E-3
62.5313E-6	-118.707E-15	-630.659E-6	-18.3709E-3	-208.847E-15	-2.17094E-3	-20.6717E-3
57.5288E-6	-135.936E-15	-10.0376E-3	-15.8643E-3	-138.168E-15	7.39154E-3	-4.92910E-3
52.5263E-6	-171.598E-15	-6.96474E-3	-13.7715E-3	-126.702E-15	7.25085E-3	2.18417E-3
47.5238E-6	-135.247E-15	6.12343E-3	-14.9346E-3	-130.687E-15	296.552E-6	-7.60015E-3
42.5213E-6	-197.050E-15	14.6588E-3	-17.8604E-3	-121.567E-15	-5.20366E-3	-22.0140E-3
37.5188E-6	-162.826E-15	10.3022E-3	-24.2238E-3	-137.288E-15	1.59474E-3	-25.8286E-3
32.5163E-6	-228.021E-15	-2.37578E-3	-21.6924E-3	-203.607E-15	12.3066E-3	-11.4362E-3
27.5138E-6	-148.230E-15	-3.23324E-3	-19.6068E-3	-171.275E-15	12.8409E-3	1.53551E-3
22.5113E-6	-86.5761E-15	6.14928E-3	-26.7104E-3	-169.279E-15	10.9300E-3	-10.1245E-3
17.5088E-6	-192.882E-15	5.08383E-3	-24.5054E-3	-106.753E-15	12.7622E-3	-25.9888E-3
12.5063E-6	-212.047E-15	2.15925E-3	-15.9581E-3	-168.006E-15	14.5769E-3	-24.4002E-3
7.50375E-6	-162.783E-15	-118.278E-6	-18.5588E-3	-234.107E-15	8.65281E-3	-17.8477E-3
2.50125E-6	-123.250E-15	-4.38447E-3	-22.1633E-3	-128.612E-15	-8.06812E-3	-9.66394E-3
-2.50125E-6	-161.257E-15	2.09190E-3	-12.6614E-3	-90.4126E-15	-15.4973E-3	3.35933E-3
-7.50375E-6	-268.461E-15	13.5349E-3	-4.81222E-3	-204.330E-15	-5.83755E-3	1.05239E-3
-12.5063E-6	-237.621E-15	12.2108E-3	-10.9570E-3	-212.954E-15	5.60052E-3	-10.3681E-3
-17.5088E-6	-138.142E-15	-2.14329E-3	-9.58504E-3	-147.777E-15	6.00021E-3	-2.50666E-3
-22.5113E-6	-148.361E-15	-9.11107E-3	-1.16987E-3	-135.099E-15	-3.88583E-3	10.4454E-3
-27.5138E-6	-221.682E-15	5.46914E-3	-494.917E-6	-204.086E-15	-10.8031E-3	-459.892E-6
-32.5163E-6	-229.791E-15	19.4997E-3	-5.60238E-3	-260.518E-15	-8.59282E-3	-27.3244E-3
-37.5188E-6	-107.877E-15	14.7924E-3	-20.2139E-3	-196.160E-15	8.41597E-3	-39.3195E-3
-42.5213E-6	-191.060E-15	11.3467E-3	-38.1501E-3	-156.174E-15	22.2504E-3	-26.5466E-3
-47.5238E-6	-222.911E-15	6.96164E-3	-32.9993E-3	-176.219E-15	12.9846E-3	-15.7406E-3
-52.5263E-6	-176.019E-15	-3.89194E-3	-13.7084E-3	-253.455E-15	-1.23628E-3	-17.4874E-3
-57.5288E-6	-212.108E-15	-2.22517E-3	-14.5968E-3	-210.495E-15	-8.05673E-3	-17.1462E-3
-62.5313E-6	-223.216E-15	10.1409E-3	-13.2913E-3	-192.158E-15	-2.01935E-3	-14.7519E-3
-67.5338E-6	-212.535E-15	14.5193E-3	-3.29311E-3	-196.701E-15	17.3513E-3	-9.37611E-3
-72.5363E-6	-211.384E-15	-2.97709E-3	-6.96927E-3	-200.075E-15	27.2768E-3	-1.01953E-3
-77.5388E-6	-223.051E-15	-9.71320E-3	-14.6113E-3	-222.536E-15	21.7569E-3	-1.78729E-3
-82.5413E-6	-257.693E-15	1.80041E-3	-24.7513E-3	-253.839E-15	18.1329E-3	-9.75140E-3
-87.5438E-6	-245.268E-15	-36.8649E-6	-32.1279E-3	-208.917E-15	13.3270E-3	-13.5300E-3
-92.5463E-6	-201.409E-15	-3.74396E-3	-25.9956E-3	-193.501E-15	3.64789E-3	-18.5561E-3
-97.5488E-6	-259.541E-15	-35.8538E-6	-12.4059E-3	-180.405E-15	4.54552E-3	-22.4719E-3
-102.551E-6	-315.563E-15	8.42010E-3	-4.84153E-3	-293.651E-15	13.6410E-3	-14.6567E-3
-107.554E-6	-202.804E-15	20.9601E-3	-13.6029E-3	-309.817E-15	14.2339E-3	-12.4806E-3
-112.556E-6	-198.637E-15	25.6634E-3	-40.2451E-3	-247.971E-15	10.3132E-3	-22.1462E-3
-117.559E-6	-266.063E-15	11.5236E-3	-56.6810E-3	-143.609E-15	2.52684E-3	-30.8464E-3
-122.561E-6	-328.947E-15	1.41870E-3	-38.6829E-3	-259.149E-15	-12.3372E-3	-32.0869E-3
-127.564E-6	-261.119E-15	5.61484E-3	-18.4734E-3	-327.212E-15	-12.5807E-3	-26.8676E-3
-132.566E-6	-194.704E-15	11.5141E-3	-16.5658E-3	-256.018E-15	7.03750E-3	-23.5709E-3
-137.569E-6	-251.920E-15	4.21873E-3	-15.5831E-3	-188.732E-15	15.2641E-3	-19.4439E-3
-142.571E-6	-329.269E-15	-4.50343E-3	-6.68177E-3	-292.640E-15	9.18655E-3	-18.1532E-3
-147.574E-6	-314.115E-15	8.32206E-3	1.63782E-3	-328.668E-15	5.68511E-3	-20.3096E-3
-152.576E-6	-230.889E-15	11.0144E-3	994.115E-6	-269.995E-15	-879.822E-6	-17.7971E-3
-157.579E-6	-244.038E-15	4.55716E-3	-13.7138E-3	-230.113E-15	-228.585E-6	-19.0768E-3
-162.581E-6	-292.064E-15	12.5334E-3	-30.1934E-3	-289.387E-15	19.0808E-3	-27.5191E-3
-167.584E-6	-333.280E-15	10.4326E-3	-29.1171E-3	-340.378E-15	33.7415E-3	-30.7313E-3
-172.586E-6	-274.939E-15	-7.46511E-3	-12.2846E-3	-282.577E-15	23.2481E-3	-24.3217E-3
-177.589E-6	-314.760E-15	-1.38726E-3	1.62299E-3	-274.852E-15	13.5026E-3	-15.8025E-3
-182.591E-6	-376.205E-15	32.2106E-3	885.236E-6	-320.576E-15	13.7755E-3	-9.92855E-3
-187.594E-6	-354.608E-15	49.0870E-3	-9.03282E-3	-333.516E-15	6.55076E-3	-14.4598E-3
-192.596E-6	-355.209E-15	33.4746E-3	-15.9862E-3	-312.023E-15	3.47134E-3	-27.1573E-3
-197.599E-6	-322.303E-15	7.98988E-3	-10.2534E-3	-357.494E-15	10.9440E-3	-34.2094E-3
-202.601E-6	-331.013E-15	9.31498E-3	-4.51704E-3	-349.768E-15	20.3743E-3	-34.3540E-3
-207.604E-6	-321.309E-15	29.9401E-3	-14.9454E-3	-319.600E-15	26.0688E-3	-33.6166E-3
-212.606E-6	-337.527E-15	30.5299E-3	-24.4828E-3	-357.956E-15	26.5386E-3	-30.9003E-3
-217.609E-6	-401.291E-15	9.21443E-3	-21.6861E-3	-439.813E-15	24.2599E-3	-19.5673E-3
-222.611E-6	-382.588E-15	-5.72785E-3	-20.2584E-3	-416.009E-15	23.6524E-3	-10.6700E-3
-227.614E-6	-335.504E-15	1.88766E-3	-21.8262E-3	-337.474E-15	21.7897E-3	-14.1307E-3
-232.616E-6	-389.258E-15	20.7918E-3	-31.2520E-3	-300.687E-15	18.8902E-3	-26.2442E-3
-237.619E-6	-429.681E-15	23.9174E-3	-44.4881E-3	-418.773E-15	25.0030E-3	-39.4337E-3
-242.621E-6	-380.827E-15	16.2730E-3	-46.3123E-3	-508.695E-15	35.0411E-3	-38.1569E-3
-247.624E-6	-330.821E-15	22.0954E-3	-32.6932E-3	-436.465E-15	40.8174E-3	-20.9103E-3
-252.626E-6	-394.280E-15	37.7445E-3	-6.48797E-3	-338.712E-15	38.4435E-3	-8.26742E-3
-257.629E-6	-492.748E-15	45.6341E-3	6.97461E-3	-436.482E-15	36.1119E-3	-14.1530E-3
-262.631E-6	-480.802E-15	41.6360E-3	-2.96791E-3	-533.554E-15	36.3038E-3	-21.7424E-3
-267.634E-6	-425.278E-15	34.6949E-3	-14.4361E-3	-445.097E-15	35.1578E-3	-19.1533E-3
-272.636E-6	-460.521E-15	25.6548E-3	-13.3523E-3	-460.582E-15	28.1793E-3	-16.7498E-3
-277.639E-6	-531.566E-15	22.4066E-3	-10.0486E-3	-498.058E-15	13.5548E-3	-15.0559E-3
-282.641E-6	-510.448E-15	34.2408E-3	-6.93001E-3	-535.176E-15	8.61347E-3	-16.9237E-3
-287.644E-6	-436.970E-15	45.2415E-3	-10.8422E-3	-508.913E-15	24.1361E-3	-25.6735E-3
-292.646E-6	-523.780E-15	47.5366E-3	-21.9523E-3	-453.101E-15	39.3243E-3	-21.2400E-3
-297.649E-6	-591.067E-15	51.7060E-3	-16.4830E-3	-519.839E-15	38.7872E-3	-11.7272E-3
-302.651E-6	-560.584E-15	51.2390E-3	-4.91070E-3	-599.228E-15	39.6271E-3	-15.9807E-3
-307.654E-6	-511.058E-15	42.6777E-3	-9.00793E-3	-570.044E-15	48.9797E-3	-12.8472E-3
-312.656E-6	-558.256E-15	38.1644E-3	-22.3261E-3	-538.550E-15	59.2724E-3	-9.17427E-3
-317.659E-6	-590.134E-15	33.9049E-3	-20.6626E-3	-625.865E-15	66.3555E-3	-17.2877E-3
-322.661E-6	-604.887E-15	27.0041E-3	-7.05851E-3	-601.469E-15	65.1616E-3	-17.0914E-3
-327.664E-6	-611.897E-15	31.0900E-3	-2.56736E-3	-642.903E-15	57.5188E-3	-11.1323E-3
-332.666E-6	-676.141E-15	46.4933E-3	-287.571E-6	-691.731E-15	44.2766E-3	-11.5594E-3
-337.669E-6	-636.398E-15	54.9736E-3	-8.87865E-3	-696.387E-15	37.0161E-3	-16.2770E-3
-342.671E-6	-626.423E-15	43.0643E-3	-19.2503E-3	-654.770E-15	40.9889E-3	-15.1408E-3
-347.674E-6	-685.645E-15	27.5311E-3	-9.55555E-3	-652.555E-15	38.7202E-3	-8.84626E-3
-352.676E-6	-757.126E-15	32.2091E-3	908.151E-6	-742.765E-15	28.3450E-3	-6.30933E-3
-357.679E-6	-681.381E-15	56.5342E-3	-7.55606E-3	-785.542E-15	27.8451E-3	-5.34057E-3
-362.681E-6	-637.785E-15	74.5930E-3	-21.2173E-3	-741.666E-15	40.6445E-3	-12.5415E-3
-367.684E-6	-744.064E-15	64.4488E-3	-19.4420E-3	-687.406E-15	49.1186E-3	-17.6117E-3
-372.686E-6	-881.219E-15	40.6634E-3	-15.7277E-3	-801.036E-15	48.9981E-3	-4.72433E-3
-377.689E-6	-790.564E-15	31.3397E-3	-14.7261E-3	-886.241E-15	50.7767E-3	-1.34625E-3
-382.691E-6	-709.422E-15	46.3870E-3	-14.7990E-3	-762.619E-15	46.1504E-3	-20.3859E-3
-387.694E-6	-795.090E-15	55.4809E-3	-26.3620E-3	-756.045E-15	42.0816E-3	-29.1774E-3
-392.696E-6	-890.304E-15	44.5804E-3	-35.7750E-3	-862.673E-15	55.3262E-3	-22.6549E-3
-397.699E-6	-899.503E-15	42.2528E-3	-25.8965E-3	-930.030E-15	57.8808E-3	-20.3680E-3
-402.701E-6	-859.953E-15	55.1275E-3	-12.4139E-3	-862.595E-15	47.2207E-3	-17.9597E-3
-407.704E-6	-855.698E-15	62.8253E-3	-18.9427E-3	-832.574E-15	53.2098E-3	-14.3827E-3
-412.706E-6	-967.366E-15	62.7727E-3	-28.9308E-3	-891.830E-15	65.7653E-3	-19.9636E-3
-417.709E-6	-961.663E-15	65.8251E-3	-33.7396E-3	-970.880E-15	65.2176E-3	-22.9630E-3
-422.711E-6	-930.422E-15	63.3320E-3	-41.0934E-3	-965.351E-15	61.3407E-3	-10.8468E-3
-427.714E-6	-1.00266E-12	63.9476E-3	-33.5350E-3	-938.679E-15	63.2830E-3	-462.097E-6
-432.716E-6	-1.00542E-12	72.1781E-3	-16.4950E-3	-1.03167E-12	61.7136E-3	-5.00306E-3
-437.719E-6	-1.07967E-12	76.2794E-3	-13.7301E-3	-1.02835E-12	57.8866E-3	-12.0878E-3
-442.721E-6	-1.09876E-12	74.0403E-3	-20.2760E-3	-1.03684E-12	62.5788E-3	-13.9432E-3
-447.724E-6	-1.09338E-12	62.8892E-3	-13.2648E-3	-1.09011E-12	67.4924E-3	-18.2405E-3
-452.726E-6	-1.09786E-12	64.8298E-3	-1.07206E-3	-1.12438E-12	63.4776E-3	-27.7693E-3
-457.729E-6	-1.13524E-12	77.9407E-3	-3.88866E-3	-1.03753E-12	62.8216E-3	-30.6771E-3
-462.731E-6	-1.16331E-12	77.1865E-3	-11.1004E-3	-1.11865E-12	62.3574E-3	-22.5455E-3
-467.734E-6	-1.24654E-12	65.8796E-3	-12.2436E-3	-1.21580E-12	62.5022E-3	-12.6079E-3
-472.736E-6	-1.23829E-12	54.9410E-3	-4.51883E-3	-1.21139E-12	73.2136E-3	-13.8472E-3
-477.739E-6	-1.17397E-12	57.2282E-3	5.91855E-3	-1.19698E-12	73.2787E-3	-25.0730E-3
-482.741E-6	-1.26856E-12	69.0575E-3	4.58214E-3	-1.15256E-12	68.9363E-3	-29.7773E-3
-487.744E-6	-1.37161E-12	74.7072E-3	-5.04326E-3	-1.23837E-12	74.2961E-3	-30.6932E-3
-492.746E-6	-1.29553E-12	71.1037E-3	-11.9292E-3	-1.35686E-12	72.9402E-3	-35.5796E-3
-497.749E-6	-1.24494E-12	64.3118E-3	-12.9853E-3	-1.27772E-12	69.8365E-3	-33.4839E-3
-502.751E-6	-1.32754E-12	67.7639E-3	-10.0759E-3	-1.22567E-12	71.0561E-3	-23.0357E-3
-507.754E-6	-1.44437E-12	84.1732E-3	-7.17844E-3	-1.30616E-12	62.0629E-3	-16.3810E-3
-512.756E-6	-1.41350E-12	93.1640E-3	-9.24122E-3	-1.42573E-12	55.0012E-3	-9.10367E-3
-517.759E-6	-1.33447E-12	77.2834E-3	-14.1057E-3	-1.40556E-12	69.0899E-3	-9.40574E-3
-522.761E-6	-1.36365E-12	55.6054E-3	-2.09623E-3	-1.35731E-12	78.4085E-3	-19.7874E-3
-527.764E-6	-1.49310E-12	68.6073E-3	19.7566E-3	-1.44422E-12	66.3454E-3	-14.6151E-3
-532.766E-6	-1.48361E-12	96.3314E-3	13.8822E-3	-1.59744E-12	62.4517E-3	-10.7392E-3
-537.769E-6	-1.45383E-12	100.310E-3	-16.1414E-3	-1.52323E-12	69.6792E-3	-23.6485E-3
-542.771E-6	-1.47581E-12	83.7032E-3	-35.6018E-3	-1.45441E-12	71.6487E-3	-20.2190E-3
-547.774E-6	-1.58036E-12	55.9540E-3	-39.5809E-3	-1.56173E-12	72.6161E-3	-4.74206E-3
-552.776E-6	-1.57070E-12	47.1253E-3	-37.1836E-3	-1.65716E-12	71.4461E-3	-5.19927E-3
-557.779E-6	-1.55619E-12	68.4605E-3	-28.3792E-3	-1.57626E-12	66.4745E-3	-13.9688E-3
-562.781E-6	-1.59638E-12	85.4176E-3	-15.9982E-3	-1.64292E-12	68.3669E-3	-15.3827E-3
-567.784E-6	-1.58687E-12	80.3951E-3	-10.8938E-3	-1.66449E-12	73.6592E-3	-16.7396E-3
-572.786E-6	-1.66075E-12	67.4124E-3	-13.2009E-3	-1.71586E-12	77.7682E-3	-22.3654E-3
-577.789E-6	-1.71027E-12	58.7431E-3	-11.6764E-3	-1.67299E-12	72.7764E-3	-18.1243E-3
-582.791E-6	-1.74928E-12	63.9222E-3	-17.5980E-3	-1.77309E-12	53.5395E-3	-8.67571E-3
-587.794E-6	-1.76537E-12	79.3672E-3	-31.0211E-3	-1.75156E-12	42.0861E-3	-13.9875E-3
-592.796E-6	-1.73204E-12	76.6763E-3	-34.3267E-3	-1.77305E-12	48.9901E-3	-27.3564E-3
-597.799E-6	-1.79648E-12	59.4558E-3	-27.6699E-3	-1.75769E-12	56.6977E-3	-25.8925E-3
-602.801E-6	-1.84736E-12	56.0283E-3	-11.1889E-3	-1.83447E-12	47.9797E-3	-13.6764E-3
-607.804E-6	-1.85340E-12	61.9268E-3	5.54513E-3	-1.93418E-12	40.9285E-3	-9.90295E-3
-612.806E-6	-1.80331E-12	61.6682E-3	5.58250E-3	-1.84469E-12	52.0578E-3	-9.23587E-3
-617.809E-6	-1.90069E-12	65.6044E-3	-7.21933E-3	-1.80677E-12	70.8916E-3	-5.33906E-3
-622.811E-6	-2.03035E-12	67.3659E-3	-17.2351E-3	-1.92549E-12	82.9069E-3	-10.6668E-3
-627.814E-6	-1.98249E-12	61.2791E-3	-16.7553E-3	-1.99541E-12	83.4038E-3	-21.6568E-3
-632.816E-6	-1.88374E-12	70.2747E-3	-14.0228E-3	-1.91223E-12	73.6746E-3	-28.2593E-3
-637.819E-6	-1.95733E-12	74.7406E-3	-15.5482E-3	-1.90338E-12	62.8409E-3	-29.6578E-3
-642.821E-6	-2.03727E-12	60.4426E-3	-16.7625E-3	-2.00501E-12	62.1150E-3	-28.6659E-3
-647.824E-6	-2.07012E-12	53.4704E-3	-14.7627E-3	-2.05649E-12	60.4696E-3	-26.7475E-3
-652.826E-6	-1.98545E-12	48.1992E-3	-4.34676E-3	-2.00502E-12	55.8056E-3	-21.9670E-3
-657.829E-6	-2.03960E-12	40.7573E-3	4.08743E-3	-2.01561E-12	56.4666E-3	-9.59059E-3
-662.831E-6	-2.09434E-12	43.3377E-3	-9.02045E-3	-2.11502E-12	60.4863E-3	2.21365E-3
-667.834E-6	-2.19762E-12	46.7813E-3	-29.4821E-3	-2.18378E-12	67.8545E-3	3.55015E-3
-672.836E-6	-2.10762E-12	49.2158E-3	-29.6298E-3	-2.14874E-12	77.0594E-3	-1.25852E-3
-677.839E-6	-2.22900E-12	49.9775E-3	-14.5217E-3	-2.14513E-12	67.2720E-3	-10.5033E-3
-682.841E-6	-2.20508E-12	47.6195E-3	-4.95688E-3	-2.17317E-12	48.8406E-3	-12.4996E-3
-687.844E-6	-2.20774E-12	54.4113E-3	-13.7377E-3	-2.18185E-12	54.9906E-3	-11.4109E-3
-692.846E-6	-2.23780E-12	62.3475E-3	-27.8839E-3	-2.22141E-12	54.2415E-3	-20.9843E-3
-697.849E-6	-2.25128E-12	56.3011E-3	-29.2995E-3	-2.19967E-12	41.4662E-3	-16.1910E-3
-702.851E-6	-2.25335E-12	49.1237E-3	-26.5365E-3	-2.22980E-12	56.7727E-3	3.04216E-3
-707.854E-6	-2.26191E-12	58.2741E-3	-25.1854E-3	-2.16402E-12	80.6933E-3	938.355E-6
-712.856E-6	-2.32821E-12	67.2372E-3	-24.0789E-3	-2.26799E-12	73.9169E-3	-19.1952E-3
-717.859E-6	-2.39264E-12	61.5505E-3	-22.1382E-3	-2.25559E-12	60.3054E-3	-28.7272E-3
-722.861E-6	-2.32644E-12	56.8550E-3	-11.2510E-3	-2.30491E-12	60.0632E-3	-22.7176E-3
-727.864E-6	-2.31177E-12	57.5031E-3	-1.41071E-3	-2.27306E-12	48.5317E-3	-24.1004E-3
-732.866E-6	-2.32329E-12	56.1116E-3	-1.92272E-3	-2.21553E-12	34.8521E-3	-30.1222E-3
-737.869E-6	-2.43462E-12	58.0471E-3	-7.95494E-3	-2.32663E-12	38.0680E-3	-23.5962E-3
-742.871E-6	-2.38901E-12	55.8025E-3	-18.9477E-3	-2.48023E-12	46.0941E-3	-10.8970E-3
-747.874E-6	-2.27230E-12	52.7786E-3	-23.3606E-3	-2.34334E-12	52.5720E-3	-4.62134E-3
-752.876E-6	-2.37458E-12	46.0937E-3	-13.0379E-3	-2.30118E-12	58.4919E-3	-12.2588E-3
-757.879E-6	-2.47972E-12	31.1107E-3	-5.79882E-3	-2.46453E-12	54.7548E-3	-17.6343E-3
-762.881E-6	-2.50473E-12	33.4032E-3	-15.9130E-3	-2.46681E-12	42.4376E-3	-8.45987E-3
-767.884E-6	-2.44629E-12	42.6506E-3	-31.3297E-3	-2.44703E-12	31.8845E-3	-5.13863E-3
-772.886E-6	-2.44231E-12	42.5154E-3	-22.9693E-3	-2.45421E-12	30.0144E-3	-11.5512E-3
-777.889E-6	-2.57727E-12	49.7178E-3	-4.44002E-3	-2.52431E-12	39.5944E-3	-11.4993E-3
-782.891E-6	-2.58600E-12	67.0374E-3	-2.06415E-3	-2.57406E-12	47.5274E-3	-9.25227E-3
-787.894E-6	-2.50638E-12	74.5751E-3	-3.69282E-3	-2.48680E-12	42.2421E-3	-11.4019E-3
-792.896E-6	-2.54764E-12	66.3998E-3	-4.67352E-3	-2.50663E-12	40.2786E-3	-6.10459E-3
-797.899E-6	-2.60606E-12	53.1189E-3	-15.4395E-3	-2.52442E-12	45.7977E-3	-1.98113E-3
-802.901E-6	-2.63378E-12	44.8765E-3	-22.5445E-3	-2.60640E-12	45.5353E-3	-15.0347E-3
-807.904E-6	-2.59454E-12	47.7833E-3	-10.9317E-3	-2.54794E-12	41.8528E-3	-26.9080E-3
-812.906E-6	-2.63286E-12	53.4321E-3	-7.63396E-3	-2.59714E-12	45.3706E-3	-28.1690E-3
-817.909E-6	-2.61635E-12	49.6954E-3	-22.1811E-3	-2.56291E-12	56.5371E-3	-28.4302E-3
-822.911E-6	-2.67032E-12	48.2416E-3	-29.1166E-3	-2.66231E-12	59.6312E-3	-23.4922E-3
-827.914E-6	-2.69877E-12	58.9262E-3	-29.8802E-3	-2.61937E-12	54.1532E-3	-19.7749E-3
-832.916E-6	-2.71174E-12	65.0229E-3	-29.5096E-3	-2.72813E-12	49.9799E-3	-29.7315E-3
-837.919E-6	-2.71400E-12	65.8988E-3	-27.5744E-3	-2.70329E-12	49.0835E-3	-33.3992E-3
-842.921E-6	-2.63208E-12	61.4516E-3	-32.2350E-3	-2.69513E-12	55.9828E-3	-17.8122E-3
-847.924E-6	-2.73896E-12	42.8471E-3	-29.2975E-3	-2.73475E-12	61.8534E-3	-10.9337E-3
-852.926E-6	-2.83082E-12	45.0404E-3	-19.7567E-3	-2.76802E-12	52.1049E-3	-14.9223E-3
-857.929E-6	-2.72309E-12	66.6771E-3	-12.2731E-3	-2.83321E-12	44.8185E-3	-9.96536E-3
-862.931E-6	-2.69941E-12	68.1926E-3	-4.29023E-3	-2.86369E-12	46.8585E-3	-5.19522E-3
-867.934E-6	-2.83016E-12	58.6106E-3	-5.96834E-3	-2.76970E-12	57.6181E-3	-6.62985E-3
-872.936E-6	-2.93599E-12	54.6646E-3	-11.6667E-3	-2.88935E-12	77.1143E-3	-9.02140E-3
-877.939E-6	-2.89791E-12	56.3294E-3	-12.4528E-3	-3.00209E-12	82.6494E-3	-12.0277E-3
-882.941E-6	-2.81222E-12	58.8781E-3	-12.5688E-3	-2.93075E-12	70.4075E-3	-14.9602E-3
-887.944E-6	-2.88606E-12	63.9607E-3	-19.0342E-3	-2.88509E-12	61.9372E-3	-13.7606E-3
-892.946E-6	-2.98763E-12	64.0824E-3	-26.1130E-3	-2.99000E-12	69.0422E-3	-8.73310E-3
-897.949E-6	-2.99764E-12	54.0496E-3	-17.1023E-3	-3.02690E-12	73.6303E-3	-5.59772E-3
-902.951E-6	-3.00291E-12	54.0883E-3	-3.44644E-3	-2.96441E-12	73.6986E-3	-2.51037E-3
-907.954E-6	-3.00397E-12	70.1441E-3	1.21476E-3	-2.97676E-12	74.6644E-3	-8.50481E-3
-912.956E-6	-3.16056E-12	84.7916E-3	937.370E-6	-3.06092E-12	66.4782E-3	-26.6743E-3
-917.959E-6	-3.15472E-12	91.5436E-3	374.669E-6	-3.16874E-12	66.4789E-3	-24.9019E-3
-922.961E-6	-3.09189E-12	85.7785E-3	-1.41200E-3	-3.13531E-12	82.6495E-3	-8.52880E-3
-927.964E-6	-3.19360E-12	75.2663E-3	-2.63459E-3	-3.13553E-12	95.6444E-3	-7.47565E-3
-932.966E-6	-3.24208E-12	80.3189E-3	-490.226E-6	-3.22911E-12	100.454E-3	-16.9574E-3
-937.969E-6	-3.25318E-12	83.7154E-3	-3.00769E-3	-3.28302E-12	103.730E-3	-23.6421E-3
-942.971E-6	-3.31501E-12	79.1010E-3	-6.33051E-3	-3.32992E-12	105.055E-3	-16.2100E-3
-947.974E-6	-3.30635E-12	87.3668E-3	-890.991E-6	-3.33833E-12	113.340E-3	-43.5792E-6
-952.976E-6	-3.28151E-12	98.1970E-3	12.3291E-3	-3.37941E-12	129.186E-3	-5.09396E-3
-957.979E-6	-3.33477E-12	103.972E-3	15.5308E-3	-3.38379E-12	128.939E-3	-22.8668E-3
-962.981E-6	-3.44094E-12	112.242E-3	-7.84003E-3	-3.43176E-12	120.758E-3	-26.2940E-3
-967.984E-6	-3.48031E-12	113.590E-3	-31.3670E-3	-3.54548E-12	124.423E-3	-26.4759E-3
-972.986E-6	-3.48892E-12	99.6881E-3	-25.0397E-3	-3.60127E-12	134.439E-3	-25.5961E-3
-977.989E-6	-3.52708E-12	95.7603E-3	-15.0860E-3	-3.56343E-12	140.419E-3	-14.0268E-3
-982.991E-6	-3.61859E-12	113.075E-3	-17.8371E-3	-3.53917E-12	144.845E-3	-4.49887E-3
-987.994E-6	-3.67489E-12	129.824E-3	-21.1797E-3	-3.64383E-12	148.888E-3	-11.5887E-3
-992.997E-6	-3.67877E-12	131.097E-3	-31.9757E-3	-3.74008E-12	152.800E-3	-14.8686E-3
-997.999E-6	-3.58902E-12	121.258E-3	-39.0329E-3	-3.66188E-12	166.441E-3	362.305E-6
-1.00300E-3	-3.69963E-12	121.241E-3	-26.7002E-3	-3.69228E-12	172.736E-3	4.83541E-3
-1.00800E-3	-3.91399E-12	138.963E-3	-691.938E-6	-3.78715E-12	168.051E-3	-9.43317E-3
-1.01301E-3	-3.97048E-12	159.074E-3	9.11898E-3	-3.94088E-12	182.469E-3	-21.2322E-3
-1.01801E-3	-3.92507E-12	165.725E-3	-14.1761E-3	-3.89185E-12	199.845E-3	-21.3195E-3
-1.02301E-3	-4.00839E-12	161.527E-3	-32.8916E-3	-3.87591E-12	197.229E-3	-15.0451E-3
-1.02801E-3	-4.15855E-12	154.727E-3	-22.4348E-3	-3.98080E-12	200.093E-3	-8.30836E-3
-1.03302E-3	-4.22158E-12	155.656E-3	-9.53045E-3	-4.17147E-12	209.807E-3	-10.2898E-3
-1.03802E-3	-4.11015E-12	173.310E-3	-10.1172E-3	-4.19673E-12	211.299E-3	-14.3634E-3
-1.04302E-3	-4.25711E-12	195.409E-3	-21.1666E-3	-4.19906E-12	220.733E-3	-19.3448E-3
-1.04802E-3	-4.32136E-12	205.370E-3	-36.9403E-3	-4.31675E-12	244.828E-3	-34.3694E-3
-1.05303E-3	-4.37808E-12	205.201E-3	-34.8504E-3	-4.45961E-12	266.008E-3	-46.1194E-3
-1.05803E-3	-4.45426E-12	206.977E-3	-11.5082E-3	-4.51440E-12	274.153E-3	-39.3546E-3
-1.06303E-3	-4.50941E-12	219.472E-3	7.38027E-3	-4.62521E-12	274.816E-3	-30.8600E-3
-1.06803E-3	-4.62584E-12	243.874E-3	631.915E-6	-4.75450E-12	277.299E-3	-23.6011E-3
-1.07304E-3	-4.77381E-12	261.165E-3	-12.9719E-3	-4.84026E-12	284.570E-3	-1.81195E-3
-1.07804E-3	-4.78178E-12	255.926E-3	-5.96598E-3	-4.91086E-12	303.645E-3	7.47968E-3
-1.08304E-3	-4.92135E-12	250.550E-3	1.16005E-3	-5.06397E-12	315.591E-3	-1.87833E-3
-1.08804E-3	-5.00480E-12	263.125E-3	-6.68632E-3	-5.12408E-12	313.773E-3	-14.4921E-3
-1.09305E-3	-5.10183E-12	285.116E-3	-17.5723E-3	-5.16500E-12	337.011E-3	-29.2989E-3
-1.09805E-3	-5.26611E-12	301.566E-3	-17.3523E-3	-5.29989E-12	367.855E-3	-23.6332E-3
-1.10305E-3	-5.45638E-12	309.190E-3	-9.08048E-3	-5.43802E-12	374.738E-3	-8.30473E-3
-1.10805E-3	-5.55788E-12	322.423E-3	-8.54550E-3	-5.55194E-12	373.661E-3	-23.9042E-3
-1.11306E-3	-5.60974E-12	339.995E-3	-16.9411E-3	-5.60250E-12	368.925E-3	-43.8713E-3
-1.11806E-3	-5.72633E-12	353.679E-3	-25.6189E-3	-5.73101E-12	367.573E-3	-29.6893E-3
-1.12306E-3	-6.00289E-12	363.210E-3	-28.6328E-3	-5.84591E-12	387.044E-3	-12.5096E-3
-1.12806E-3	-6.09482E-12	372.563E-3	-30.0675E-3	-6.01700E-12	409.323E-3	-12.3166E-3
-1.13307E-3	-6.06602E-12	378.814E-3	-25.2950E-3	-6.12222E-12	421.030E-3	-6.76179E-3
-1.13807E-3	-6.21832E-12	383.240E-3	-11.8154E-3	-6.17524E-12	438.506E-3	-3.64961E-3
-1.14307E-3	-6.38576E-12	403.545E-3	-15.9970E-3	-6.34692E-12	461.732E-3	-14.4924E-3
-1.14807E-3	-6.53331E-12	425.096E-3	-38.0261E-3	-6.59266E-12	478.119E-3	-15.1906E-3
-1.15308E-3	-6.53147E-12	429.328E-3	-41.4854E-3	-6.71352E-12	492.858E-3	-3.10760E-3
-1.15808E-3	-6.66664E-12	435.519E-3	-20.7049E-3	-6.80196E-12	503.218E-3	5.01565E-3
-1.16308E-3	-7.00051E-12	454.515E-3	-12.7543E-3	-6.95586E-12	511.390E-3	-560.756E-6
-1.16808E-3	-7.17762E-12	463.374E-3	-21.1880E-3	-7.25749E-12	537.199E-3	-16.7072E-3
-1.17309E-3	-7.22484E-12	467.272E-3	-17.4598E-3	-7.42137E-12	563.877E-3	-24.5328E-3
-1.17809E-3	-7.48136E-12	493.568E-3	-6.78523E-3	-7.55917E-12	580.478E-3	-17.6032E-3
-1.18309E-3	-7.79917E-12	526.691E-3	3.58843E-3	-7.78677E-12	591.157E-3	-6.22299E-3
-1.18809E-3	-7.93968E-12	545.451E-3	9.18378E-3	-8.00231E-12	596.947E-3	-7.17357E-3
-1.19310E-3	-8.08777E-12	553.618E-3	2.04797E-3	-8.18996E-12	609.315E-3	-12.2185E-3
-1.19810E-3	-8.36112E-12	560.739E-3	-11.6200E-3	-8.36720E-12	628.702E-3	-9.65561E-3
-1.20310E-3	-8.58595E-12	578.061E-3	-28.9947E-3	-8.54106E-12	640.686E-3	-10.5426E-3
-1.20810E-3	-8.74981E-12	604.465E-3	-43.4914E-3	-8.66274E-12	642.395E-3	-7.35813E-3
-1.21311E-3	-8.96309E-12	629.884E-3	-39.4244E-3	-8.91649E-12	652.923E-3	-2.64274E-3
-1.21811E-3	-9.22638E-12	647.268E-3	-26.4836E-3	-9.21798E-12	674.711E-3	-11.7392E-3
-1.22311E-3	-9.40453E-12	656.495E-3	-20.9211E-3	-9.28007E-12	700.922E-3	-17.6384E-3
-1.22811E-3	-9.50508E-12	665.013E-3	-14.7824E-3	-9.42720E-12	723.889E-3	-11.2504E-3
-1.23312E-3	-9.77104E-12	675.965E-3	-1.72867E-3	-9.64725E-12	729.404E-3	-10.5833E-3
-1.23812E-3	-10.0698E-12	685.122E-3	1.09081E-3	-9.86236E-12	726.639E-3	-13.1695E-3
-1.24312E-3	-10.2898E-12	695.304E-3	-13.1756E-3	-10.1058E-12	739.588E-3	-4.47906E-3
-1.24812E-3	-10.2215E-12	709.455E-3	-25.8971E-3	-10.3258E-12	772.851E-3	5.20269E-3
-1.25313E-3	-10.5016E-12	721.761E-3	-22.1525E-3	-10.6005E-12	796.587E-3	8.07733E-3
-1.25813E-3	-10.9967E-12	729.657E-3	-7.24411E-3	-10.9264E-12	803.306E-3	7.28045E-3
-1.26313E-3	-11.2517E-12	748.189E-3	-3.69304E-3	-11.2065E-12	824.598E-3	3.90332E-3
-1.26813E-3	-11.4170E-12	780.752E-3	-14.2008E-3	-11.5408E-12	861.385E-3	598.344E-6
-1.27314E-3	-11.6942E-12	805.502E-3	-25.7363E-3	-11.9257E-12	890.875E-3	-8.16309E-3
-1.27814E-3	-12.1963E-12	809.627E-3	-30.4338E-3	-12.2779E-12	904.689E-3	-18.5457E-3
-1.28314E-3	-12.4704E-12	806.197E-3	-19.6948E-3	-12.5696E-12	909.392E-3	-10.6026E-3
-1.28814E-3	-12.5806E-12	824.878E-3	-8.66513E-3	-12.8932E-12	919.819E-3	6.48277E-3
-1.29315E-3	-12.9262E-12	857.500E-3	-12.1947E-3	-13.2416E-12	936.074E-3	2.40862E-3
-1.29815E-3	-13.3559E-12	872.442E-3	-17.1546E-3	-13.5437E-12	943.179E-3	-9.74240E-3
-1.30315E-3	-13.6483E-12	866.694E-3	-17.9704E-3	-13.6873E-12	944.882E-3	-7.12332E-3
-1.30815E-3	-13.8017E-12	864.188E-3	-18.2344E-3	-13.9256E-12	950.142E-3	-6.67647E-3
-1.31316E-3	-14.1305E-12	886.358E-3	-14.5138E-3	-14.2422E-12	953.493E-3	-18.4627E-3
-1.31816E-3	-14.5729E-12	922.968E-3	-9.80080E-3	-14.4690E-12	963.375E-3	-19.8900E-3
-1.32316E-3	-14.8278E-12	945.850E-3	-15.9208E-3	-14.7335E-12	988.270E-3	-6.00786E-3
-1.32816E-3	-15.0154E-12	952.112E-3	-19.2726E-3	-15.0247E-12	1.00460E+0	139.143E-6
-1.33317E-3	-15.3710E-12	963.247E-3	-10.4221E-3	-15.4761E-12	1.00764E+0	-1.91956E-3
-1.33817E-3	-15.7848E-12	979.445E-3	-1.88253E-3	-15.7594E-12	1.02948E+0	4.99912E-3
-1.34317E-3	-15.9754E-12	982.018E-3	-5.37135E-3	-15.9524E-12	1.06017E+0	3.18868E-3
-1.34817E-3	-16.2454E-12	981.481E-3	-20.6584E-3	-16.2753E-12	1.07426E+0	-12.5711E-3
-1.35318E-3	-16.6637E-12	1.00086E+0	-22.2735E-3	-16.6887E-12	1.08566E+0	-14.1998E-3
-1.35818E-3	-17.1367E-12	1.02970E+0	-15.1926E-3	-17.1792E-12	1.09812E+0	-13.8673E-3
-1.36318E-3	-17.4913E-12	1.04610E+0	-22.8162E-3	-17.6838E-12	1.10906E+0	-25.3784E-3
-1.36818E-3	-17.8465E-12	1.05582E+0	-36.8719E-3	-18.1851E-12	1.12676E+0	-33.6134E-3
-1.37319E-3	-18.3276E-12	1.06919E+0	-45.3565E-3	-18.6835E-12	1.13983E+0	-39.1801E-3
-1.37819E-3	-18.6953E-12	1.06845E+0	-32.1287E-3	-19.0696E-12	1.13891E+0	-34.0769E-3
-1.38319E-3	-18.8634E-12	1.06029E+0	-2.77388E-3	-19.4712E-12	1.13688E+0	-11.6883E-3
-1.38819E-3	-19.3387E-12	1.06589E+0	5.85446E-3	-19.8949E-12	1.13901E+0	328.683E-6
-1.39320E-3	-19.7892E-12	1.08181E+0	-13.5596E-3	-20.2091E-12	1.13856E+0	-14.2197E-3
-1.39820E-3	-20.1629E-12	1.11001E+0	-33.7319E-3	-20.4524E-12	1.13979E+0	-20.2377E-3
-1.40320E-3	-20.3476E-12	1.12762E+0	-37.5639E-3	-20.7389E-12	1.14998E+0	-11.2169E-3
-1.40820E-3	-20.5332E-12	1.12372E+0	-24.5971E-3	-21.0702E-12	1.14913E+0	-17.9311E-3
-1.41321E-3	-21.2315E-12	1.12416E+0	-8.58594E-3	-21.3902E-12	1.13904E+0	-33.3684E-3
-1.41821E-3	-21.6434E-12	1.12113E+0	-10.0535E-3	-21.6983E-12	1.14912E+0	-50.8881E-3
-1.42321E-3	-21.7389E-12	1.10921E+0	-22.2643E-3	-22.0636E-12	1.16481E+0	-56.4068E-3
-1.42821E-3	-22.2772E-12	1.11166E+0	-23.0662E-3	-22.3919E-12	1.17099E+0	-37.3279E-3
-1.43322E-3	-22.8818E-12	1.12786E+0	-13.2843E-3	-22.7108E-12	1.16989E+0	-28.6715E-3
-1.43822E-3	-23.3055E-12	1.14695E+0	-2.04507E-3	-23.0582E-12	1.15843E+0	-38.8820E-3
-1.44322E-3	-23.6100E-12	1.16625E+0	4.05194E-3	-23.3932E-12	1.15321E+0	-33.8320E-3
-1.44822E-3	-23.9595E-12	1.17262E+0	-11.2124E-3	-23.7174E-12	1.16846E+0	-17.6126E-3
-1.45323E-3	-24.4669E-12	1.16822E+0	-29.8526E-3	-24.0655E-12	1.17980E+0	-6.30767E-3
-1.45823E-3	-24.8580E-12	1.17672E+0	-29.9236E-3	-24.3976E-12	1.17640E+0	-4.73686E-3
-1.46323E-3	-25.0591E-12	1.19322E+0	-25.8477E-3	-24.8935E-12	1.17590E+0	-15.9873E-3
-1.46823E-3	-25.5468E-12	1.20265E+0	-27.5030E-3	-25.4564E-12	1.17944E+0	-28.6862E-3
-1.47324E-3	-25.8762E-12	1.19159E+0	-35.8761E-3	-25.9220E-12	1.18688E+0	-26.2930E-3
-1.47824E-3	-26.1781E-12	1.17009E+0	-28.2274E-3	-26.0767E-12	1.19536E+0	-4.85845E-3
-1.48324E-3	-26.4435E-12	1.16906E+0	-5.67581E-3	-26.7035E-12	1.18597E+0	7.07351E-3
-1.48824E-3	-26.7777E-12	1.18089E+0	2.17961E-3	-27.1086E-12	1.16971E+0	-10.7870E-3
-1.49325E-3	-27.1458E-12	1.18238E+0	-4.92594E-3	-27.5463E-12	1.17732E+0	-21.6824E-3
-1.49825E-3	-27.4436E-12	1.16751E+0	-9.56913E-3	-27.8838E-12	1.19811E+0	-10.7103E-3
-1.50325E-3	-27.8985E-12	1.15842E+0	-6.00742E-3	-28.3513E-12	1.20341E+0	-5.14368E-3
-1.50825E-3	-28.4162E-12	1.16646E+0	-10.5653E-3	-28.7629E-12	1.19231E+0	-2.42112E-3
-1.51326E-3	-28.8836E-12	1.17185E+0	-18.3137E-3	-29.1660E-12	1.18316E+0	-6.83533E-3
-1.51826E-3	-29.3136E-12	1.16502E+0	-26.4123E-3	-29.5252E-12	1.17907E+0	-25.2348E-3
-1.52326E-3	-29.7074E-12	1.16040E+0	-43.7428E-3	-29.8254E-12	1.17944E+0	-35.5819E-3
-1.52826E-3	-30.3869E-12	1.17050E+0	-49.7773E-3	-30.1909E-12	1.18163E+0	-24.4431E-3
-1.53327E-3	-30.8785E-12	1.18193E+0	-31.5424E-3	-30.4499E-12	1.16979E+0	-11.7115E-3
-1.53827E-3	-31.2525E-12	1.18570E+0	-7.94094E-3	-30.7980E-12	1.15807E+0	-13.7423E-3
-1.54327E-3	-31.5673E-12	1.18662E+0	839.425E-6	-31.1200E-12	1.15767E+0	-19.8667E-3
-1.54827E-3	-32.1696E-12	1.18458E+0	-14.8744E-3	-31.4248E-12	1.15222E+0	-16.9311E-3
-1.55328E-3	-32.3628E-12	1.17413E+0	-34.3689E-3	-31.7661E-12	1.14928E+0	4.26663E-3
-1.55828E-3	-32.5830E-12	1.16299E+0	-32.1785E-3	-32.0445E-12	1.15274E+0	17.2771E-3
-1.56328E-3	-33.0879E-12	1.16080E+0	-26.7620E-3	-32.5472E-12	1.14150E+0	469.586E-6
-1.56828E-3	-33.3347E-12	1.16030E+0	-27.4457E-3	-32.9194E-12	1.12389E+0	-19.5850E-3
-1.57329E-3	-33.6867E-12	1.15766E+0	-33.7553E-3	-33.1944E-12	1.13164E+0	-30.4451E-3
-1.57829E-3	-33.8914E-12	1.14665E+0	-37.8824E-3	-33.6650E-12	1.14785E+0	-26.9530E-3
-1.58329E-3	-34.2474E-12	1.13233E+0	-35.4280E-3	-34.3922E-12	1.15001E+0	-1.59988E-3
-1.58829E-3	-34.5377E-12	1.12735E+0	-34.6424E-3	-34.7021E-12	1.14516E+0	10.1605E-3
-1.59330E-3	-35.0480E-12	1.12182E+0	-27.8981E-3	-35.2224E-12	1.13495E+0	-7.80091E-3
-1.59830E-3	-35.3252E-12	1.11192E+0	-29.5311E-3	-35.7557E-12	1.12606E+0	-21.3399E-3
-1.60330E-3	-35.8898E-12	1.10965E+0	-42.0064E-3	-36.4435E-12	1.12593E+0	-10.1312E-3
-1.60830E-3	-36.3183E-12	1.10534E+0	-44.1416E-3	-36.8325E-12	1.11868E+0	5.99713E-3
-1.61331E-3	-36.9259E-12	1.09532E+0	-33.0169E-3	-37.0015E-12	1.09951E+0	4.54846E-3
-1.61831E-3	-37.2746E-12	1.09742E+0	-19.1264E-3	-37.4925E-12	1.09373E+0	-16.3000E-3
-1.62331E-3	-37.9079E-12	1.10495E+0	-24.5174E-3	-37.9512E-12	1.09423E+0	-39.0079E-3
-1.62831E-3	-38.3756E-12	1.10516E+0	-39.2691E-3	-38.2484E-12	1.08523E+0	-32.9560E-3
-1.63332E-3	-38.6733E-12	1.09851E+0	-39.8941E-3	-38.2609E-12	1.08471E+0	-4.99436E-3
-1.63832E-3	-39.1068E-12	1.09401E+0	-37.6804E-3	-38.4932E-12	1.08302E+0	5.30955E-3
-1.64332E-3	-39.4111E-12	1.10077E+0	-33.4210E-3	-38.9009E-12	1.06936E+0	-2.52603E-3
-1.64832E-3	-39.9036E-12	1.11343E+0	-28.6845E-3	-38.9897E-12	1.07408E+0	-10.4261E-3
-1.65333E-3	-40.0218E-12	1.11714E+0	-24.6741E-3	-39.0774E-12	1.07691E+0	-15.7573E-3
-1.65833E-3	-40.2519E-12	1.10230E+0	-9.44902E-3	-39.5830E-12	1.05260E+0	-9.42782E-3
-1.66333E-3	-40.4955E-12	1.07749E+0	-1.89198E-6	-39.8836E-12	1.03565E+0	774.945E-6
-1.66833E-3	-40.6498E-12	1.06273E+0	-4.13897E-3	-40.2581E-12	1.04470E+0	-12.3852E-3
-1.67334E-3	-40.8769E-12	1.06121E+0	-4.65274E-3	-40.6878E-12	1.05567E+0	-26.3284E-3
-1.67834E-3	-41.1161E-12	1.05521E+0	-8.68701E-3	-41.3634E-12	1.05826E+0	-10.2522E-3
-1.68334E-3	-41.5307E-12	1.04474E+0	-15.7278E-3	-41.8849E-12	1.06026E+0	6.39929E-3
-1.68834E-3	-41.7593E-12	1.03933E+0	-10.4201E-3	-42.2270E-12	1.05047E+0	-278.190E-6
-1.69335E-3	-42.2660E-12	1.03798E+0	-2.97764E-3	-42.7323E-12	1.04966E+0	-11.5993E-3
-1.69835E-3	-42.5458E-12	1.04326E+0	-6.48096E-3	-43.6633E-12	1.06049E+0	-17.4856E-3
-1.70335E-3	-43.1860E-12	1.03751E+0	-19.7068E-3	-43.7741E-12	1.05040E+0	-13.9729E-3
-1.70835E-3	-43.4901E-12	1.01167E+0	-18.0607E-3	-43.9918E-12	1.03395E+0	5.65254E-3
-1.71336E-3	-43.9464E-12	1.00209E+0	-7.37660E-3	-44.5676E-12	1.02339E+0	9.61453E-3
-1.71836E-3	-44.1731E-12	1.01345E+0	-9.75267E-3	-45.0119E-12	1.00864E+0	-9.38888E-3
-1.72336E-3	-44.5902E-12	1.01229E+0	-8.99610E-3	-45.1925E-12	993.139E-3	-18.4400E-3
-1.72836E-3	-44.8440E-12	1.00498E+0	-5.10393E-3	-45.1700E-12	996.163E-3	-22.4332E-3
-1.73337E-3	-45.1389E-12	1.00536E+0	212.742E-6	-45.4565E-12	1.00302E+0	-23.2701E-3
-1.73837E-3	-45.7051E-12	1.00521E+0	3.57727E-3	-45.6895E-12	994.023E-3	-13.7942E-3
-1.74337E-3	-45.9811E-12	1.00956E+0	-14.6810E-3	-45.8187E-12	984.086E-3	-18.4774E-3
-1.74837E-3	-45.8952E-12	1.02177E+0	-38.5603E-3	-45.8366E-12	980.987E-3	-32.9289E-3
-1.75338E-3	-46.1595E-12	1.02359E+0	-38.9920E-3	-46.1266E-12	984.384E-3	-28.4103E-3
-1.75838E-3	-46.7851E-12	1.00902E+0	-25.6785E-3	-46.4352E-12	985.070E-3	-17.0545E-3
-1.76338E-3	-46.9120E-12	990.658E-3	-19.2711E-3	-46.8950E-12	971.415E-3	-22.0466E-3
-1.76838E-3	-47.1966E-12	975.284E-3	-20.2928E-3	-47.1632E-12	957.075E-3	-26.0203E-3
-1.77339E-3	-47.4749E-12	966.318E-3	-25.5395E-3	-47.5191E-12	969.751E-3	-28.6968E-3
-1.77839E-3	-48.0038E-12	968.527E-3	-33.4465E-3	-47.9709E-12	984.423E-3	-45.2145E-3
-1.78339E-3	-48.3392E-12	969.894E-3	-36.6132E-3	-48.6320E-12	972.433E-3	-35.1696E-3
-1.78839E-3	-48.5164E-12	966.698E-3	-23.8056E-3	-49.1830E-12	960.482E-3	1.10852E-3
-1.79340E-3	-48.8856E-12	971.491E-3	-7.90597E-3	-49.2484E-12	950.728E-3	2.64825E-3
-1.79840E-3	-49.3694E-12	974.943E-3	-19.5981E-3	-49.7049E-12	933.963E-3	-26.4802E-3
-1.80340E-3	-49.5628E-12	964.322E-3	-42.4348E-3	-50.1073E-12	933.695E-3	-42.5888E-3
-1.80840E-3	-49.7411E-12	946.298E-3	-39.3230E-3	-50.5755E-12	945.576E-3	-39.3981E-3
-1.81341E-3	-49.9935E-12	925.900E-3	-31.5578E-3	-50.8661E-12	938.112E-3	-27.7812E-3
-1.81841E-3	-50.2204E-12	917.943E-3	-37.8181E-3	-51.0467E-12	928.237E-3	-15.4909E-3
-1.82341E-3	-50.5395E-12	928.519E-3	-41.1326E-3	-51.2311E-12	936.776E-3	-11.8955E-3
-1.82841E-3	-50.6488E-12	930.771E-3	-31.5426E-3	-51.6522E-12	943.106E-3	-2.28713E-3
-1.83342E-3	-51.0071E-12	917.811E-3	-24.2047E-3	-51.9056E-12	936.637E-3	20.5895E-3
-1.83842E-3	-51.2917E-12	907.991E-3	-25.6944E-3	-52.0008E-12	920.886E-3	19.5658E-3
-1.84342E-3	-51.5859E-12	909.944E-3	-15.5104E-3	-52.1210E-12	902.222E-3	-7.19639E-3
-1.84842E-3	-51.9467E-12	918.779E-3	-10.4328E-3	-52.2605E-12	897.218E-3	-22.9383E-3
-1.85343E-3	-52.3523E-12	920.349E-3	-17.1556E-3	-52.6394E-12	911.270E-3	-23.0184E-3
-1.85843E-3	-52.6258E-12	909.517E-3	-18.0974E-3	-52.8437E-12	917.229E-3	-14.0925E-3
-1.86343E-3	-53.1978E-12	905.457E-3	-19.0473E-3	-53.1448E-12	910.917E-3	-164.734E-6
-1.86843E-3	-53.6162E-12	917.162E-3	-21.6727E-3	-53.1023E-12	901.264E-3	-5.25361E-3
-1.87344E-3	-53.9056E-12	930.315E-3	-22.4655E-3	-53.6777E-12	892.703E-3	-27.5193E-3
-1.87844E-3	-54.3189E-12	934.276E-3	-21.6289E-3	-54.0164E-12	900.970E-3	-25.2712E-3
-1.88344E-3	-54.5634E-12	920.534E-3	-18.6977E-3	-54.0096E-12	910.333E-3	-9.30626E-3
-1.88844E-3	-54.8756E-12	898.295E-3	-5.20578E-3	-54.3866E-12	903.415E-3	-18.6245E-3
-1.89345E-3	-55.1983E-12	885.324E-3	11.3008E-3	-54.8265E-12	884.475E-3	-27.7378E-3
-1.89845E-3	-55.5060E-12	887.034E-3	-1.93720E-3	-55.2637E-12	865.033E-3	-27.0054E-3
-1.90345E-3	-55.5109E-12	882.706E-3	-25.6326E-3	-55.2916E-12	865.900E-3	-37.5701E-3
-1.90845E-3	-55.5525E-12	865.295E-3	-28.8583E-3	-55.8464E-12	879.585E-3	-25.2001E-3
-1.91346E-3	-55.7652E-12	861.206E-3	-27.1878E-3	-56.2360E-12	882.540E-3	3.51012E-3
-1.91846E-3	-56.0314E-12	865.018E-3	-17.7498E-3	-56.7801E-12	876.915E-3	-3.79866E-3
-1.92346E-3	-56.1328E-12	859.632E-3	-7.08056E-3	-56.9867E-12	880.415E-3	-24.8529E-3
-1.92846E-3	-56.5312E-12	859.190E-3	-16.7567E-3	-57.5896E-12	899.441E-3	-21.5014E-3
-1.93347E-3	-56.7108E-12	857.050E-3	-24.2691E-3	-57.8909E-12	906.433E-3	-7.14949E-3
-1.93847E-3	-57.1137E-12	843.131E-3	-14.8889E-3	-58.1655E-12	885.603E-3	4.47606E-3
-1.94347E-3	-57.6273E-12	842.291E-3	-7.37954E-3	-58.3647E-12	864.927E-3	4.54083E-3
-1.94847E-3	-58.2294E-12	845.696E-3	-8.80156E-3	-58.8293E-12	852.768E-3	-18.6604E-3
-1.95348E-3	-58.8729E-12	845.074E-3	-19.4249E-3	-58.9976E-12	844.735E-3	-31.6931E-3
-1.95848E-3	-59.2200E-12	851.770E-3	-27.1287E-3	-58.9651E-12	850.620E-3	-27.1691E-3
-1.96348E-3	-59.6979E-12	853.368E-3	-28.9498E-3	-59.1365E-12	850.648E-3	-21.3848E-3
-1.96848E-3	-60.3102E-12	859.598E-3	-26.8257E-3	-59.4060E-12	833.195E-3	-12.0709E-3
-1.97349E-3	-60.4582E-12	878.527E-3	-18.3256E-3	-59.7609E-12	829.457E-3	-19.6266E-3
-1.97849E-3	-60.6031E-12	895.821E-3	-17.4166E-3	-59.7170E-12	843.018E-3	-32.4872E-3
-1.98349E-3	-60.5862E-12	892.188E-3	-17.9380E-3	-59.9340E-12	841.987E-3	-23.0544E-3
-1.98849E-3	-61.0792E-12	875.205E-3	-13.6630E-3	-60.0864E-12	824.862E-3	-1.89977E-3
-1.99350E-3	-61.1552E-12	871.931E-3	-14.7151E-3	-60.7508E-12	812.907E-3	-4.56557E-3
-1.99850E-3	-60.8770E-12	868.111E-3	-15.2782E-3	-60.8695E-12	815.327E-3	-26.8090E-3
-2.00350E-3	-60.8547E-12	847.953E-3	-18.7618E-3	-61.5021E-12	834.861E-3	-35.7995E-3
-2.00850E-3	-61.1991E-12	829.020E-3	-17.0224E-3	-61.9916E-12	851.559E-3	-22.5077E-3
-2.01351E-3	-61.4249E-12	817.332E-3	-434.945E-6	-62.6081E-12	844.287E-3	-8.72270E-3
-2.01851E-3	-61.6937E-12	808.890E-3	-2.62201E-3	-62.9638E-12	836.614E-3	-16.8276E-3
-2.02351E-3	-61.9333E-12	814.452E-3	-18.9643E-3	-63.5545E-12	836.845E-3	-26.8504E-3
-2.02851E-3	-62.3170E-12	822.766E-3	-20.0544E-3	-63.9013E-12	838.462E-3	-22.9720E-3
-2.03352E-3	-63.0734E-12	820.780E-3	-23.5639E-3	-64.1069E-12	854.079E-3	-8.86890E-3
-2.03852E-3	-63.3055E-12	824.134E-3	-33.6487E-3	-64.4027E-12	862.888E-3	2.46013E-3
-2.04352E-3	-63.7428E-12	832.305E-3	-41.2747E-3	-64.9376E-12	846.206E-3	-175.711E-6
-2.04852E-3	-64.3740E-12	830.268E-3	-38.2166E-3	-65.2546E-12	829.443E-3	-18.0286E-3
-2.05353E-3	-64.7767E-12	816.874E-3	-18.0538E-3	-65.2084E-12	834.259E-3	-38.3906E-3
-2.05853E-3	-65.2983E-12	803.975E-3	-11.8494E-3	-64.9241E-12	835.582E-3	-26.8261E-3
-2.06353E-3	-65.3560E-12	806.159E-3	-16.9608E-3	-65.2856E-12	814.995E-3	4.00207E-3
-2.06853E-3	-65.7936E-12	814.669E-3	-8.22338E-3	-65.2895E-12	796.924E-3	5.57637E-3
-2.07354E-3	-65.9504E-12	827.799E-3	-16.2659E-3	-65.1723E-12	794.315E-3	-35.2586E-3
-2.07854E-3	-66.3294E-12	831.251E-3	-41.2373E-3	-64.9190E-12	806.808E-3	-59.5964E-3
-2.08354E-3	-66.1523E-12	813.603E-3	-39.8772E-3	-65.4934E-12	815.063E-3	-42.5727E-3
-2.08854E-3	-66.3010E-12	802.346E-3	-16.1059E-3	-65.6004E-12	803.107E-3	-40.5574E-3
-2.09355E-3	-66.4745E-12	799.293E-3	-1.10259E-3	-65.8985E-12	790.835E-3	-45.0094E-3
-2.09855E-3	-66.5401E-12	798.815E-3	-7.41528E-3	-65.9792E-12	798.387E-3	-31.4118E-3
-2.10355E-3	-66.7482E-12	798.349E-3	-10.7869E-3	-66.4281E-12	812.183E-3	-25.5486E-3
-2.10855E-3	-66.9294E-12	795.504E-3	-1.92120E-3	-66.9997E-12	815.180E-3	-20.3804E-3
-2.11356E-3	-67.2364E-12	788.102E-3	-6.06096E-3	-67.4419E-12	814.218E-3	4.08564E-3
-2.11856E-3	-67.2755E-12	786.445E-3	-11.3018E-3	-68.0117E-12	808.294E-3	18.0464E-3
-2.12356E-3	-67.6980E-12	797.916E-3	-4.52842E-3	-68.4356E-12	798.280E-3	6.27265E-3
-2.12856E-3	-68.1104E-12	800.498E-3	-8.14661E-3	-68.7712E-12	801.847E-3	-13.2462E-3
-2.13357E-3	-68.5206E-12	796.364E-3	-13.0869E-3	-69.1979E-12	808.028E-3	-35.2893E-3
-2.13857E-3	-68.6587E-12	791.523E-3	-9.56260E-3	-69.4826E-12	795.472E-3	-34.7907E-3
-2.14357E-3	-68.9158E-12	790.586E-3	-6.99793E-3	-69.3332E-12	773.694E-3	-12.6424E-3
-2.14857E-3	-69.1451E-12	805.914E-3	-9.20411E-3	-69.0766E-12	766.607E-3	-14.7535E-3
-2.15358E-3	-69.4044E-12	812.945E-3	-17.2086E-3	-69.1845E-12	774.873E-3	-40.3500E-3
-2.15858E-3	-69.7407E-12	796.545E-3	-18.3796E-3	-69.4250E-12	789.131E-3	-44.3303E-3
-2.16358E-3	-70.1916E-12	773.372E-3	-13.9207E-3	-69.6936E-12	789.080E-3	-19.4147E-3
-2.16858E-3	-70.5544E-12	759.802E-3	-8.22015E-3	-69.7093E-12	755.741E-3	-7.40206E-3
-2.17359E-3	-70.3000E-12	772.191E-3	-12.0655E-3	-69.8969E-12	743.711E-3	-10.2919E-3
-2.17859E-3	-70.7782E-12	789.780E-3	-28.0360E-3	-69.9645E-12	778.761E-3	-4.91443E-3
-2.18359E-3	-70.9715E-12	777.856E-3	-35.6743E-3	-70.5267E-12	795.953E-3	-7.94445E-3
-2.18859E-3	-71.2376E-12	761.476E-3	-34.8684E-3	-70.9403E-12	779.482E-3	-18.2419E-3
-2.19360E-3	-71.4516E-12	772.495E-3	-33.9133E-3	-71.1506E-12	773.351E-3	-25.5441E-3
-2.19860E-3	-71.8336E-12	787.328E-3	-31.2514E-3	-71.5278E-12	772.318E-3	-34.1849E-3
-2.20360E-3	-72.2746E-12	783.770E-3	-18.0774E-3	-72.1879E-12	765.141E-3	-32.3099E-3
-2.20860E-3	-72.5652E-12	771.076E-3	-3.50012E-3	-72.3879E-12	768.714E-3	-22.3521E-3
-2.21361E-3	-72.9349E-12	756.549E-3	168.335E-6	-72.8757E-12	770.120E-3	-14.8940E-3
-2.21861E-3	-73.0620E-12	752.916E-3	-3.47079E-3	-73.1073E-12	760.260E-3	-10.1919E-3
-2.22361E-3	-73.3216E-12	769.970E-3	-16.5890E-3	-73.5761E-12	759.374E-3	-18.0935E-3
-2.22861E-3	-73.3690E-12	776.558E-3	-29.6111E-3	-73.7072E-12	763.126E-3	-29.2865E-3
-2.23362E-3	-73.6064E-12	762.185E-3	-33.0721E-3	-73.9120E-12	757.015E-3	-10.0662E-3
-2.23862E-3	-73.6873E-12	757.413E-3	-38.7135E-3	-74.1182E-12	754.328E-3	8.95848E-3
-2.24362E-3	-74.1321E-12	759.592E-3	-31.0101E-3	-74.3807E-12	746.414E-3	-7.83042E-3
-2.24862E-3	-74.3751E-12	765.505E-3	-2.88116E-3	-74.3100E-12	729.050E-3	-25.8440E-3
-2.25363E-3	-74.7033E-12	778.071E-3	3.35560E-3	-74.3262E-12	742.462E-3	-31.2382E-3
-2.25863E-3	-74.7446E-12	776.897E-3	-12.0625E-3	-74.6794E-12	773.202E-3	-27.5642E-3
-2.26363E-3	-75.2166E-12	760.586E-3	-12.4791E-3	-75.1334E-12	759.998E-3	-11.5097E-3
-2.26863E-3	-75.4059E-12	745.233E-3	-2.63973E-3	-74.8099E-12	722.981E-3	-11.3108E-3
-2.27364E-3	-75.8279E-12	739.770E-3	1.36507E-3	-74.9837E-12	714.894E-3	-33.5549E-3
-2.27864E-3	-76.1552E-12	750.337E-3	-10.8704E-3	-75.5351E-12	723.562E-3	-41.5562E-3
-2.28364E-3	-76.3880E-12	762.167E-3	-28.8948E-3	-76.1357E-12	736.704E-3	-29.9065E-3
-2.28864E-3	-76.5538E-12	754.217E-3	-23.5246E-3	-75.8263E-12	747.631E-3	-18.7090E-3
-2.29365E-3	-77.3493E-12	733.346E-3	-4.48013E-3	-76.1688E-12	736.092E-3	-4.34151E-3
-2.29865E-3	-77.7634E-12	727.723E-3	-162.162E-6	-76.5640E-12	724.982E-3	4.52945E-3
-2.30365E-3	-77.8037E-12	744.546E-3	-10.1753E-3	-77.0545E-12	733.555E-3	-17.0211E-3
-2.30865E-3	-77.9219E-12	767.658E-3	-15.0921E-3	-77.0359E-12	744.309E-3	-32.8923E-3
-2.31366E-3	-78.6300E-12	774.212E-3	-8.32259E-3	-77.2986E-12	754.691E-3	-9.28283E-3
-2.31866E-3	-78.5744E-12	760.697E-3	-3.78875E-3	-77.7284E-12	747.731E-3	8.59788E-3
-2.32366E-3	-78.5962E-12	758.410E-3	2.21872E-3	-77.9092E-12	724.945E-3	-8.30062E-3
-2.32866E-3	-78.6835E-12	772.563E-3	2.89132E-3	-78.4051E-12	725.900E-3	-26.1562E-3
-2.33367E-3	-78.6981E-12	773.503E-3	3.09569E-3	-78.9502E-12	749.041E-3	-23.6836E-3
-2.33867E-3	-78.4579E-12	755.206E-3	11.2173E-3	-79.0290E-12	760.852E-3	-8.81262E-3
-2.34367E-3	-78.5072E-12	737.584E-3	10.4489E-3	-78.8258E-12	753.354E-3	9.07898E-3
-2.34867E-3	-78.5113E-12	743.451E-3	67.7927E-6	-79.5512E-12	734.579E-3	-4.13081E-3
-2.35368E-3	-78.6916E-12	756.848E-3	-13.5598E-3	-80.0988E-12	721.911E-3	-37.6627E-3
-2.35868E-3	-78.8462E-12	745.752E-3	-23.4336E-3	-80.1058E-12	729.456E-3	-36.9147E-3
-2.36368E-3	-79.3333E-12	718.449E-3	-31.4304E-3	-80.0736E-12	731.329E-3	-3.75722E-3
-2.36868E-3	-79.9319E-12	706.310E-3	-28.1785E-3	-80.8758E-12	722.855E-3	22.9525E-3
-2.37369E-3	-80.2118E-12	720.440E-3	-8.65618E-3	-81.2089E-12	730.350E-3	21.6392E-3
-2.37869E-3	-80.6337E-12	727.831E-3	5.34959E-3	-81.3435E-12	745.650E-3	-731.053E-6
-2.38369E-3	-81.6094E-12	719.890E-3	722.256E-6	-81.3256E-12	749.170E-3	-24.0078E-3
-2.38869E-3	-81.9332E-12	729.341E-3	-10.4348E-3	-81.6527E-12	740.135E-3	-15.9615E-3
-2.39370E-3	-82.3154E-12	754.651E-3	-5.04966E-3	-82.0803E-12	738.132E-3	10.5248E-3
-2.39870E-3	-82.8325E-12	761.205E-3	9.43866E-3	-82.2668E-12	746.012E-3	7.79098E-3
-2.40370E-3	-83.1519E-12	751.781E-3	8.54363E-3	-81.9869E-12	743.318E-3	-18.3847E-3
-2.40870E-3	-83.4247E-12	748.639E-3	527.666E-6	-82.1913E-12	744.816E-3	-33.3834E-3
-2.41371E-3	-83.1609E-12	748.125E-3	-5.87444E-3	-82.4064E-12	751.024E-3	-23.9090E-3
-2.41871E-3	-82.8033E-12	762.233E-3	-7.83943E-3	-82.8067E-12	742.370E-3	-4.58153E-3
-2.42371E-3	-83.1859E-12	773.234E-3	-12.7146E-3	-83.0790E-12	738.164E-3	-2.78764E-3
-2.42871E-3	-83.3393E-12	763.336E-3	-23.6651E-3	-83.2624E-12	744.220E-3	-25.2915E-3
-2.43372E-3	-83.0415E-12	750.645E-3	-31.1604E-3	-83.6433E-12	743.341E-3	-27.5749E-3
-2.43872E-3	-82.7215E-12	728.871E-3	-33.6088E-3	-84.4212E-12	740.814E-3	-10.8819E-3
-2.44372E-3	-82.8672E-12	715.642E-3	-21.8414E-3	-84.9409E-12	734.437E-3	-15.9497E-3
-2.44872E-3	-82.7858E-12	728.859E-3	-11.1452E-3	-85.3785E-12	713.111E-3	-17.0132E-3
-2.45373E-3	-82.8585E-12	737.440E-3	-14.4560E-3	-85.0908E-12	705.993E-3	-11.6498E-3
-2.45873E-3	-83.0956E-12	725.104E-3	-20.8432E-3	-85.8833E-12	718.795E-3	-23.4160E-3
-2.46373E-3	-83.6260E-12	713.823E-3	-13.3940E-3	-86.1637E-12	732.137E-3	-25.0719E-3
-2.46873E-3	-84.2347E-12	715.019E-3	10.8303E-3	-86.4398E-12	745.247E-3	-8.17421E-3
-2.47374E-3	-84.8607E-12	724.663E-3	13.4352E-3	-86.4032E-12	743.571E-3	-16.3795E-3
-2.47874E-3	-85.0933E-12	724.795E-3	-10.3546E-3	-86.6822E-12	726.233E-3	-40.0092E-3
-2.48374E-3	-85.8338E-12	710.343E-3	-17.0240E-3	-86.6156E-12	709.372E-3	-31.4924E-3
-2.48874E-3	-86.3969E-12	703.276E-3	-4.55438E-3	-86.6903E-12	702.388E-3	-18.0027E-3
-2.49375E-3	-86.7909E-12	714.075E-3	9.20667E-3	-86.4880E-12	693.452E-3	-23.8368E-3
-2.49875E-3	-87.0974E-12	733.177E-3	11.2242E-3	-86.4677E-12	677.241E-3	-26.7269E-3
-2.50375E-3	-87.2947E-12	745.223E-3	-580.296E-6	-86.5720E-12	689.059E-3	-18.2768E-3
-2.50875E-3	-87.4979E-12	738.830E-3	-6.81253E-3	-86.7171E-12	706.695E-3	-5.48461E-3
-2.51376E-3	-87.9768E-12	715.906E-3	-5.66928E-3	-86.7970E-12	702.245E-3	7.59706E-3
-2.51876E-3	-87.8902E-12	708.202E-3	-391.017E-6	-87.1460E-12	702.731E-3	9.73451E-3
-2.52376E-3	-87.7565E-12	719.355E-3	-1.25042E-3	-87.5186E-12	703.356E-3	-3.36899E-3
-2.52876E-3	-87.7243E-12	732.765E-3	-9.29363E-3	-87.9197E-12	703.783E-3	-5.60029E-3
-2.53377E-3	-88.0675E-12	743.339E-3	-11.8647E-3	-88.5692E-12	718.428E-3	-1.95618E-3
-2.53877E-3	-87.9056E-12	735.884E-3	-10.5014E-3	-88.8858E-12	725.420E-3	-19.7990E-3
-2.54377E-3	-88.1129E-12	719.721E-3	991.673E-6	-89.1627E-12	714.698E-3	-27.6392E-3
-2.54877E-3	-88.4300E-12	721.500E-3	5.70703E-3	-89.7322E-12	712.222E-3	-16.9002E-3
-2.55378E-3	-88.5775E-12	732.099E-3	-20.2894E-3	-90.1259E-12	718.133E-3	-16.3227E-3
-2.55878E-3	-88.9882E-12	726.416E-3	-35.7740E-3	-90.2888E-12	717.833E-3	-13.0233E-3
-2.56378E-3	-89.0787E-12	713.349E-3	-12.2726E-3	-90.4449E-12	714.017E-3	-8.35569E-3
-2.56878E-3	-89.5246E-12	709.475E-3	3.26883E-3	-90.7997E-12	705.368E-3	-7.40728E-3
-2.57379E-3	-89.2996E-12	707.342E-3	-4.81320E-3	-90.6724E-12	691.326E-3	-9.65516E-3
-2.57879E-3	-89.7393E-12	698.102E-3	-17.3028E-3	-90.8119E-12	684.600E-3	-29.9812E-3
-2.58379E-3	-90.3870E-12	694.865E-3	-27.7368E-3	-91.1482E-12	693.199E-3	-34.6639E-3
-2.58879E-3	-90.8654E-12	702.522E-3	-20.2361E-3	-90.9776E-12	709.992E-3	-17.5695E-3
-2.59380E-3	-90.8375E-12	702.126E-3	-5.56886E-3	-90.9041E-12	723.696E-3	-15.1850E-3
-2.59880E-3	-91.2257E-12	696.909E-3	-11.4784E-3	-90.9303E-12	720.882E-3	-21.6257E-3
-2.60380E-3	-92.0428E-12	691.111E-3	-27.1796E-3	-91.5099E-12	712.403E-3	-26.2271E-3
-2.60880E-3	-92.0504E-12	685.695E-3	-31.8729E-3	-92.0198E-12	719.726E-3	-32.2676E-3
-2.61381E-3	-92.4048E-12	688.901E-3	-17.6332E-3	-91.8597E-12	736.606E-3	-35.3905E-3
-2.61881E-3	-92.7662E-12	695.815E-3	-5.27556E-3	-91.7351E-12	741.793E-3	-18.4799E-3
-2.62381E-3	-93.5133E-12	702.294E-3	-10.2556E-3	-92.7828E-12	728.142E-3	9.30934E-3
-2.62881E-3	-93.7608E-12	710.748E-3	-13.5099E-3	-93.6700E-12	712.372E-3	-695.863E-6
-2.63382E-3	-93.8942E-12	714.013E-3	-4.72905E-3	-93.5064E-12	712.522E-3	-37.4869E-3
-2.63882E-3	-94.3183E-12	699.739E-3	3.68364E-3	-93.3502E-12	721.641E-3	-37.0400E-3
-2.64382E-3	-94.6137E-12	700.858E-3	-6.22641E-3	-93.9032E-12	713.573E-3	-18.6786E-3
-2.64882E-3	-94.8608E-12	735.005E-3	-12.2287E-3	-94.4361E-12	691.775E-3	-13.9408E-3
-2.65383E-3	-94.9891E-12	751.739E-3	-5.63660E-3	-94.0557E-12	680.283E-3	-8.18666E-3
-2.65883E-3	-95.0588E-12	740.616E-3	-8.45202E-3	-93.8307E-12	681.318E-3	-13.5918E-3
-2.66383E-3	-95.0957E-12	730.056E-3	-11.5547E-3	-93.7027E-12	675.490E-3	-20.9110E-3
-2.66883E-3	-94.9019E-12	718.219E-3	-5.37510E-3	-94.1630E-12	665.433E-3	-9.97414E-3
-2.67384E-3	-94.9411E-12	714.933E-3	-705.785E-6	-94.0576E-12	662.910E-3	-321.281E-6
-2.67884E-3	-95.2973E-12	715.216E-3	-9.19754E-3	-94.1348E-12	661.359E-3	-1.54781E-3
-2.68384E-3	-95.4769E-12	705.417E-3	-22.5256E-3	-94.4979E-12	677.615E-3	-468.427E-6
-2.68884E-3	-95.3385E-12	698.951E-3	-20.5812E-3	-94.8189E-12	709.651E-3	4.33371E-3
-2.69385E-3	-95.9626E-12	698.783E-3	-14.4371E-3	-95.3834E-12	714.395E-3	852.766E-6
-2.69885E-3	-96.3072E-12	700.626E-3	-12.0219E-3	-95.0638E-12	693.112E-3	-605.094E-6
-2.70385E-3	-96.6415E-12	692.731E-3	-11.8152E-3	-95.9020E-12	687.237E-3	-9.07420E-3
-2.70885E-3	-96.9609E-12	680.318E-3	-23.5999E-3	-96.1249E-12	700.234E-3	-40.5520E-3
-2.71386E-3	-97.4680E-12	673.419E-3	-33.5094E-3	-96.8580E-12	709.069E-3	-38.5219E-3
-2.71886E-3	-98.0303E-12	672.840E-3	-32.4845E-3	-96.8809E-12	708.907E-3	2.17042E-3
-2.72386E-3	-98.7576E-12	682.822E-3	-30.0676E-3	-97.2868E-12	691.344E-3	5.78109E-3
-2.72886E-3	-98.9838E-12	698.230E-3	-32.0656E-3	-97.3374E-12	660.906E-3	-14.4944E-3
-2.73387E-3	-99.2156E-12	714.695E-3	-24.2210E-3	-97.7349E-12	662.279E-3	-22.1700E-3
-2.73887E-3	-99.8107E-12	712.724E-3	-16.5495E-3	-97.6203E-12	684.928E-3	-39.4434E-3
-2.74387E-3	-99.7456E-12	701.827E-3	-30.6659E-3	-97.3061E-12	680.217E-3	-38.3453E-3
-2.74887E-3	-99.6590E-12	707.042E-3	-44.3584E-3	-97.1991E-12	669.173E-3	-10.8687E-3
-2.75388E-3	-99.5560E-12	711.112E-3	-35.3368E-3	-97.9062E-12	672.594E-3	-17.0570E-3
-2.75888E-3	-98.9747E-12	706.913E-3	-15.9999E-3	-97.9484E-12	675.480E-3	-38.5896E-3
-2.76388E-3	-99.1703E-12	695.576E-3	-16.7515E-3	-97.8376E-12	695.341E-3	-27.2177E-3
-2.76888E-3	-98.9804E-12	686.046E-3	-32.5212E-3	-98.0646E-12	722.647E-3	-17.4415E-3
-2.77389E-3	-98.8422E-12	695.649E-3	-39.7244E-3	-98.7964E-12	720.824E-3	-36.4469E-3
-2.77889E-3	-97.9879E-12	705.395E-3	-26.7550E-3	-99.7712E-12	705.703E-3	-36.1571E-3
-2.78389E-3	-98.5106E-12	698.716E-3	-11.8454E-3	-100.259E-12	696.312E-3	-18.9457E-3
-2.78889E-3	-98.9385E-12	684.047E-3	-17.7046E-3	-100.206E-12	698.961E-3	-16.8412E-3
-2.79390E-3	-99.2461E-12	675.492E-3	-25.3959E-3	-100.982E-12	714.252E-3	-3.94212E-3
-2.79890E-3	-98.8978E-12	682.197E-3	-23.8826E-3	-101.637E-12	711.156E-3	-4.49757E-3
-2.80390E-3	-99.1378E-12	688.991E-3	-30.2504E-3	-102.051E-12	687.319E-3	-28.0944E-3
-2.80890E-3	-100.053E-12	686.857E-3	-31.2300E-3	-101.938E-12	684.954E-3	-30.0921E-3
-2.81391E-3	-101.015E-12	678.922E-3	-20.2527E-3	-102.713E-12	703.633E-3	-17.4576E-3
-2.81891E-3	-101.723E-12	669.174E-3	-16.8411E-3	-103.225E-12	688.285E-3	-4.91132E-3
-2.82391E-3	-101.657E-12	664.401E-3	-19.7599E-3	-103.046E-12	654.979E-3	11.4893E-3
-2.82891E-3	-102.463E-12	665.246E-3	-25.6504E-3	-102.905E-12	651.466E-3	6.49967E-3
-2.83392E-3	-102.977E-12	670.227E-3	-21.2662E-3	-102.803E-12	658.615E-3	-30.2861E-3
-2.83892E-3	-102.773E-12	672.843E-3	-13.2230E-3	-103.081E-12	658.380E-3	-45.0498E-3
-2.84392E-3	-102.460E-12	674.619E-3	-20.5812E-3	-102.884E-12	670.780E-3	-25.5397E-3
-2.84892E-3	-101.987E-12	691.229E-3	-34.1772E-3	-102.600E-12	682.111E-3	-20.4097E-3
-2.85393E-3	-102.450E-12	707.441E-3	-43.8395E-3	-102.660E-12	672.064E-3	-24.5223E-3
-2.85893E-3	-102.924E-12	703.952E-3	-42.0443E-3	-103.067E-12	678.806E-3	-24.9901E-3
-2.86393E-3	-102.344E-12	704.338E-3	-22.2124E-3	-103.559E-12	697.750E-3	-34.0473E-3
-2.86893E-3	-101.674E-12	718.677E-3	2.58844E-3	-103.453E-12	693.980E-3	-32.3147E-3
-2.87394E-3	-101.731E-12	718.990E-3	7.41169E-3	-104.080E-12	680.407E-3	-14.9638E-3
-2.87894E-3	-102.636E-12	701.334E-3	-5.87544E-3	-104.942E-12	678.319E-3	-17.6363E-3
-2.88394E-3	-102.822E-12	690.193E-3	-25.8003E-3	-105.297E-12	688.062E-3	-31.1544E-3
-2.88894E-3	-102.942E-12	682.303E-3	-35.4762E-3	-105.478E-12	702.642E-3	-28.0923E-3
-2.89395E-3	-103.157E-12	663.945E-3	-24.8726E-3	-106.081E-12	699.785E-3	-18.3118E-3
-2.89895E-3	-104.443E-12	655.209E-3	-22.2904E-3	-106.945E-12	673.356E-3	-2.71469E-3
-2.90395E-3	-104.805E-12	676.723E-3	-21.2054E-3	-107.298E-12	673.547E-3	410.758E-6
-2.90895E-3	-105.422E-12	693.865E-3	-17.6869E-3	-106.869E-12	699.599E-3	-25.1866E-3
-2.91396E-3	-105.564E-12	687.521E-3	-30.6621E-3	-107.196E-12	704.067E-3	-35.0701E-3
-2.91896E-3	-106.195E-12	678.781E-3	-30.0851E-3	-107.479E-12	705.650E-3	-11.4707E-3
-2.92396E-3	-106.509E-12	671.263E-3	-19.9147E-3	-107.284E-12	705.893E-3	-11.8744E-3
-2.92896E-3	-107.258E-12	676.673E-3	-20.6398E-3	-106.921E-12	670.719E-3	-30.4877E-3
-2.93397E-3	-106.918E-12	697.012E-3	-22.6496E-3	-106.916E-12	640.304E-3	-23.5633E-3
-2.93897E-3	-107.193E-12	717.027E-3	-23.5114E-3	-106.772E-12	646.329E-3	-16.6183E-3
-2.94397E-3	-107.110E-12	715.373E-3	-24.2353E-3	-106.726E-12	643.375E-3	-15.8312E-3
-2.94897E-3	-107.812E-12	685.305E-3	-19.2625E-3	-106.717E-12	639.488E-3	-4.90216E-3
-2.95398E-3	-107.685E-12	663.990E-3	-8.19349E-3	-107.208E-12	660.943E-3	-1.61895E-3
-2.95898E-3	-107.575E-12	676.178E-3	-4.70676E-3	-107.571E-12	668.794E-3	-16.1872E-3
-2.96398E-3	-107.792E-12	696.108E-3	-14.9025E-3	-107.664E-12	668.080E-3	-20.8483E-3
-2.96898E-3	-108.519E-12	685.502E-3	-28.6223E-3	-108.284E-12	694.382E-3	-13.6881E-3
-2.97399E-3	-108.413E-12	669.103E-3	-26.6238E-3	-108.879E-12	712.794E-3	-3.65520E-3
-2.97899E-3	-108.029E-12	675.410E-3	-10.9611E-3	-109.284E-12	700.161E-3	20.5336E-3
-2.98399E-3	-108.652E-12	673.104E-3	-7.58804E-3	-110.041E-12	690.536E-3	17.1889E-3
-2.98899E-3	-109.145E-12	662.166E-3	-16.4171E-3	-110.401E-12	689.786E-3	-17.1673E-3
-2.99400E-3	-109.282E-12	655.332E-3	-21.2332E-3	-110.510E-12	686.387E-3	-19.9944E-3
-2.99900E-3	-109.448E-12	654.115E-3	-10.3921E-3	-110.392E-12	685.768E-3	-15.3945E-3
-3.00400E-3	-110.287E-12	656.734E-3	7.95789E-3	-110.699E-12	685.867E-3	-42.2909E-3
-3.00900E-3	-110.773E-12	658.384E-3	12.4268E-3	-110.881E-12	676.126E-3	-51.7442E-3
-3.01401E-3	-111.358E-12	665.570E-3	5.07553E-3	-110.688E-12	679.042E-3	-38.7521E-3
-3.01901E-3	-111.385E-12	674.369E-3	-1.73609E-3	-110.574E-12	685.658E-3	-28.4845E-3
-3.02401E-3	-111.753E-12	677.501E-3	-3.36807E-3	-110.844E-12	675.194E-3	-507.080E-6
-3.02901E-3	-111.944E-12	672.042E-3	-7.78740E-3	-111.284E-12	677.901E-3	8.74058E-3
-3.03402E-3	-111.867E-12	663.279E-3	-25.4798E-3	-111.101E-12	675.761E-3	-24.6493E-3
-3.03902E-3	-112.023E-12	667.164E-3	-36.6807E-3	-111.236E-12	660.916E-3	-33.0694E-3
-3.04402E-3	-112.505E-12	679.517E-3	-24.1262E-3	-111.286E-12	664.183E-3	-23.3879E-3
-3.04902E-3	-112.549E-12	677.850E-3	-2.12014E-3	-112.564E-12	666.607E-3	-35.1267E-3
-3.05403E-3	-112.606E-12	680.101E-3	12.7863E-3	-112.607E-12	655.132E-3	-40.0570E-3
-3.05903E-3	-113.194E-12	693.434E-3	13.6701E-3	-112.984E-12	657.474E-3	-34.8784E-3
-3.06403E-3	-113.093E-12	689.838E-3	-4.06963E-3	-113.423E-12	681.988E-3	-39.4072E-3
-3.06903E-3	-113.315E-12	684.659E-3	-19.6024E-3	-114.078E-12	715.774E-3	-39.2519E-3
-3.07404E-3	-113.286E-12	692.569E-3	-8.02332E-3	-114.152E-12	734.659E-3	-20.0027E-3
-3.07904E-3	-113.239E-12	696.255E-3	4.67834E-3	-114.246E-12	715.481E-3	-15.0650E-3
-3.08404E-3	-113.684E-12	680.971E-3	-5.93371E-3	-114.190E-12	672.515E-3	-19.1097E-3
-3.08904E-3	-113.792E-12	658.904E-3	-15.0195E-3	-114.198E-12	655.413E-3	-18.5027E-3
-3.09405E-3	-113.806E-12	657.511E-3	-17.0074E-3	-114.167E-12	668.247E-3	-27.7862E-3
-3.09905E-3	-113.943E-12	666.066E-3	-27.9185E-3	-114.377E-12	666.709E-3	-27.1473E-3
-3.10405E-3	-114.211E-12	662.044E-3	-20.1281E-3	-114.293E-12	659.457E-3	-13.8750E-3
-3.10905E-3	-114.015E-12	660.719E-3	2.17950E-3	-114.210E-12	663.694E-3	-111.241E-6
-3.11406E-3	-114.047E-12	669.409E-3	1.47368E-3	-114.685E-12	659.724E-3	-1.22294E-3
-3.11906E-3	-114.142E-12	671.849E-3	-13.1771E-3	-114.957E-12	657.095E-3	-1.41515E-3
-3.12406E-3	-114.912E-12	664.682E-3	-31.7759E-3	-114.978E-12	664.440E-3	4.98307E-3
-3.12906E-3	-115.208E-12	668.488E-3	-49.6387E-3	-115.233E-12	655.739E-3	-3.66046E-3
-3.13407E-3	-115.754E-12	688.010E-3	-50.5911E-3	-115.416E-12	656.828E-3	-12.8351E-3
-3.13907E-3	-115.707E-12	690.895E-3	-43.5777E-3	-116.057E-12	688.099E-3	-27.4771E-3
-3.14407E-3	-116.556E-12	681.803E-3	-26.9372E-3	-116.243E-12	695.585E-3	-34.0903E-3
-3.14907E-3	-117.194E-12	678.221E-3	-883.816E-6	-116.749E-12	683.052E-3	-12.7588E-3
-3.15408E-3	-117.598E-12	672.319E-3	116.952E-6	-116.778E-12	688.739E-3	-11.7831E-3
-3.15908E-3	-117.392E-12	660.073E-3	-12.8734E-3	-117.109E-12	689.965E-3	-29.7965E-3
-3.16408E-3	-117.956E-12	643.084E-3	-8.20735E-3	-117.554E-12	691.631E-3	-17.5176E-3
-3.16908E-3	-118.427E-12	643.373E-3	4.11413E-3	-117.655E-12	707.827E-3	5.91487E-3
-3.17409E-3	-118.087E-12	660.347E-3	3.24939E-3	-117.501E-12	693.825E-3	16.4812E-3
-3.17909E-3	-117.832E-12	673.192E-3	-13.3024E-3	-116.859E-12	663.446E-3	12.5163E-3
-3.18409E-3	-117.480E-12	678.234E-3	-26.9987E-3	-117.221E-12	664.187E-3	-15.5797E-3
-3.18909E-3	-117.051E-12	661.115E-3	-25.0706E-3	-117.132E-12	667.899E-3	-48.0884E-3
-3.19410E-3	-116.738E-12	629.244E-3	-12.1316E-3	-116.987E-12	653.297E-3	-38.8524E-3
-3.19910E-3	-116.644E-12	627.675E-3	-2.88240E-3	-116.499E-12	643.047E-3	-2.54104E-3
-3.20410E-3	-117.133E-12	641.512E-3	-12.6610E-3	-117.163E-12	644.719E-3	1.81548E-3
-3.20910E-3	-116.993E-12	651.726E-3	-33.0933E-3	-118.191E-12	645.235E-3	-18.6584E-3
-3.21411E-3	-117.826E-12	671.261E-3	-29.8819E-3	-119.280E-12	657.468E-3	-33.9139E-3
-3.21911E-3	-118.505E-12	678.954E-3	-20.1208E-3	-118.986E-12	683.763E-3	-46.4950E-3
-3.22411E-3	-119.554E-12	672.935E-3	-20.5022E-3	-119.860E-12	684.011E-3	-35.1498E-3
-3.22911E-3	-119.317E-12	664.262E-3	-11.2288E-3	-120.702E-12	674.492E-3	-7.06183E-3
-3.23412E-3	-119.946E-12	656.711E-3	-11.2063E-3	-121.560E-12	675.852E-3	-18.6268E-3
-3.23912E-3	-121.374E-12	673.180E-3	-21.8802E-3	-121.451E-12	667.129E-3	-39.3654E-3
-3.24412E-3	-122.569E-12	687.724E-3	-16.1380E-3	-121.800E-12	664.484E-3	-16.5919E-3
-3.24912E-3	-123.170E-12	677.633E-3	-2.14259E-3	-122.229E-12	663.805E-3	-2.85080E-3
-3.25413E-3	-123.257E-12	669.352E-3	-14.4578E-3	-123.206E-12	647.833E-3	-14.6442E-3
-3.25913E-3	-124.290E-12	671.699E-3	-34.8944E-3	-122.761E-12	650.989E-3	-7.53284E-3
-3.26413E-3	-124.588E-12	685.812E-3	-37.8777E-3	-122.605E-12	675.528E-3	-11.4138E-3
-3.26913E-3	-124.418E-12	684.579E-3	-26.5207E-3	-122.469E-12	685.393E-3	-13.1393E-3
-3.27414E-3	-123.911E-12	671.379E-3	-3.99609E-3	-122.265E-12	679.487E-3	17.9485E-3
-3.27914E-3	-123.853E-12	678.786E-3	5.19292E-3	-121.922E-12	666.512E-3	21.0101E-3
-3.28414E-3	-123.945E-12	696.582E-3	-5.13461E-3	-121.548E-12	663.554E-3	-5.75261E-3
-3.28914E-3	-122.824E-12	705.657E-3	-4.52149E-3	-121.338E-12	673.109E-3	-2.83503E-3
-3.29415E-3	-122.471E-12	695.074E-3	9.11636E-3	-121.691E-12	686.302E-3	10.2261E-3
-3.29915E-3	-122.187E-12	688.588E-3	11.2233E-3	-122.300E-12	683.153E-3	-3.80233E-3
-3.30415E-3	-122.683E-12	698.579E-3	5.92927E-3	-122.717E-12	660.233E-3	-13.2507E-3
-3.30915E-3	-122.484E-12	689.791E-3	18.1849E-3	-123.116E-12	657.339E-3	-11.3978E-3
-3.31416E-3	-123.049E-12	666.587E-3	20.1611E-3	-123.907E-12	674.450E-3	-32.1570E-3
-3.31916E-3	-123.747E-12	655.491E-3	-2.69857E-3	-125.049E-12	682.100E-3	-38.3665E-3
-3.32416E-3	-124.071E-12	650.780E-3	-6.33088E-3	-125.615E-12	683.905E-3	-12.0709E-3
-3.32916E-3	-125.007E-12	660.471E-3	-18.1802E-3	-125.785E-12	686.225E-3	-537.440E-6
-3.33417E-3	-125.969E-12	679.472E-3	-46.1627E-3	-126.536E-12	684.325E-3	3.63535E-3
-3.33917E-3	-126.273E-12	684.162E-3	-44.8174E-3	-126.270E-12	683.611E-3	4.97556E-3
-3.34417E-3	-126.425E-12	675.734E-3	-34.7219E-3	-126.964E-12	685.988E-3	-17.1179E-3
-3.34917E-3	-127.465E-12	669.525E-3	-36.2912E-3	-126.778E-12	683.306E-3	-22.2449E-3
-3.35418E-3	-128.147E-12	665.845E-3	-32.0059E-3	-126.685E-12	674.024E-3	10.0642E-3
-3.35918E-3	-128.178E-12	663.866E-3	-29.7524E-3	-126.398E-12	663.982E-3	10.6158E-3
-3.36418E-3	-127.887E-12	673.262E-3	-28.4213E-3	-126.243E-12	648.549E-3	-33.4362E-3
-3.36918E-3	-127.336E-12	675.633E-3	-23.1891E-3	-126.310E-12	647.600E-3	-38.0234E-3
-3.37419E-3	-127.701E-12	664.881E-3	-31.2188E-3	-126.503E-12	667.911E-3	-4.38535E-3
-3.37919E-3	-127.465E-12	666.346E-3	-29.2800E-3	-126.255E-12	659.581E-3	1.33488E-3
-3.38419E-3	-127.003E-12	676.775E-3	-10.2204E-3	-126.609E-12	634.902E-3	-16.4566E-3
-3.38919E-3	-126.572E-12	680.446E-3	1.54217E-3	-126.923E-12	639.620E-3	-34.7693E-3
-3.39420E-3	-126.162E-12	667.700E-3	-5.38556E-3	-127.583E-12	652.866E-3	-30.9406E-3
-3.39920E-3	-126.852E-12	645.152E-3	-14.5701E-3	-127.745E-12	656.749E-3	2.68432E-3
-3.40420E-3	-126.515E-12	639.606E-3	-9.68633E-3	-128.151E-12	654.088E-3	9.86388E-3
-3.40920E-3	-127.108E-12	652.828E-3	-3.09592E-3	-129.318E-12	636.895E-3	-10.1878E-3
-3.41421E-3	-126.718E-12	666.054E-3	1.09946E-3	-129.809E-12	631.072E-3	-2.67127E-3
-3.41921E-3	-127.392E-12	650.137E-3	-107.274E-6	-129.786E-12	664.655E-3	3.88315E-3
-3.42421E-3	-127.485E-12	623.136E-3	-14.4540E-3	-130.620E-12	679.342E-3	-19.5043E-3
-3.42921E-3	-127.789E-12	638.014E-3	-18.9163E-3	-130.577E-12	665.653E-3	-25.3218E-3
-3.43422E-3	-127.245E-12	663.947E-3	6.96882E-3	-130.798E-12	685.386E-3	-20.8793E-3
-3.43922E-3	-127.471E-12	667.207E-3	18.0671E-3	-130.468E-12	698.433E-3	-38.4161E-3
-3.44422E-3	-128.719E-12	671.668E-3	-8.47335E-3	-130.044E-12	678.108E-3	-39.4421E-3
-3.44922E-3	-128.807E-12	674.532E-3	-19.0764E-3	-130.581E-12	662.437E-3	-26.3636E-3
-3.45423E-3	-129.375E-12	672.186E-3	-10.7094E-3	-130.084E-12	647.872E-3	-33.4826E-3
-3.45923E-3	-129.210E-12	678.896E-3	-10.3640E-3	-130.619E-12	644.272E-3	-38.2610E-3
-3.46423E-3	-129.969E-12	677.120E-3	-14.9591E-3	-130.615E-12	678.627E-3	-34.5011E-3
-3.46923E-3	-130.208E-12	664.514E-3	-43.7614E-3	-130.805E-12	695.981E-3	-38.6722E-3
-3.47424E-3	-130.175E-12	668.100E-3	-63.4250E-3	-130.968E-12	677.869E-3	-26.6106E-3
-3.47924E-3	-130.548E-12	674.071E-3	-33.6047E-3	-131.897E-12	684.717E-3	-2.75582E-3
-3.48424E-3	-130.618E-12	654.160E-3	-13.6018E-3	-132.448E-12	689.152E-3	-3.73114E-3
-3.48924E-3	-131.777E-12	637.584E-3	-24.3924E-3	-133.217E-12	664.559E-3	-15.3480E-3
-3.49425E-3	-131.798E-12	646.249E-3	-22.1759E-3	-133.089E-12	669.331E-3	-2.06042E-3
-3.49925E-3	-132.358E-12	652.699E-3	-14.4246E-3	-133.664E-12	686.136E-3	10.7873E-3
-3.50425E-3	-132.390E-12	657.848E-3	-11.3137E-3	-133.819E-12	657.592E-3	464.774E-6
-3.50925E-3	-133.229E-12	652.818E-3	-6.27739E-3	-133.905E-12	635.404E-3	-10.9947E-3
-3.51426E-3	-132.407E-12	636.779E-3	6.87779E-3	-133.114E-12	656.478E-3	-34.1178E-3
-3.51926E-3	-132.280E-12	631.123E-3	17.2277E-3	-132.706E-12	667.246E-3	-42.1934E-3
-3.52426E-3	-132.262E-12	638.007E-3	4.62078E-3	-132.376E-12	651.007E-3	-18.9644E-3
-3.52926E-3	-132.649E-12	651.752E-3	-5.38503E-3	-132.525E-12	643.554E-3	-9.50906E-3
-3.53427E-3	-132.449E-12	658.628E-3	1.76123E-3	-132.444E-12	649.105E-3	-17.2795E-3
-3.53927E-3	-131.775E-12	674.263E-3	10.1748E-3	-132.588E-12	647.102E-3	-20.4265E-3
-3.54427E-3	-132.154E-12	690.813E-3	2.16079E-3	-132.263E-12	656.393E-3	-29.2205E-3
-3.54927E-3	-133.599E-12	673.898E-3	-23.1612E-3	-133.261E-12	669.093E-3	-25.7272E-3
-3.55428E-3	-133.928E-12	645.433E-3	-34.5442E-3	-134.717E-12	673.136E-3	9.99087E-3
-3.55928E-3	-133.859E-12	635.525E-3	-24.1359E-3	-135.172E-12	673.705E-3	13.5788E-3
-3.56428E-3	-134.349E-12	648.235E-3	-22.1719E-3	-135.202E-12	652.860E-3	-27.2856E-3
-3.56928E-3	-136.172E-12	648.952E-3	-23.8504E-3	-136.270E-12	658.141E-3	-47.0883E-3
-3.57429E-3	-136.824E-12	631.579E-3	-14.9991E-3	-137.221E-12	690.984E-3	-37.1260E-3
-3.57929E-3	-137.414E-12	644.656E-3	-14.8759E-3	-138.169E-12	683.626E-3	-18.2570E-3
-3.58429E-3	-137.971E-12	671.029E-3	-15.6590E-3	-137.221E-12	666.581E-3	6.54591E-3
-3.58929E-3	-138.539E-12	672.700E-3	-15.3462E-3	-137.513E-12	681.694E-3	8.20317E-3
-3.59430E-3	-139.010E-12	658.135E-3	-33.5600E-3	-137.599E-12	673.311E-3	-18.6024E-3
-3.59930E-3	-138.544E-12	651.935E-3	-32.1416E-3	-137.800E-12	629.491E-3	-36.7640E-3
-3.60430E-3	-138.055E-12	653.143E-3	-3.48704E-3	-136.735E-12	620.723E-3	-41.1873E-3
-3.60930E-3	-138.203E-12	658.378E-3	5.70586E-3	-136.184E-12	652.391E-3	-37.7765E-3
-3.61431E-3	-138.108E-12	680.281E-3	-4.17857E-3	-135.942E-12	681.931E-3	-21.0412E-3
-3.61931E-3	-137.195E-12	688.204E-3	-18.2559E-3	-136.144E-12	695.491E-3	-12.8220E-3
-3.62431E-3	-137.636E-12	676.830E-3	-31.8715E-3	-135.336E-12	673.921E-3	-36.2190E-3
-3.62931E-3	-137.576E-12	677.535E-3	-29.7995E-3	-135.308E-12	639.991E-3	-39.5783E-3
-3.63432E-3	-137.105E-12	681.367E-3	-9.75870E-3	-135.132E-12	632.892E-3	-20.6097E-3
-3.63932E-3	-137.278E-12	677.648E-3	-4.78927E-3	-136.105E-12	643.519E-3	-42.0974E-3
-3.64432E-3	-138.244E-12	673.037E-3	-24.2702E-3	-136.774E-12	652.552E-3	-70.2132E-3
-3.64932E-3	-138.855E-12	661.557E-3	-28.5042E-3	-138.103E-12	655.245E-3	-55.5694E-3
-3.65433E-3	-139.176E-12	642.884E-3	-9.88552E-3	-138.356E-12	648.473E-3	-24.8309E-3
-3.65933E-3	-139.654E-12	646.904E-3	-3.15371E-3	-139.193E-12	632.145E-3	-5.27551E-3
-3.66433E-3	-140.320E-12	645.891E-3	-1.80416E-3	-140.201E-12	627.757E-3	-16.7312E-3
-3.66933E-3	-140.793E-12	635.927E-3	-3.60782E-3	-141.171E-12	631.314E-3	-58.4595E-3
-3.67434E-3	-141.192E-12	667.203E-3	-25.2358E-3	-141.177E-12	631.402E-3	-62.4027E-3
-3.67934E-3	-141.660E-12	689.565E-3	-26.5983E-3	-141.375E-12	637.865E-3	-25.7153E-3
-3.68434E-3	-142.167E-12	671.801E-3	-11.9025E-3	-141.721E-12	640.870E-3	-22.4128E-3
-3.68934E-3	-142.554E-12	662.720E-3	-19.2335E-3	-142.500E-12	636.242E-3	-45.4123E-3
-3.69435E-3	-142.146E-12	669.214E-3	-28.6193E-3	-141.763E-12	646.949E-3	-38.7976E-3
-3.69935E-3	-142.021E-12	667.964E-3	-30.4798E-3	-141.505E-12	673.250E-3	-9.87029E-3
-3.70435E-3	-141.081E-12	664.642E-3	-27.4007E-3	-140.746E-12	661.832E-3	2.24479E-3
-3.70935E-3	-141.173E-12	665.445E-3	-14.7725E-3	-140.196E-12	621.858E-3	-12.1876E-3
-3.71436E-3	-140.669E-12	654.874E-3	-9.53663E-3	-140.077E-12	621.473E-3	-44.0949E-3
-3.71936E-3	-140.732E-12	639.135E-3	-16.7484E-3	-140.275E-12	642.014E-3	-53.9157E-3
-3.72436E-3	-141.010E-12	641.702E-3	-10.7933E-3	-140.490E-12	653.379E-3	-10.3512E-3
-3.72936E-3	-141.401E-12	648.396E-3	8.20465E-3	-139.974E-12	657.960E-3	11.8595E-3
-3.73437E-3	-141.797E-12	650.139E-3	3.12020E-3	-141.062E-12	628.564E-3	-24.4025E-3
-3.73937E-3	-142.131E-12	647.432E-3	-19.7515E-3	-141.889E-12	602.002E-3	-45.8212E-3
-3.74437E-3	-142.750E-12	635.993E-3	-15.3512E-3	-142.813E-12	642.531E-3	-44.2566E-3
-3.74937E-3	-143.445E-12	625.790E-3	-7.64700E-3	-142.514E-12	690.511E-3	-38.7431E-3
-3.75438E-3	-144.266E-12	625.865E-3	-14.2563E-3	-143.372E-12	684.537E-3	-14.4321E-3
-3.75938E-3	-144.636E-12	639.955E-3	-4.75457E-3	-144.757E-12	668.277E-3	5.28019E-3
-3.76438E-3	-144.973E-12	665.112E-3	5.89991E-3	-145.578E-12	669.568E-3	-7.63512E-3
-3.76938E-3	-145.526E-12	689.747E-3	7.96510E-3	-145.392E-12	681.811E-3	-23.4633E-3
-3.77439E-3	-145.926E-12	686.261E-3	940.299E-6	-145.922E-12	696.463E-3	-22.4400E-3
-3.77939E-3	-145.703E-12	659.602E-3	-23.3028E-3	-146.769E-12	679.444E-3	-24.2913E-3
-3.78439E-3	-145.579E-12	651.817E-3	-32.8297E-3	-147.802E-12	647.780E-3	-10.2573E-3
-3.78939E-3	-145.191E-12	656.843E-3	-13.9671E-3	-147.532E-12	658.130E-3	14.1285E-3
-3.79440E-3	-145.371E-12	632.782E-3	-13.0760E-3	-146.870E-12	678.249E-3	-7.31261E-3
-3.79940E-3	-145.384E-12	605.003E-3	-28.1913E-3	-147.044E-12	661.216E-3	-29.1747E-3
-3.80440E-3	-145.091E-12	615.701E-3	-17.4475E-3	-147.119E-12	648.608E-3	-5.84619E-3
-3.80940E-3	-144.345E-12	646.727E-3	-685.634E-6	-146.718E-12	659.212E-3	597.465E-6
-3.81441E-3	-144.801E-12	667.549E-3	-773.629E-6	-146.184E-12	652.184E-3	-6.76457E-3
-3.81941E-3	-145.020E-12	663.618E-3	-2.73652E-3	-145.443E-12	652.734E-3	-2.14176E-3
-3.82441E-3	-144.903E-12	646.512E-3	743.923E-6	-146.804E-12	665.614E-3	-13.1383E-3
-3.82941E-3	-144.664E-12	628.311E-3	-14.8936E-3	-146.963E-12	653.844E-3	-13.3515E-3
-3.83442E-3	-145.287E-12	600.370E-3	-47.0150E-3	-147.989E-12	640.580E-3	19.4779E-3
-3.83942E-3	-146.629E-12	587.037E-3	-50.4355E-3	-147.339E-12	640.533E-3	24.3291E-3
-3.84442E-3	-147.140E-12	609.640E-3	-37.7926E-3	-147.903E-12	653.292E-3	-2.98778E-3
-3.84942E-3	-147.219E-12	633.115E-3	-35.5730E-3	-148.531E-12	665.506E-3	-12.0566E-3
-3.85443E-3	-147.756E-12	631.681E-3	-32.3801E-3	-149.026E-12	645.223E-3	-2.70312E-3
-3.85943E-3	-148.436E-12	619.662E-3	-28.4046E-3	-147.908E-12	609.572E-3	4.77011E-3
-3.86443E-3	-148.917E-12	639.026E-3	-22.7645E-3	-148.652E-12	608.295E-3	-8.37031E-3
-3.86943E-3	-149.150E-12	686.094E-3	-30.6487E-3	-149.245E-12	645.610E-3	-35.7847E-3
-3.87444E-3	-149.441E-12	693.989E-3	-64.7227E-3	-149.631E-12	662.773E-3	-27.5477E-3
-3.87944E-3	-149.620E-12	664.372E-3	-71.1408E-3	-148.646E-12	653.706E-3	22.2709E-3
-3.88444E-3	-149.889E-12	643.799E-3	-47.0013E-3	-149.030E-12	659.502E-3	41.2150E-3
-3.88944E-3	-149.866E-12	644.870E-3	-32.6834E-3	-150.094E-12	655.348E-3	17.8279E-3
-3.89445E-3	-149.920E-12	653.172E-3	-24.7052E-3	-151.116E-12	643.034E-3	13.6222E-3
-3.89945E-3	-150.297E-12	647.798E-3	-19.6567E-3	-150.627E-12	659.325E-3	17.1417E-3
-3.90445E-3	-150.483E-12	644.222E-3	-25.1867E-3	-150.581E-12	676.487E-3	-6.80385E-3
-3.90945E-3	-150.508E-12	647.251E-3	-9.50019E-3	-151.072E-12	674.897E-3	-5.24316E-3
-3.91446E-3	-150.716E-12	632.165E-3	18.1434E-3	-152.183E-12	654.138E-3	10.2181E-3
-3.91946E-3	-151.184E-12	616.465E-3	937.762E-6	-151.862E-12	633.263E-3	-4.03137E-3
-3.92446E-3	-150.783E-12	623.924E-3	-10.9228E-3	-151.745E-12	645.673E-3	-4.58268E-3
-3.92946E-3	-150.816E-12	630.146E-3	7.50416E-3	-151.557E-12	667.921E-3	-20.5804E-3
-3.93447E-3	-151.161E-12	632.983E-3	3.48543E-3	-151.944E-12	649.393E-3	-67.0095E-3
-3.93947E-3	-150.583E-12	645.711E-3	-13.8404E-3	-151.348E-12	614.748E-3	-58.9749E-3
-3.94447E-3	-150.274E-12	656.467E-3	-10.1134E-3	-150.476E-12	622.575E-3	-15.6989E-3
-3.94947E-3	-150.530E-12	648.910E-3	-8.25736E-3	-150.154E-12	638.115E-3	-15.1894E-3
-3.95448E-3	-151.468E-12	637.431E-3	-35.6832E-3	-150.192E-12	639.928E-3	-31.2433E-3
-3.95948E-3	-151.109E-12	647.531E-3	-47.9990E-3	-150.234E-12	656.722E-3	-34.8663E-3
-3.96448E-3	-151.241E-12	662.673E-3	-36.0572E-3	-150.224E-12	647.728E-3	-40.6548E-3
-3.96948E-3	-151.813E-12	676.420E-3	-29.3671E-3	-151.002E-12	625.410E-3	-31.4510E-3
-3.97449E-3	-153.027E-12	683.211E-3	-19.3006E-3	-151.737E-12	639.671E-3	-3.97158E-3
-3.97949E-3	-153.540E-12	673.980E-3	-10.4318E-3	-152.155E-12	652.774E-3	-10.2489E-3
-3.98449E-3	-154.098E-12	674.881E-3	-17.8528E-3	-153.388E-12	650.140E-3	-36.8978E-3
-3.98949E-3	-154.691E-12	685.589E-3	-24.4492E-3	-154.564E-12	657.487E-3	-18.3281E-3
-3.99450E-3	-155.555E-12	676.260E-3	-19.3589E-3	-155.401E-12	679.024E-3	-17.7749E-3
-3.99950E-3	-156.024E-12	667.101E-3	-12.4201E-3	-155.942E-12	684.371E-3	-53.8101E-3
-4.00450E-3	-155.799E-12	670.075E-3	-11.9440E-3	-156.836E-12	681.721E-3	-44.0298E-3
-4.00950E-3	-156.335E-12	660.395E-3	-23.9888E-3	-157.475E-12	675.540E-3	-5.87759E-3
-4.01451E-3	-156.580E-12	658.308E-3	-32.9597E-3	-157.573E-12	637.236E-3	19.3252E-3
-4.01951E-3	-156.359E-12	670.114E-3	-22.2688E-3	-157.574E-12	620.464E-3	13.0280E-3
-4.02451E-3	-156.053E-12	676.705E-3	-7.96967E-3	-157.224E-12	639.916E-3	-18.8999E-3
-4.02951E-3	-155.698E-12	659.246E-3	-23.6210E-3	-157.042E-12	630.454E-3	-23.3016E-3
-4.03452E-3	-155.310E-12	607.375E-3	-29.0752E-3	-155.838E-12	603.066E-3	-3.01739E-3
-4.03952E-3	-154.646E-12	597.102E-3	9.46724E-3	-155.042E-12	602.522E-3	-23.8094E-3
-4.04452E-3	-154.821E-12	644.374E-3	26.2956E-3	-154.635E-12	618.277E-3	-68.4441E-3
-4.04952E-3	-155.221E-12	672.193E-3	6.93229E-3	-154.791E-12	646.096E-3	-61.6968E-3
-4.05453E-3	-154.379E-12	671.116E-3	-4.64583E-3	-154.337E-12	678.098E-3	-32.4611E-3
-4.05953E-3	-154.434E-12	679.571E-3	4.29305E-3	-154.437E-12	683.784E-3	-21.5045E-3
-4.06453E-3	-155.552E-12	687.621E-3	17.4104E-3	-154.460E-12	673.653E-3	-7.17217E-3
-4.06953E-3	-156.849E-12	660.850E-3	19.8464E-3	-155.300E-12	660.889E-3	-12.1798E-3
-4.07454E-3	-157.025E-12	639.988E-3	-5.61704E-3	-156.322E-12	637.038E-3	-47.0918E-3
-4.07954E-3	-157.681E-12	656.350E-3	-27.8095E-3	-157.218E-12	627.674E-3	-60.6319E-3
-4.08454E-3	-158.879E-12	672.957E-3	-18.3675E-3	-157.992E-12	653.999E-3	-36.8913E-3
-4.08954E-3	-159.921E-12	659.808E-3	-19.5238E-3	-159.026E-12	668.882E-3	-22.4196E-3
-4.09455E-3	-160.485E-12	633.903E-3	-33.7421E-3	-158.830E-12	657.928E-3	-21.0637E-3
-4.09955E-3	-160.187E-12	642.001E-3	-30.5234E-3	-160.864E-12	672.207E-3	-10.8887E-3
-4.10455E-3	-161.164E-12	660.992E-3	-20.2498E-3	-161.273E-12	682.272E-3	1.18295E-3
-4.10955E-3	-160.436E-12	663.141E-3	-22.3974E-3	-161.563E-12	648.965E-3	14.6573E-3
-4.11456E-3	-160.165E-12	675.731E-3	-32.8839E-3	-161.181E-12	634.725E-3	20.4266E-3
-4.11956E-3	-159.595E-12	680.210E-3	-40.9353E-3	-161.683E-12	651.927E-3	-259.844E-6
-4.12456E-3	-159.632E-12	660.934E-3	-42.4682E-3	-161.842E-12	639.673E-3	-28.7120E-3
-4.12956E-3	-159.243E-12	645.812E-3	-42.3410E-3	-161.461E-12	642.400E-3	-24.6154E-3
-4.13457E-3	-158.790E-12	642.484E-3	-42.5169E-3	-160.332E-12	665.815E-3	-8.38166E-3
-4.13957E-3	-158.557E-12	653.773E-3	-38.8077E-3	-160.075E-12	641.640E-3	8.60414E-3
-4.14457E-3	-158.822E-12	669.957E-3	-25.0779E-3	-160.266E-12	618.081E-3	20.3614E-3
-4.14957E-3	-158.578E-12	666.496E-3	-15.0641E-3	-159.326E-12	637.007E-3	-6.25051E-3
-4.15458E-3	-159.084E-12	663.890E-3	-13.7183E-3	-158.723E-12	656.753E-3	-18.2189E-3
-4.15958E-3	-159.613E-12	669.417E-3	1.59934E-3	-159.518E-12	661.299E-3	1.96083E-3
-4.16458E-3	-160.164E-12	663.713E-3	729.579E-6	-160.472E-12	665.030E-3	-23.9428E-3
-4.16958E-3	-161.475E-12	670.328E-3	-31.6941E-3	-160.659E-12	665.515E-3	-62.0470E-3
-4.17459E-3	-162.325E-12	672.538E-3	-40.8600E-3	-161.206E-12	670.357E-3	-41.6470E-3
-4.17959E-3	-163.721E-12	650.353E-3	-12.1016E-3	-162.759E-12	677.060E-3	-13.8334E-3
-4.18459E-3	-164.210E-12	655.803E-3	-11.5847E-3	-163.520E-12	671.594E-3	-18.1300E-3
-4.18959E-3	-165.327E-12	672.752E-3	-28.3724E-3	-164.141E-12	655.393E-3	-16.0324E-3
-4.19460E-3	-165.390E-12	667.091E-3	-28.0254E-3	-164.601E-12	649.649E-3	-11.1128E-3
-4.19960E-3	-166.161E-12	664.713E-3	-31.2526E-3	-165.485E-12	659.114E-3	-31.0910E-3
-4.20460E-3	-165.602E-12	653.660E-3	-19.8799E-3	-165.831E-12	670.005E-3	-38.1895E-3
-4.20960E-3	-164.775E-12	622.535E-3	-3.94557E-3	-166.012E-12	701.259E-3	-18.7947E-3
-4.21461E-3	-165.392E-12	611.132E-3	-11.6632E-3	-165.967E-12	705.903E-3	-12.8853E-3
-4.21961E-3	-165.505E-12	634.506E-3	-25.9680E-3	-166.260E-12	664.140E-3	-19.5317E-3
-4.22461E-3	-165.409E-12	655.094E-3	-28.3476E-3	-166.083E-12	654.817E-3	-28.1439E-3
-4.22961E-3	-164.039E-12	652.187E-3	-35.1230E-3	-165.706E-12	661.601E-3	-34.6167E-3
-4.23462E-3	-164.254E-12	652.434E-3	-42.7636E-3	-165.482E-12	634.788E-3	-26.4949E-3
-4.23962E-3	-163.836E-12	651.426E-3	-20.5667E-3	-165.031E-12	625.347E-3	-16.3512E-3
-4.24462E-3	-164.751E-12	644.535E-3	-1.14179E-3	-164.709E-12	642.369E-3	-16.8150E-3
-4.24962E-3	-164.240E-12	641.811E-3	-1.38410E-3	-164.575E-12	637.478E-3	-5.53541E-3
-4.25463E-3	-164.578E-12	629.607E-3	7.35127E-3	-165.252E-12	639.137E-3	5.40234E-3
-4.25963E-3	-164.727E-12	621.846E-3	4.75126E-3	-165.342E-12	640.956E-3	-9.30850E-3
-4.26463E-3	-165.329E-12	642.732E-3	-8.18616E-3	-165.143E-12	629.531E-3	-13.5910E-3
-4.26963E-3	-165.944E-12	667.978E-3	-13.3223E-3	-165.742E-12	645.258E-3	1.40724E-3
-4.27464E-3	-165.816E-12	659.622E-3	-22.8216E-3	-166.379E-12	666.594E-3	4.14079E-3
-4.27964E-3	-166.335E-12	645.183E-3	-28.6879E-3	-166.557E-12	661.396E-3	-13.8649E-3
-4.28464E-3	-167.607E-12	637.573E-3	-10.5419E-3	-167.063E-12	662.240E-3	-9.49230E-3
-4.28964E-3	-167.867E-12	644.505E-3	2.56200E-3	-166.754E-12	677.220E-3	8.15273E-3
-4.29465E-3	-167.853E-12	676.032E-3	-10.3178E-3	-167.378E-12	666.602E-3	-15.6979E-3
-4.29965E-3	-168.752E-12	690.854E-3	-15.2455E-3	-167.620E-12	650.050E-3	-45.7581E-3
-4.30465E-3	-169.259E-12	665.576E-3	-18.3973E-3	-168.380E-12	659.781E-3	-57.0271E-3
-4.30965E-3	-169.316E-12	649.982E-3	-18.0904E-3	-168.148E-12	669.389E-3	-58.7152E-3
-4.31466E-3	-169.585E-12	674.934E-3	-8.05626E-3	-168.284E-12	664.280E-3	-28.9638E-3
-4.31966E-3	-168.732E-12	677.096E-3	-4.29191E-3	-169.180E-12	658.607E-3	3.50535E-3
-4.32466E-3	-170.152E-12	643.295E-3	3.42288E-3	-169.586E-12	634.230E-3	-2.10586E-3
-4.32966E-3	-169.556E-12	627.473E-3	9.76332E-3	-168.878E-12	607.241E-3	-2.73743E-3
-4.33467E-3	-170.131E-12	621.036E-3	-2.43661E-3	-168.759E-12	629.148E-3	9.39408E-3
-4.33967E-3	-169.637E-12	618.717E-3	-17.2017E-3	-169.168E-12	652.990E-3	-12.9483E-3
-4.34467E-3	-169.652E-12	631.177E-3	-18.7518E-3	-168.948E-12	653.551E-3	-40.5044E-3
-4.34967E-3	-168.566E-12	635.714E-3	-28.5336E-3	-168.944E-12	671.977E-3	-47.5582E-3
-4.35468E-3	-168.794E-12	634.297E-3	-55.1446E-3	-168.836E-12	667.950E-3	-43.6363E-3
-4.35968E-3	-168.130E-12	648.411E-3	-71.6530E-3	-169.316E-12	641.902E-3	-5.40999E-3
-4.36468E-3	-167.997E-12	657.071E-3	-59.5350E-3	-169.376E-12	653.679E-3	36.1404E-3
-4.36968E-3	-167.734E-12	648.039E-3	-42.4210E-3	-168.776E-12	663.190E-3	14.4733E-3
-4.37469E-3	-168.453E-12	649.523E-3	-21.3994E-3	-168.449E-12	639.430E-3	-14.4421E-3
-4.37969E-3	-169.838E-12	650.527E-3	11.1720E-3	-168.724E-12	625.220E-3	-13.4991E-3
-4.38469E-3	-170.480E-12	647.269E-3	18.4271E-3	-169.187E-12	620.991E-3	-28.6123E-3
-4.38969E-3	-170.317E-12	655.838E-3	15.9146E-3	-168.475E-12	618.715E-3	-45.8141E-3
-4.39470E-3	-171.583E-12	650.708E-3	27.5176E-3	-169.563E-12	642.162E-3	-53.1711E-3
-4.39970E-3	-172.433E-12	627.266E-3	8.61449E-3	-169.512E-12	667.384E-3	-70.1623E-3
-4.40470E-3	-173.271E-12	635.259E-3	-33.2081E-3	-170.424E-12	656.610E-3	-78.0599E-3
-4.40970E-3	-173.898E-12	666.987E-3	-40.4979E-3	-170.736E-12	639.666E-3	-46.6550E-3
-4.41471E-3	-175.137E-12	676.926E-3	-30.8902E-3	-172.665E-12	631.581E-3	1.36743E-3
-4.41971E-3	-175.035E-12	680.958E-3	-29.1489E-3	-172.859E-12	615.363E-3	22.5206E-3
-4.42471E-3	-175.009E-12	680.146E-3	-32.2279E-3	-173.699E-12	635.752E-3	13.6096E-3
-4.42971E-3	-175.106E-12	659.031E-3	-45.8631E-3	-174.428E-12	687.271E-3	-14.1246E-3
-4.43472E-3	-174.464E-12	643.536E-3	-61.1492E-3	-175.515E-12	678.338E-3	-36.4094E-3
-4.43972E-3	-173.536E-12	641.614E-3	-47.1303E-3	-175.313E-12	638.564E-3	-25.3746E-3
-4.44472E-3	-173.163E-12	634.380E-3	-15.7928E-3	-175.136E-12	633.496E-3	-27.7875E-3
-4.44972E-3	-173.284E-12	641.151E-3	-21.0361E-3	-175.583E-12	623.677E-3	-48.3802E-3
-4.45473E-3	-172.391E-12	660.314E-3	-27.1811E-3	-175.562E-12	619.640E-3	-38.0660E-3
-4.45973E-3	-171.281E-12	637.398E-3	-7.70919E-3	-175.248E-12	646.614E-3	-40.1433E-3
-4.46473E-3	-171.345E-12	606.584E-3	-3.04660E-3	-173.981E-12	669.348E-3	-59.1355E-3
-4.46973E-3	-171.799E-12	619.040E-3	-4.01258E-3	-173.663E-12	675.906E-3	-31.8123E-3
-4.47474E-3	-172.014E-12	641.051E-3	3.86558E-3	-173.515E-12	669.132E-3	5.85265E-3
-4.47974E-3	-172.562E-12	658.679E-3	-451.520E-6	-172.932E-12	644.700E-3	1.34313E-3
-4.48474E-3	-172.989E-12	668.898E-3	-4.86330E-3	-172.526E-12	628.726E-3	5.85747E-3
-4.48974E-3	-174.787E-12	650.387E-3	-10.6749E-3	-173.133E-12	655.942E-3	18.6386E-3
-4.49475E-3	-175.357E-12	639.186E-3	-36.0406E-3	-173.730E-12	667.770E-3	-1.53912E-3
-4.49975E-3	-176.689E-12	659.399E-3	-38.9702E-3	-174.325E-12	647.479E-3	1.48400E-3
-4.50475E-3	-177.094E-12	665.935E-3	-17.1563E-3	-174.944E-12	661.724E-3	13.8484E-3
-4.50975E-3	-179.142E-12	653.876E-3	-8.08547E-3	-176.283E-12	679.307E-3	-15.8669E-3
-4.51476E-3	-179.239E-12	654.290E-3	-8.69647E-3	-178.277E-12	666.104E-3	-27.3538E-3
-4.51976E-3	-180.236E-12	642.027E-3	-2.53301E-3	-178.562E-12	660.542E-3	-25.3752E-3
-4.52476E-3	-179.539E-12	624.217E-3	-2.91415E-3	-179.172E-12	642.444E-3	-41.2168E-3
-4.52976E-3	-180.243E-12	648.950E-3	-10.8212E-3	-180.961E-12	618.491E-3	-33.0435E-3
-4.53477E-3	-179.245E-12	668.193E-3	-10.1020E-3	-181.327E-12	645.119E-3	-23.0793E-3
-4.53977E-3	-179.585E-12	652.972E-3	-27.2090E-3	-180.717E-12	679.035E-3	-41.0121E-3
-4.54477E-3	-179.087E-12	652.791E-3	-27.1525E-3	-180.603E-12	667.884E-3	-32.3822E-3
-4.54977E-3	-178.653E-12	663.885E-3	16.8787E-3	-181.144E-12	644.625E-3	-7.71335E-3
-4.55478E-3	-177.647E-12	647.062E-3	30.0295E-3	-180.855E-12	639.336E-3	-20.3003E-3
-4.55978E-3	-177.669E-12	617.205E-3	14.2343E-3	-179.545E-12	636.979E-3	-28.3240E-3
-4.56478E-3	-177.249E-12	601.756E-3	5.69550E-3	-178.570E-12	639.262E-3	-17.9919E-3
-4.56978E-3	-177.184E-12	601.843E-3	-8.30271E-3	-178.796E-12	647.984E-3	-21.8115E-3
-4.57479E-3	-177.182E-12	626.940E-3	-23.0810E-3	-178.081E-12	644.418E-3	-8.18747E-3
-4.57979E-3	-178.088E-12	636.704E-3	-29.6233E-3	-177.726E-12	643.302E-3	8.17828E-3
-4.58479E-3	-178.273E-12	608.724E-3	-35.5277E-3	-177.584E-12	641.455E-3	-31.8831E-3
-4.58979E-3	-179.104E-12	606.973E-3	-40.7157E-3	-177.451E-12	621.896E-3	-56.3629E-3
-4.59480E-3	-180.224E-12	641.513E-3	-17.2352E-3	-177.814E-12	627.021E-3	-30.1505E-3
-4.59980E-3	-181.901E-12	665.414E-3	2.87083E-3	-178.063E-12	653.448E-3	-41.3631E-3
-4.60480E-3	-182.287E-12	670.014E-3	-18.3414E-3	-178.592E-12	664.401E-3	-60.1883E-3
-4.60980E-3	-183.130E-12	675.512E-3	-28.0421E-3	-180.396E-12	677.518E-3	-22.6652E-3
-4.61481E-3	-183.811E-12	673.968E-3	-10.7553E-3	-181.093E-12	692.345E-3	-8.41214E-3
-4.61981E-3	-184.197E-12	659.205E-3	-17.6432E-3	-181.875E-12	672.760E-3	-45.8827E-3
-4.62481E-3	-184.177E-12	664.952E-3	-43.3464E-3	-182.880E-12	644.806E-3	-53.1376E-3
-4.62981E-3	-183.951E-12	672.327E-3	-46.4380E-3	-184.051E-12	653.790E-3	-37.0025E-3
-4.63482E-3	-183.745E-12	666.048E-3	-38.5152E-3	-183.608E-12	650.035E-3	-51.7526E-3
-4.63982E-3	-183.923E-12	661.870E-3	-21.7874E-3	-184.063E-12	617.386E-3	-53.0120E-3
-4.64482E-3	-183.883E-12	642.360E-3	3.73603E-3	-183.389E-12	617.637E-3	-26.9869E-3
-4.64982E-3	-183.774E-12	631.735E-3	-5.53643E-3	-184.578E-12	645.030E-3	-19.1652E-3
-4.65483E-3	-182.837E-12	644.398E-3	-29.7263E-3	-184.176E-12	664.645E-3	-8.28393E-3
-4.65983E-3	-182.518E-12	647.292E-3	-43.8666E-3	-183.870E-12	673.714E-3	10.5223E-3
-4.66483E-3	-182.315E-12	634.196E-3	-66.5809E-3	-183.205E-12	660.042E-3	5.03312E-3
-4.66983E-3	-182.606E-12	617.134E-3	-62.7367E-3	-183.693E-12	629.706E-3	-6.68261E-3
-4.67484E-3	-181.990E-12	605.416E-3	-15.9882E-3	-183.771E-12	618.257E-3	-5.96640E-3
-4.67984E-3	-181.892E-12	612.001E-3	10.7614E-3	-183.662E-12	650.922E-3	-23.6544E-3
-4.68484E-3	-182.181E-12	627.649E-3	-33.4141E-3	-182.825E-12	670.668E-3	-39.7309E-3
-4.68984E-3	-183.252E-12	635.545E-3	-64.0676E-3	-182.762E-12	657.769E-3	-23.2070E-3
-4.69485E-3	-183.235E-12	645.467E-3	-43.7083E-3	-183.445E-12	642.125E-3	-18.7999E-3
-4.69985E-3	-183.919E-12	663.491E-3	-49.0026E-3	-183.457E-12	626.531E-3	-28.6058E-3
-4.70485E-3	-184.156E-12	665.182E-3	-44.4647E-3	-183.583E-12	644.745E-3	-27.1568E-3
-4.70985E-3	-184.628E-12	655.790E-3	-9.58053E-3	-183.804E-12	673.710E-3	-49.1249E-3
-4.71486E-3	-184.893E-12	668.452E-3	3.16214E-3	-184.552E-12	664.412E-3	-59.4865E-3
-4.71986E-3	-185.355E-12	673.219E-3	-8.24018E-3	-186.145E-12	652.258E-3	-23.6113E-3
-4.72486E-3	-185.778E-12	648.778E-3	-26.3799E-3	-186.084E-12	644.321E-3	-8.17794E-3
-4.72986E-3	-185.686E-12	634.207E-3	-26.9486E-3	-186.335E-12	613.919E-3	-22.1793E-3
-4.73487E-3	-185.500E-12	622.639E-3	3.39824E-3	-186.839E-12	603.259E-3	-32.3933E-3
-4.73987E-3	-186.438E-12	610.993E-3	27.2911E-3	-187.715E-12	610.548E-3	-27.1291E-3
-4.74487E-3	-187.105E-12	624.758E-3	13.7087E-3	-188.065E-12	592.529E-3	-13.7104E-3
-4.74988E-3	-186.628E-12	650.768E-3	-4.64866E-3	-187.913E-12	594.055E-3	-7.19735E-3
-4.75488E-3	-186.248E-12	654.908E-3	-17.9452E-3	-188.053E-12	638.777E-3	-17.9655E-3
-4.75988E-3	-187.053E-12	648.591E-3	-50.4803E-3	-188.531E-12	658.994E-3	-43.2086E-3
-4.76488E-3	-187.118E-12	659.834E-3	-51.0528E-3	-188.590E-12	662.062E-3	-36.5562E-3
-4.76988E-3	-186.223E-12	643.834E-3	-19.8548E-3	-188.367E-12	672.362E-3	-6.03762E-3
-4.77489E-3	-186.218E-12	625.402E-3	-18.6266E-3	-188.111E-12	677.542E-3	886.379E-6
-4.77989E-3	-185.907E-12	656.776E-3	-11.2929E-3	-187.648E-12	668.785E-3	1.98739E-3
-4.78489E-3	-186.616E-12	669.908E-3	-3.08021E-3	-187.868E-12	655.496E-3	3.28425E-3
-4.78989E-3	-185.760E-12	633.466E-3	-36.2721E-3	-188.216E-12	669.979E-3	13.7287E-3
-4.79490E-3	-186.206E-12	611.086E-3	-46.8145E-3	-187.970E-12	678.812E-3	43.9926E-3
-4.79990E-3	-186.801E-12	615.068E-3	2.25688E-3	-188.393E-12	673.468E-3	45.2055E-3
-4.80490E-3	-186.808E-12	620.911E-3	16.6459E-3	-189.034E-12	659.251E-3	18.8953E-3
-4.80990E-3	-187.545E-12	647.847E-3	-15.4437E-3	-189.072E-12	632.442E-3	8.23752E-3
-4.81491E-3	-188.307E-12	652.198E-3	-15.1810E-3	-189.955E-12	643.503E-3	5.54361E-3
-4.81991E-3	-189.308E-12	622.395E-3	-11.9710E-3	-190.260E-12	656.262E-3	-3.63965E-3
-4.82491E-3	-190.250E-12	638.257E-3	-18.1283E-3	-190.538E-12	639.271E-3	-5.56109E-3
-4.82991E-3	-191.353E-12	661.817E-3	5.72001E-3	-191.173E-12	659.130E-3	-21.2226E-3
-4.83492E-3	-191.982E-12	623.841E-3	7.75386E-3	-191.247E-12	696.993E-3	-44.4554E-3
-4.83992E-3	-192.965E-12	608.543E-3	-20.3794E-3	-191.421E-12	696.344E-3	-36.8632E-3
-4.84492E-3	-193.708E-12	645.534E-3	-26.1092E-3	-191.492E-12	682.915E-3	-24.1658E-3
-4.84992E-3	-194.592E-12	657.574E-3	-45.9491E-3	-191.834E-12	657.637E-3	-23.8441E-3
-4.85493E-3	-194.617E-12	651.268E-3	-71.3724E-3	-192.418E-12	627.291E-3	-20.7025E-3
-4.85993E-3	-193.761E-12	650.245E-3	-37.1267E-3	-192.528E-12	633.123E-3	-30.6037E-3
-4.86493E-3	-193.690E-12	643.287E-3	-14.6814E-3	-192.603E-12	644.312E-3	-39.3095E-3
-4.86993E-3	-192.171E-12	653.220E-3	-49.9054E-3	-192.996E-12	624.935E-3	-15.2015E-3
-4.87494E-3	-192.496E-12	659.696E-3	-56.0908E-3	-192.896E-12	633.902E-3	-3.86721E-3
-4.87994E-3	-190.723E-12	627.025E-3	-40.3766E-3	-192.376E-12	667.687E-3	-38.8581E-3
-4.88494E-3	-191.452E-12	618.766E-3	-44.1878E-3	-192.145E-12	656.083E-3	-41.6564E-3
-4.88995E-3	-190.766E-12	654.867E-3	-35.9033E-3	-191.876E-12	642.422E-3	6.00789E-3
-4.89495E-3	-191.248E-12	661.358E-3	-29.1994E-3	-191.913E-12	666.714E-3	16.4361E-3
-4.89995E-3	-190.961E-12	652.165E-3	-34.6445E-3	-191.241E-12	675.290E-3	2.18906E-3
-4.90495E-3	-192.450E-12	677.800E-3	-21.6842E-3	-192.081E-12	648.855E-3	8.34057E-3
-4.90995E-3	-193.553E-12	688.732E-3	-13.8399E-3	-191.835E-12	619.134E-3	-268.720E-6
-4.91496E-3	-193.974E-12	673.861E-3	-30.8919E-3	-191.817E-12	611.778E-3	-11.3505E-3
-4.91996E-3	-194.758E-12	670.383E-3	-28.7280E-3	-191.462E-12	633.008E-3	144.540E-6
-4.92496E-3	-195.380E-12	658.453E-3	-6.03545E-3	-193.222E-12	653.525E-3	3.06921E-3
-4.92996E-3	-196.265E-12	663.854E-3	-28.4947E-6	-193.338E-12	645.202E-3	-413.791E-6
-4.93497E-3	-196.188E-12	694.211E-3	6.41468E-3	-194.032E-12	630.147E-3	3.35812E-3
-4.93997E-3	-197.234E-12	682.955E-3	6.97149E-3	-194.530E-12	631.838E-3	8.18615E-3
-4.94497E-3	-198.136E-12	651.983E-3	-14.8741E-3	-195.243E-12	618.444E-3	16.7997E-3
-4.94997E-3	-198.413E-12	656.045E-3	-16.9782E-3	-195.934E-12	607.484E-3	24.8751E-3
-4.95498E-3	-197.667E-12	659.923E-3	-4.34941E-3	-196.721E-12	623.578E-3	10.0801E-3
-4.95998E-3	-196.529E-12	648.480E-3	-20.6959E-3	-196.447E-12	620.476E-3	-8.84397E-3
-4.96498E-3	-196.665E-12	641.473E-3	-40.5440E-3	-196.960E-12	598.594E-3	-9.26421E-3
-4.96998E-3	-196.618E-12	623.425E-3	-25.6498E-3	-196.559E-12	598.471E-3	-31.2595E-3
-4.97499E-3	-195.860E-12	602.012E-3	-4.90227E-3	-196.657E-12	601.498E-3	-55.1409E-3
-4.97999E-3	-195.745E-12	616.902E-3	2.51310E-3	-196.846E-12	593.233E-3	-24.4179E-3
-4.98499E-3	-195.332E-12	631.652E-3	12.2648E-3	-197.330E-12	597.930E-3	3.35702E-3
-4.98999E-3	-195.051E-12	604.342E-3	-1.74597E-3	-196.916E-12	607.674E-3	-16.0769E-3
-4.99500E-3	-195.221E-12	597.231E-3	-7.93862E-3	-196.204E-12	609.512E-3	-25.4434E-3
-5.00000E-3	-195.899E-12	621.716E-3	14.5720E-3	-196.103E-12	621.218E-3	3.09428E-3
