Experiment	bias spectroscopy	
Date	19.01.2016 20:45:58	
User		
X (m)	50.7361E-9	
Y (m)	257.489E-9	
Z (m)	-132.64E-9	
Z offset (m)	0E+0	
Settling time (s)	200E-6	
Integration time (s)	5E-3	
Z-Ctrl hold	TRUE	
Final Z (m)	N/A	
Filter type	None	
Order		
Cutoff frq		
Comment01	MnPc/Pb(111)	
Comment02	dz =00pm	
Comment03	7 Sweeps	
Comment04	MagField =0.T	
Comment05	Divider 1:10	
Comment06	Setpoint:5mV,200 pA	
Comment07	Lockin: 50uVrms,5ms,5mV	
Comment08	Gain:9; 912Hz modulation	
Comment09	T=1.06K	
Bias>Bias (V)	5E-3	
Bias>Calibration (V/V)	81.475E-3	
Bias>Offset (V)	1.046E-3	
Bias Spectroscopy>Sweep Start (V)	5E-3	
Bias Spectroscopy>Sweep End (V)	-5E-3	
Bias Spectroscopy>Num Pixel	2000	
Bias Spectroscopy>Z Avg time (s)	500E-3	
Bias Spectroscopy>Z offset (m)	0E+0	
Bias Spectroscopy>1st Settling time (s)	500E-3	
Bias Spectroscopy>Settling time (s)	200E-6	
Bias Spectroscopy>Integration time (s)	5E-3	
Bias Spectroscopy>End Settling time (s)	500E-3	
Bias Spectroscopy>Z control time (s)	500E-3	
Bias Spectroscopy>Max Slew rate (V/s)	Inf	
Bias Spectroscopy>backward sweep	TRUE	
Bias Spectroscopy>Z-controller hold	TRUE	
Bias Spectroscopy>Number of sweeps	7	
Bias Spectroscopy>Channels	Current (A);X% LockIn (V);Y% LockIn (V)	
Bias Spectroscopy>Reset Bias	TRUE	
Bias Spectroscopy>Record final Z	FALSE	
Bias Spectroscopy>Lock-In run	FALSE	
Bias Spectroscopy>Sweep mode	Linear	
Bias Spectroscopy>MultiLine Settings : Segment Start (V), Segment End (V), Settling (s), Integration (s), Steps (xn)	100E-3,3.3E-3,100E-6,10E-3,2500;3.3E-3,-3.3E-3,100E-6,10E-3,10;-3.3E-3,-100E-3,100E-6,10E-3,2500	
Current>Current (A)	200.782E-12	
Current>Calibration (A/V)	999.99900E-12	
Current>Offset (A)	-455.429E-15	
Current>Gain	LN 10^9	
Z-Controller>Z (m)	-132.631E-9	
Z-Controller>Controller name	log Current	
Z-Controller>Controller status	ON	
Z-Controller>Setpoint	200E-12	
Z-Controller>Setpoint unit	A	
Z-Controller>P gain	2.96994E-12	
Z-Controller>I gain	67.0321E-9	
Z-Controller>Time const (s)	44.3062E-6	
Z-Controller>TipLift (m)	0E+0	
Z-Controller>Switch off delay (s)	50E-3	
Current (A)	200.675E-12	
Z (m)	-132.633E-9	

[DATA]
Bias calc (V)	Current (A)	X% LockIn (V)	Y% LockIn (V)	Current [bwd] (A)	X% LockIn [bwd] (V)	Y% LockIn [bwd] (V)
5.00000E-3	195.023E-12	642.296E-3	17.8069E-3	194.305E-12	666.728E-3	-12.1958E-3
4.99500E-3	194.539E-12	629.466E-3	-28.8628E-3	194.330E-12	653.628E-3	-2.20632E-3
4.98999E-3	195.160E-12	651.185E-3	-45.1301E-3	193.086E-12	651.778E-3	-563.773E-6
4.98499E-3	192.042E-12	680.464E-3	-9.82040E-3	193.313E-12	645.199E-3	-11.2148E-3
4.97999E-3	194.116E-12	690.498E-3	4.93855E-3	193.832E-12	617.213E-3	-21.8387E-3
4.97499E-3	193.643E-12	697.738E-3	-10.3347E-3	194.460E-12	616.406E-3	-28.2470E-3
4.96998E-3	193.529E-12	703.986E-3	-36.7379E-3	193.005E-12	648.012E-3	-23.1261E-3
4.96498E-3	191.471E-12	682.345E-3	-62.8105E-3	192.604E-12	669.292E-3	-25.1688E-3
4.95998E-3	191.924E-12	637.888E-3	-50.3622E-3	193.003E-12	662.343E-3	-25.1753E-3
4.95498E-3	193.031E-12	624.736E-3	-26.1798E-3	192.919E-12	627.390E-3	5.19099E-3
4.94997E-3	191.471E-12	653.476E-3	-9.98579E-3	191.185E-12	612.537E-3	15.6489E-3
4.94497E-3	191.076E-12	667.990E-3	14.1693E-6	190.155E-12	610.602E-3	-18.5020E-3
4.93997E-3	191.084E-12	661.242E-3	-3.01925E-3	190.077E-12	598.340E-3	-38.5146E-3
4.93497E-3	193.433E-12	647.171E-3	1.51352E-3	190.019E-12	623.403E-3	-13.1010E-3
4.92996E-3	191.531E-12	629.569E-3	16.9026E-3	189.732E-12	669.708E-3	27.1897E-3
4.92496E-3	192.226E-12	638.831E-3	8.97690E-3	188.482E-12	667.568E-3	24.1486E-3
4.91996E-3	193.370E-12	689.698E-3	-23.0964E-3	187.644E-12	639.827E-3	11.4374E-3
4.91496E-3	194.553E-12	731.871E-3	-37.5354E-3	189.269E-12	622.708E-3	-11.4388E-3
4.90995E-3	193.748E-12	715.558E-3	-5.12948E-3	188.652E-12	622.708E-3	-49.4393E-3
4.90495E-3	193.341E-12	685.224E-3	29.6112E-3	187.566E-12	638.649E-3	-46.2420E-3
4.89995E-3	194.788E-12	665.982E-3	17.8101E-3	188.432E-12	641.028E-3	-21.5179E-3
4.89495E-3	192.560E-12	653.289E-3	-2.82617E-3	190.164E-12	644.782E-3	-1.84059E-3
4.88995E-3	193.013E-12	649.306E-3	5.18640E-3	191.003E-12	653.838E-3	-4.67054E-3
4.88494E-3	192.126E-12	636.972E-3	27.0100E-3	189.708E-12	637.372E-3	-238.220E-6
4.87994E-3	192.834E-12	617.540E-3	28.7370E-3	189.522E-12	601.598E-3	20.2097E-3
4.87494E-3	190.569E-12	633.631E-3	12.5870E-3	190.478E-12	590.504E-3	8.62191E-3
4.86993E-3	188.840E-12	654.729E-3	-4.80007E-3	190.310E-12	617.956E-3	-10.3572E-3
4.86493E-3	187.981E-12	647.772E-3	-12.7770E-3	188.356E-12	646.698E-3	-4.55463E-3
4.85993E-3	187.933E-12	639.650E-3	-2.46313E-3	186.806E-12	660.327E-3	17.9508E-3
4.85493E-3	187.573E-12	625.924E-3	8.28367E-3	188.052E-12	664.710E-3	37.7850E-3
4.84992E-3	187.802E-12	649.727E-3	-5.47917E-3	187.349E-12	660.380E-3	23.0468E-3
4.84492E-3	187.713E-12	707.605E-3	-12.8023E-3	185.852E-12	636.092E-3	-5.42620E-3
4.83992E-3	187.051E-12	714.537E-3	8.39804E-3	184.867E-12	604.940E-3	-28.0265E-3
4.83492E-3	189.137E-12	670.640E-3	36.6599E-3	185.739E-12	591.850E-3	-46.9381E-3
4.82991E-3	187.316E-12	649.774E-3	50.3804E-3	184.842E-12	615.849E-3	-17.1483E-3
4.82491E-3	188.997E-12	687.416E-3	52.0359E-3	183.717E-12	652.702E-3	23.4016E-3
4.81991E-3	189.392E-12	716.119E-3	16.4374E-3	183.724E-12	664.925E-3	16.4922E-3
4.81491E-3	190.253E-12	690.050E-3	-45.0152E-3	185.054E-12	640.727E-3	-10.6149E-3
4.80990E-3	189.454E-12	658.049E-3	-39.1470E-3	185.294E-12	614.012E-3	-27.8984E-3
4.80490E-3	189.795E-12	642.787E-3	-4.11581E-3	185.112E-12	626.854E-3	-28.9910E-3
4.79990E-3	189.751E-12	656.081E-3	-15.0890E-3	185.103E-12	656.207E-3	-39.1962E-3
4.79490E-3	189.105E-12	680.376E-3	-33.4339E-3	185.665E-12	656.851E-3	-36.7569E-3
4.78989E-3	187.771E-12	657.304E-3	-27.4390E-3	187.455E-12	625.669E-3	-7.84683E-3
4.78489E-3	185.032E-12	621.799E-3	-17.3808E-3	188.118E-12	608.299E-3	236.956E-6
4.77989E-3	185.615E-12	630.606E-3	-10.9535E-3	186.654E-12	600.879E-3	-23.5522E-3
4.77489E-3	184.913E-12	642.969E-3	-19.4649E-3	185.398E-12	605.146E-3	-38.5044E-3
4.76988E-3	184.089E-12	645.434E-3	-15.1118E-3	183.604E-12	631.277E-3	-34.1089E-3
4.76488E-3	182.256E-12	656.483E-3	15.6446E-3	183.605E-12	638.217E-3	-33.0629E-3
4.75988E-3	182.162E-12	642.504E-3	8.56762E-3	183.540E-12	629.109E-3	-22.2601E-3
4.75488E-3	182.227E-12	618.475E-3	-17.2981E-3	181.752E-12	636.095E-3	-5.85321E-3
4.74988E-3	183.161E-12	633.460E-3	-24.3364E-3	181.448E-12	646.771E-3	-16.7032E-3
4.74487E-3	183.086E-12	673.771E-3	-33.1433E-3	180.042E-12	644.354E-3	-41.1435E-3
4.73987E-3	182.046E-12	687.315E-3	-57.4591E-3	180.319E-12	635.078E-3	-42.9882E-3
4.73487E-3	180.455E-12	670.906E-3	-82.6422E-3	180.005E-12	637.967E-3	-8.61125E-3
4.72986E-3	180.393E-12	658.149E-3	-75.6502E-3	178.958E-12	651.906E-3	34.4586E-3
4.72486E-3	182.289E-12	632.826E-3	-63.5912E-3	179.084E-12	661.956E-3	47.2374E-3
4.71986E-3	182.738E-12	611.053E-3	-78.5660E-3	180.280E-12	641.803E-3	36.8539E-3
4.71486E-3	182.460E-12	628.699E-3	-56.1713E-3	180.133E-12	621.619E-3	13.2968E-3
4.70985E-3	181.664E-12	661.646E-3	-18.1869E-3	180.768E-12	654.122E-3	-14.7346E-3
4.70485E-3	182.786E-12	676.849E-3	-33.8052E-3	181.687E-12	682.430E-3	-29.9124E-3
4.69985E-3	182.240E-12	665.140E-3	-44.2029E-3	182.890E-12	650.208E-3	-39.9373E-3
4.69485E-3	182.025E-12	637.118E-3	-14.7400E-3	182.614E-12	608.190E-3	-33.6184E-3
4.68984E-3	179.884E-12	610.694E-3	14.9969E-3	183.144E-12	606.938E-3	-20.1480E-3
4.68484E-3	179.373E-12	603.111E-3	13.4642E-3	181.855E-12	638.224E-3	-37.7466E-3
4.67984E-3	180.592E-12	624.372E-3	-4.15151E-3	180.677E-12	667.953E-3	-48.9634E-3
4.67484E-3	180.815E-12	630.939E-3	-2.03556E-3	180.696E-12	668.917E-3	-15.7497E-3
4.66983E-3	179.976E-12	627.235E-3	-1.19312E-3	180.081E-12	648.461E-3	16.1349E-3
4.66483E-3	179.161E-12	636.596E-3	-18.2376E-3	178.203E-12	632.453E-3	20.2891E-3
4.65983E-3	178.680E-12	642.975E-3	-21.0946E-3	177.533E-12	645.995E-3	12.9453E-3
4.65483E-3	179.519E-12	677.421E-3	-4.46680E-3	179.412E-12	670.397E-3	-10.4989E-3
4.64982E-3	179.042E-12	698.459E-3	21.1470E-3	178.662E-12	658.644E-3	-31.1932E-3
4.64482E-3	176.976E-12	674.856E-3	29.1925E-3	176.171E-12	640.483E-3	-25.3184E-3
4.63982E-3	176.892E-12	660.097E-3	4.64023E-3	176.174E-12	644.101E-3	-28.8402E-3
4.63482E-3	177.405E-12	664.793E-3	-20.3652E-3	176.433E-12	636.170E-3	-55.7332E-3
4.62981E-3	177.689E-12	647.314E-3	-22.9327E-3	176.357E-12	622.489E-3	-47.1961E-3
4.62481E-3	177.340E-12	640.400E-3	-11.4109E-3	175.643E-12	632.266E-3	-5.05460E-3
4.61981E-3	177.156E-12	642.939E-3	-15.8839E-3	176.246E-12	646.301E-3	15.8880E-3
4.61481E-3	177.576E-12	640.466E-3	-28.0250E-3	177.818E-12	649.226E-3	4.42062E-3
4.60980E-3	179.591E-12	660.014E-3	784.432E-6	178.314E-12	657.123E-3	-11.9263E-3
4.60480E-3	178.438E-12	656.949E-3	40.7041E-3	177.564E-12	655.623E-3	-4.44324E-3
4.59980E-3	177.437E-12	643.499E-3	34.2721E-3	177.244E-12	659.586E-3	7.32901E-3
4.59480E-3	178.478E-12	655.289E-3	5.74917E-3	178.609E-12	676.919E-3	-3.06115E-3
4.58979E-3	180.475E-12	672.843E-3	-3.13786E-3	178.389E-12	667.288E-3	-6.48956E-3
4.58479E-3	179.070E-12	660.908E-3	-2.27096E-3	178.365E-12	644.533E-3	2.81532E-3
4.57979E-3	175.867E-12	625.662E-3	-7.35540E-3	177.533E-12	652.007E-3	-13.9672E-3
4.57479E-3	176.505E-12	623.114E-3	-4.82520E-3	178.192E-12	660.070E-3	-38.3127E-3
4.56978E-3	177.835E-12	661.368E-3	17.5133E-3	177.682E-12	652.992E-3	-44.0673E-3
4.56478E-3	178.223E-12	678.303E-3	8.95362E-3	177.755E-12	656.859E-3	-56.4963E-3
4.55978E-3	174.261E-12	668.912E-3	-27.8144E-3	177.004E-12	657.983E-3	-67.2756E-3
4.55478E-3	172.782E-12	663.121E-3	-29.9024E-3	175.964E-12	640.027E-3	-49.3405E-3
4.54977E-3	174.493E-12	652.241E-3	-6.04124E-3	176.117E-12	628.325E-3	-18.5499E-3
4.54477E-3	175.127E-12	638.045E-3	-3.06672E-3	176.085E-12	639.228E-3	-7.45228E-3
4.53977E-3	173.093E-12	634.745E-3	-13.9139E-3	173.482E-12	637.940E-3	-28.4592E-3
4.53477E-3	171.304E-12	637.117E-3	-13.8975E-3	173.432E-12	625.850E-3	-35.1644E-3
4.52976E-3	172.181E-12	638.923E-3	-19.3336E-3	174.087E-12	633.417E-3	-18.6127E-3
4.52476E-3	173.456E-12	643.116E-3	-11.3966E-3	174.930E-12	653.809E-3	-139.814E-6
4.51976E-3	173.041E-12	622.762E-3	12.9144E-3	173.364E-12	647.077E-3	15.5806E-3
4.51476E-3	173.163E-12	605.035E-3	32.6366E-3	173.125E-12	632.609E-3	4.58877E-3
4.50975E-3	173.107E-12	615.238E-3	20.7586E-3	172.771E-12	644.772E-3	-2.54524E-3
4.50475E-3	175.785E-12	632.228E-3	-17.0409E-3	173.159E-12	665.556E-3	13.1339E-3
4.49975E-3	176.811E-12	660.846E-3	-33.9165E-3	172.813E-12	677.054E-3	29.7814E-3
4.49475E-3	177.067E-12	693.808E-3	-33.2017E-3	173.140E-12	648.709E-3	30.8704E-3
4.48974E-3	176.093E-12	707.378E-3	-17.4671E-3	172.973E-12	610.636E-3	-6.77760E-3
4.48474E-3	175.682E-12	695.140E-3	2.65783E-3	171.531E-12	631.372E-3	-52.7152E-3
4.47974E-3	176.726E-12	663.699E-3	-1.25727E-3	171.760E-12	664.287E-3	-46.3937E-3
4.47474E-3	176.849E-12	628.418E-3	-6.47765E-3	172.760E-12	661.065E-3	-22.6885E-3
4.46973E-3	174.513E-12	626.415E-3	-6.85938E-3	171.273E-12	645.174E-3	-28.4164E-3
4.46473E-3	173.602E-12	644.131E-3	-365.330E-6	170.209E-12	636.507E-3	-37.0229E-3
4.45973E-3	171.874E-12	636.246E-3	-2.18876E-3	171.199E-12	649.144E-3	-28.1314E-3
4.45473E-3	171.317E-12	605.288E-3	-2.83527E-3	172.111E-12	658.565E-3	-9.59607E-3
4.44972E-3	169.420E-12	586.301E-3	20.6978E-3	170.488E-12	634.330E-3	511.422E-6
4.44472E-3	168.561E-12	604.751E-3	-3.02906E-3	169.500E-12	612.101E-3	10.8691E-3
4.43972E-3	168.340E-12	643.714E-3	-48.0530E-3	169.441E-12	616.874E-3	18.9770E-3
4.43472E-3	169.896E-12	645.779E-3	-40.7150E-3	169.647E-12	616.729E-3	-1.49891E-3
4.42971E-3	168.863E-12	619.144E-3	1.17446E-3	168.061E-12	601.913E-3	-25.2510E-3
4.42471E-3	167.576E-12	625.799E-3	27.0755E-3	168.840E-12	615.296E-3	-11.8069E-3
4.41971E-3	167.278E-12	636.878E-3	20.5896E-3	167.510E-12	644.168E-3	7.46001E-3
4.41471E-3	168.395E-12	636.194E-3	9.04660E-3	167.542E-12	645.732E-3	7.81469E-3
4.40970E-3	169.625E-12	633.315E-3	-12.7308E-3	166.216E-12	644.788E-3	1.75317E-3
4.40470E-3	167.614E-12	609.462E-3	-40.9978E-3	167.076E-12	660.226E-3	-5.65947E-3
4.39970E-3	167.639E-12	590.808E-3	-24.2422E-3	167.692E-12	668.042E-3	2.56897E-3
4.39470E-3	169.400E-12	612.147E-3	13.1816E-3	166.010E-12	657.456E-3	10.3428E-3
4.38969E-3	170.468E-12	634.493E-3	7.66419E-3	165.120E-12	639.388E-3	-353.533E-6
4.38469E-3	168.215E-12	630.353E-3	-20.9174E-3	165.588E-12	611.142E-3	-39.0016E-6
4.37969E-3	166.427E-12	627.635E-3	-25.6582E-3	166.476E-12	598.674E-3	11.8090E-3
4.37469E-3	168.190E-12	611.471E-3	2.72900E-3	165.424E-12	622.330E-3	9.12660E-3
4.36968E-3	168.569E-12	605.462E-3	10.3996E-3	165.542E-12	645.827E-3	-8.87677E-3
4.36468E-3	167.466E-12	637.535E-3	-7.21421E-3	165.086E-12	643.288E-3	-16.4628E-3
4.35968E-3	165.204E-12	641.373E-3	-1.06338E-3	164.741E-12	614.513E-3	-4.20556E-3
4.35468E-3	164.740E-12	605.046E-3	1.11374E-3	164.318E-12	590.980E-3	-3.00625E-3
4.34967E-3	164.753E-12	591.583E-3	-11.1702E-3	165.287E-12	604.259E-3	-14.5785E-3
4.34467E-3	165.666E-12	587.055E-3	-4.84969E-3	166.309E-12	627.191E-3	-30.0028E-3
4.33967E-3	164.679E-12	589.325E-3	-4.23047E-3	164.952E-12	617.732E-3	-36.5142E-3
4.33467E-3	163.563E-12	608.886E-3	-16.6505E-3	163.236E-12	608.775E-3	-24.3767E-3
4.32966E-3	163.796E-12	630.487E-3	-5.37518E-3	164.001E-12	636.663E-3	-18.0173E-3
4.32466E-3	163.919E-12	651.995E-3	6.47159E-3	164.569E-12	664.480E-3	-24.0953E-3
4.31966E-3	163.440E-12	646.770E-3	111.372E-6	163.071E-12	668.484E-3	-32.0559E-3
4.31466E-3	162.501E-12	624.516E-3	-14.2496E-3	161.521E-12	646.369E-3	-34.3008E-3
4.30965E-3	162.996E-12	607.913E-3	-12.6701E-3	162.169E-12	626.150E-3	-10.1172E-3
4.30465E-3	162.799E-12	605.980E-3	-4.64820E-3	162.998E-12	645.061E-3	13.1055E-3
4.29965E-3	163.673E-12	619.431E-3	-9.71129E-3	162.474E-12	649.960E-3	-168.204E-6
4.29465E-3	164.273E-12	628.645E-3	-15.7198E-3	162.164E-12	609.602E-3	-21.4566E-3
4.28964E-3	163.149E-12	620.583E-3	-25.2440E-3	163.493E-12	581.726E-3	-27.5211E-3
4.28464E-3	163.476E-12	627.505E-3	-26.8172E-3	164.138E-12	588.570E-3	-27.0138E-3
4.27964E-3	164.051E-12	632.544E-3	-12.5292E-3	163.893E-12	626.870E-3	-31.9945E-3
4.27464E-3	165.001E-12	614.403E-3	992.310E-6	163.352E-12	656.596E-3	-18.2631E-3
4.26963E-3	163.735E-12	630.485E-3	-8.98731E-3	163.578E-12	645.946E-3	24.3015E-3
4.26463E-3	162.579E-12	649.162E-3	-5.51934E-3	165.802E-12	646.219E-3	42.3989E-3
4.25963E-3	162.162E-12	636.707E-3	17.3416E-3	165.859E-12	663.527E-3	4.39346E-3
4.25463E-3	162.000E-12	622.962E-3	2.50815E-3	165.686E-12	666.539E-3	-41.6801E-3
4.24962E-3	161.605E-12	613.530E-3	-14.4043E-3	164.873E-12	664.861E-3	-43.1152E-3
4.24462E-3	160.733E-12	614.974E-3	-12.1823E-3	164.971E-12	637.467E-3	-18.0675E-3
4.23962E-3	160.176E-12	626.791E-3	-28.3100E-3	163.759E-12	617.359E-3	-25.0842E-3
4.23462E-3	159.763E-12	632.985E-3	-44.8666E-3	163.386E-12	646.988E-3	-56.4921E-3
4.22961E-3	159.809E-12	644.527E-3	-49.8695E-3	161.942E-12	670.451E-3	-40.3684E-3
4.22461E-3	159.920E-12	647.526E-3	-36.1468E-3	160.081E-12	678.198E-3	23.3442E-3
4.21961E-3	158.546E-12	630.697E-3	-9.57309E-3	160.885E-12	686.085E-3	49.7258E-3
4.21461E-3	158.342E-12	616.087E-3	2.96024E-3	160.065E-12	667.900E-3	16.2090E-3
4.20960E-3	158.979E-12	612.348E-3	3.29376E-3	158.365E-12	623.443E-3	-30.4122E-3
4.20460E-3	160.681E-12	619.154E-3	15.4048E-3	158.426E-12	597.788E-3	-40.7324E-3
4.19960E-3	159.168E-12	617.889E-3	41.9827E-3	159.141E-12	610.125E-3	-29.0854E-3
4.19460E-3	158.244E-12	618.346E-3	14.0667E-3	158.484E-12	626.474E-3	-32.3394E-3
4.18959E-3	159.027E-12	626.681E-3	-43.6821E-3	158.070E-12	623.473E-3	-23.7630E-3
4.18459E-3	161.256E-12	616.716E-3	-55.5108E-3	159.298E-12	617.993E-3	2.43554E-3
4.17959E-3	161.668E-12	626.973E-3	-47.7648E-3	160.481E-12	641.561E-3	17.1293E-3
4.17459E-3	160.518E-12	669.646E-3	-19.6526E-3	161.154E-12	664.762E-3	14.5117E-3
4.16958E-3	160.210E-12	678.612E-3	21.6195E-3	159.356E-12	642.007E-3	10.3672E-3
4.16458E-3	160.271E-12	685.470E-3	34.0587E-3	160.339E-12	612.902E-3	11.0711E-3
4.15958E-3	160.643E-12	697.000E-3	13.2718E-3	159.918E-12	631.493E-3	-5.08031E-3
4.15458E-3	159.068E-12	670.691E-3	-31.2361E-3	160.502E-12	670.067E-3	-37.5752E-3
4.14957E-3	157.715E-12	649.108E-3	-45.1780E-3	159.397E-12	669.779E-3	-31.8715E-3
4.14457E-3	157.376E-12	659.679E-3	-22.4005E-3	158.433E-12	655.245E-3	3.25905E-3
4.13957E-3	158.782E-12	659.721E-3	-22.2361E-3	157.290E-12	658.013E-3	22.0862E-3
4.13457E-3	157.491E-12	631.398E-3	-29.7561E-3	157.439E-12	657.570E-3	18.4486E-3
4.12956E-3	153.870E-12	613.001E-3	-25.0947E-3	157.358E-12	658.135E-3	-8.49781E-3
4.12456E-3	154.086E-12	613.085E-3	-15.9322E-3	155.181E-12	643.717E-3	-30.9135E-3
4.11956E-3	155.341E-12	608.982E-3	-16.0836E-3	154.380E-12	615.370E-3	-29.2270E-3
4.11456E-3	155.363E-12	597.608E-3	-35.9951E-3	154.628E-12	620.235E-3	-10.5428E-3
4.10955E-3	153.364E-12	604.345E-3	-39.3148E-3	154.522E-12	637.960E-3	9.51725E-3
4.10455E-3	152.885E-12	623.509E-3	-34.6911E-3	153.684E-12	632.115E-3	-4.43272E-3
4.09955E-3	154.037E-12	631.517E-3	-49.3082E-3	152.008E-12	618.147E-3	-39.5691E-3
4.09455E-3	155.329E-12	612.230E-3	-41.7621E-3	152.390E-12	618.787E-3	-36.4236E-3
4.08954E-3	155.786E-12	598.621E-3	-27.9818E-3	152.700E-12	630.312E-3	-12.2823E-3
4.08454E-3	154.657E-12	631.047E-3	-35.1374E-3	153.331E-12	631.788E-3	-15.0578E-3
4.07954E-3	155.593E-12	645.915E-3	-31.6531E-3	152.918E-12	638.049E-3	-29.7745E-3
4.07454E-3	156.879E-12	625.346E-3	-35.0004E-3	152.712E-12	645.263E-3	-29.8478E-3
4.06953E-3	156.957E-12	642.080E-3	-43.2144E-3	152.757E-12	642.344E-3	-1.42494E-3
4.06453E-3	154.636E-12	670.024E-3	-29.0183E-3	152.496E-12	645.974E-3	18.1223E-3
4.05953E-3	154.809E-12	684.981E-3	-13.8405E-3	151.979E-12	650.075E-3	-3.22402E-3
4.05453E-3	154.912E-12	702.847E-3	-26.5246E-3	151.873E-12	635.722E-3	-12.2447E-3
4.04952E-3	157.253E-12	682.112E-3	-40.3956E-3	150.855E-12	626.859E-3	-2.63585E-3
4.04452E-3	154.199E-12	645.733E-3	-20.6692E-3	150.099E-12	638.940E-3	-4.70348E-3
4.03952E-3	152.038E-12	630.866E-3	-4.26577E-3	150.259E-12	644.252E-3	2.11002E-3
4.03452E-3	150.753E-12	627.244E-3	-14.0669E-3	150.913E-12	638.750E-3	7.55111E-3
4.02951E-3	151.531E-12	620.139E-3	-25.3629E-3	149.847E-12	628.152E-3	1.92198E-3
4.02451E-3	152.609E-12	601.817E-3	-22.2877E-3	149.384E-12	617.546E-3	3.74019E-3
4.01951E-3	150.636E-12	596.245E-3	-13.9617E-3	150.149E-12	612.801E-3	-24.5189E-6
4.01451E-3	150.105E-12	615.529E-3	-19.2171E-3	149.748E-12	618.739E-3	-6.03015E-3
4.00950E-3	150.008E-12	647.671E-3	-14.2080E-3	148.903E-12	623.489E-3	-7.72300E-3
4.00450E-3	151.882E-12	662.661E-3	20.0803E-3	150.171E-12	627.802E-3	-25.0375E-3
3.99950E-3	151.348E-12	645.949E-3	29.3660E-3	150.535E-12	651.793E-3	-51.4179E-3
3.99450E-3	149.775E-12	626.167E-3	-7.76754E-3	149.791E-12	671.080E-3	-49.0755E-3
3.98949E-3	150.100E-12	647.025E-3	-24.2661E-3	149.140E-12	674.914E-3	-16.7971E-3
3.98449E-3	151.099E-12	666.642E-3	-32.6096E-3	150.692E-12	664.889E-3	-11.3565E-3
3.97949E-3	152.172E-12	649.538E-3	-63.5867E-3	150.138E-12	646.006E-3	-24.1196E-3
3.97449E-3	150.574E-12	639.013E-3	-66.3840E-3	149.456E-12	658.793E-3	-18.3933E-3
3.96948E-3	150.013E-12	650.338E-3	-40.5314E-3	148.554E-12	675.988E-3	-20.8612E-3
3.96448E-3	150.268E-12	674.523E-3	-22.3341E-3	148.989E-12	651.044E-3	-29.5598E-3
3.95948E-3	150.965E-12	681.562E-3	-15.6936E-3	149.464E-12	616.899E-3	-19.4978E-3
3.95448E-3	150.017E-12	674.441E-3	-12.3266E-3	147.716E-12	630.176E-3	-11.0555E-3
3.94947E-3	147.890E-12	684.303E-3	-14.0415E-3	148.244E-12	667.787E-3	-18.3677E-3
3.94447E-3	148.901E-12	697.467E-3	-19.3890E-3	147.375E-12	664.460E-3	-13.1330E-3
3.93947E-3	149.756E-12	682.778E-3	81.1424E-6	149.499E-12	655.022E-3	-2.23928E-3
3.93447E-3	148.551E-12	654.506E-3	24.0547E-3	149.315E-12	652.979E-3	-11.2671E-3
3.92946E-3	146.592E-12	653.572E-3	7.71637E-3	148.750E-12	634.273E-3	-34.9377E-3
3.92446E-3	146.895E-12	666.243E-3	-8.91650E-3	148.249E-12	618.988E-3	-39.3247E-3
3.91946E-3	147.576E-12	650.332E-3	1.35359E-3	148.616E-12	598.814E-3	-13.5558E-3
3.91446E-3	147.433E-12	623.224E-3	2.09667E-3	148.753E-12	593.263E-3	2.74512E-3
3.90945E-3	145.971E-12	619.053E-3	-19.1960E-3	147.495E-12	622.111E-3	-2.17651E-3
3.90445E-3	146.220E-12	626.307E-3	-37.4162E-3	147.838E-12	634.272E-3	-11.9060E-3
3.89945E-3	146.720E-12	634.369E-3	-46.5673E-3	147.161E-12	630.398E-3	-21.0144E-3
3.89445E-3	146.751E-12	636.077E-3	-44.4509E-3	148.088E-12	637.073E-3	-33.8777E-3
3.88944E-3	146.361E-12	630.517E-3	-27.2916E-3	146.816E-12	644.109E-3	-48.8944E-3
3.88444E-3	146.551E-12	633.379E-3	1.74207E-3	145.808E-12	647.822E-3	-35.4524E-3
3.87944E-3	146.216E-12	646.495E-3	23.9469E-3	144.494E-12	641.479E-3	6.22741E-3
3.87444E-3	147.100E-12	641.005E-3	8.76817E-3	144.716E-12	632.892E-3	23.7422E-3
3.86943E-3	146.378E-12	643.460E-3	-6.76510E-3	145.069E-12	648.032E-3	-12.9118E-3
3.86443E-3	145.956E-12	662.013E-3	4.22547E-3	144.057E-12	658.767E-3	-40.4024E-3
3.85943E-3	145.357E-12	659.174E-3	1.98406E-3	144.902E-12	659.248E-3	-12.5531E-3
3.85443E-3	145.297E-12	660.750E-3	-18.8558E-3	145.000E-12	679.979E-3	16.8824E-3
3.84942E-3	144.524E-12	653.637E-3	-31.2539E-3	146.085E-12	696.057E-3	8.76869E-3
3.84442E-3	144.223E-12	635.706E-3	-30.1392E-3	146.631E-12	688.590E-3	-7.24678E-3
3.83942E-3	144.101E-12	648.008E-3	-33.4181E-3	146.997E-12	663.756E-3	4.66030E-3
3.83442E-3	143.632E-12	662.973E-3	-39.5771E-3	146.758E-12	628.997E-3	23.7799E-3
3.82941E-3	143.244E-12	665.337E-3	-24.3197E-3	146.165E-12	603.949E-3	8.55630E-3
3.82441E-3	142.404E-12	668.822E-3	-17.4657E-3	146.727E-12	610.303E-3	-24.6188E-3
3.81941E-3	141.582E-12	666.381E-3	-18.5643E-3	146.518E-12	629.963E-3	-24.4752E-3
3.81441E-3	141.197E-12	648.444E-3	-7.02060E-3	145.358E-12	633.989E-3	-7.97333E-3
3.80940E-3	141.068E-12	626.273E-3	-10.6681E-3	143.945E-12	639.046E-3	-1.78393E-3
3.80440E-3	140.878E-12	629.716E-3	-261.082E-6	143.576E-12	655.179E-3	-872.655E-6
3.79940E-3	141.304E-12	634.606E-3	19.5655E-3	142.741E-12	670.760E-3	-6.89395E-3
3.79440E-3	141.507E-12	634.947E-3	1.89458E-3	141.860E-12	663.053E-3	-8.69983E-3
3.78939E-3	140.620E-12	642.540E-3	-19.0576E-3	139.280E-12	636.168E-3	-17.6712E-3
3.78439E-3	140.414E-12	642.267E-3	-25.1475E-3	138.368E-12	617.148E-3	-36.4739E-3
3.77939E-3	141.242E-12	645.813E-3	-22.2511E-3	138.410E-12	603.568E-3	-26.1387E-3
3.77439E-3	142.031E-12	655.418E-3	3.89004E-3	137.597E-12	596.723E-3	13.1878E-3
3.76938E-3	141.202E-12	665.592E-3	14.6860E-3	137.476E-12	605.695E-3	19.9472E-3
3.76438E-3	141.020E-12	654.176E-3	6.09511E-3	137.191E-12	606.817E-3	-11.4979E-3
3.75938E-3	140.250E-12	636.052E-3	-1.83711E-3	137.949E-12	614.094E-3	-20.2910E-3
3.75438E-3	141.114E-12	639.645E-3	-28.1193E-3	137.741E-12	637.317E-3	-3.13512E-3
3.74937E-3	141.227E-12	636.892E-3	-38.1780E-3	138.105E-12	636.661E-3	8.30964E-3
3.74437E-3	140.660E-12	628.685E-3	-36.0175E-3	138.895E-12	630.814E-3	-752.127E-6
3.73937E-3	139.807E-12	634.794E-3	-38.9385E-3	139.879E-12	632.608E-3	-18.6006E-3
3.73437E-3	138.692E-12	636.340E-3	-14.7793E-3	139.964E-12	624.514E-3	-17.5316E-3
3.72936E-3	139.056E-12	649.134E-3	15.9620E-3	139.108E-12	620.549E-3	-5.32686E-3
3.72436E-3	139.805E-12	668.100E-3	27.3194E-3	139.099E-12	634.150E-3	-9.76224E-3
3.71936E-3	139.163E-12	635.599E-3	21.5346E-3	138.707E-12	641.153E-3	-15.3136E-3
3.71436E-3	137.797E-12	600.285E-3	5.93591E-3	137.776E-12	650.914E-3	-2.78244E-3
3.70935E-3	137.189E-12	619.654E-3	-7.29039E-3	137.477E-12	671.223E-3	-9.84375E-3
3.70435E-3	137.230E-12	656.016E-3	-17.4230E-3	137.091E-12	671.944E-3	-37.0911E-3
3.69935E-3	136.589E-12	659.246E-3	-21.0364E-3	137.318E-12	666.190E-3	-33.3388E-3
3.69435E-3	135.611E-12	645.218E-3	-18.1450E-3	135.275E-12	673.910E-3	-19.9493E-3
3.68934E-3	135.950E-12	641.151E-3	-2.37155E-3	134.606E-12	675.890E-3	-10.8689E-3
3.68434E-3	136.839E-12	638.959E-3	14.3670E-3	135.074E-12	653.056E-3	1.97473E-3
3.67934E-3	136.256E-12	649.397E-3	9.11577E-3	137.139E-12	638.134E-3	-6.47378E-3
3.67434E-3	135.570E-12	658.121E-3	4.27131E-3	137.733E-12	656.450E-3	-22.0147E-3
3.66933E-3	135.757E-12	639.246E-3	10.4654E-3	136.545E-12	676.023E-3	-28.2210E-3
3.66433E-3	136.456E-12	628.190E-3	4.80921E-3	135.818E-12	666.094E-3	-24.5275E-3
3.65933E-3	136.743E-12	650.752E-3	-21.0397E-3	137.900E-12	645.938E-3	-34.4829E-3
3.65433E-3	136.194E-12	677.306E-3	-38.9732E-3	139.995E-12	650.916E-3	-75.4133E-3
3.64932E-3	136.729E-12	683.508E-3	-32.5551E-3	137.800E-12	672.311E-3	-75.6753E-3
3.64432E-3	136.265E-12	669.123E-3	-18.1030E-3	136.541E-12	681.209E-3	-26.8099E-3
3.63932E-3	136.792E-12	650.372E-3	-4.38610E-3	137.248E-12	673.710E-3	7.03763E-3
3.63432E-3	136.605E-12	640.444E-3	5.13964E-3	138.524E-12	656.461E-3	-3.04243E-3
3.62931E-3	135.387E-12	643.986E-3	4.91658E-3	137.992E-12	638.126E-3	-30.7282E-3
3.62431E-3	135.152E-12	648.183E-3	2.58348E-3	136.302E-12	639.212E-3	-18.8661E-3
3.61931E-3	134.930E-12	658.707E-3	9.95659E-3	135.502E-12	654.241E-3	248.684E-6
3.61431E-3	135.103E-12	665.816E-3	8.78496E-3	135.646E-12	655.132E-3	-11.9175E-3
3.60930E-3	133.479E-12	665.187E-3	-26.4237E-3	135.707E-12	650.826E-3	-4.57168E-3
3.60430E-3	131.860E-12	677.975E-3	-64.8929E-3	135.713E-12	664.295E-3	20.8153E-3
3.59930E-3	132.336E-12	677.055E-3	-51.5886E-3	134.666E-12	668.606E-3	16.3258E-3
3.59430E-3	132.436E-12	663.982E-3	-22.2348E-3	133.914E-12	646.519E-3	-175.023E-6
3.58929E-3	132.941E-12	660.592E-3	-20.7426E-3	135.005E-12	636.972E-3	-11.6377E-3
3.58429E-3	132.015E-12	651.748E-3	-35.4030E-3	135.766E-12	667.229E-3	-22.0840E-3
3.57929E-3	131.202E-12	652.738E-3	-33.1994E-3	133.636E-12	693.255E-3	-30.5271E-3
3.57429E-3	131.645E-12	658.519E-3	-12.0419E-3	133.134E-12	666.207E-3	-45.9479E-3
3.56928E-3	132.307E-12	643.729E-3	-21.9549E-3	134.073E-12	629.165E-3	-49.8296E-3
3.56428E-3	133.512E-12	638.070E-3	-44.3238E-3	135.498E-12	620.243E-3	-40.7845E-3
3.55928E-3	131.979E-12	653.119E-3	-32.1276E-3	133.096E-12	616.152E-3	-31.8494E-3
3.55428E-3	132.378E-12	672.739E-3	-17.8740E-3	132.079E-12	623.088E-3	-17.6149E-3
3.54927E-3	131.760E-12	680.485E-3	-22.3079E-3	132.227E-12	638.991E-3	-24.3935E-3
3.54427E-3	132.535E-12	666.216E-3	-27.3625E-3	134.165E-12	638.186E-3	-27.8776E-3
3.53927E-3	131.247E-12	661.684E-3	-22.8823E-3	133.483E-12	634.112E-3	-7.40605E-3
3.53427E-3	130.786E-12	669.020E-3	-17.6970E-3	131.323E-12	640.913E-3	-7.42091E-3
3.52926E-3	129.986E-12	661.156E-3	-19.9417E-3	130.265E-12	661.588E-3	-16.4050E-3
3.52426E-3	129.568E-12	661.000E-3	-13.0090E-3	131.345E-12	686.104E-3	-1.84896E-3
3.51926E-3	128.731E-12	678.595E-3	-5.95528E-3	131.771E-12	681.704E-3	26.8785E-3
3.51426E-3	127.108E-12	668.006E-3	-20.3793E-3	130.329E-12	651.305E-3	30.3944E-3
3.50925E-3	127.160E-12	636.062E-3	-36.0993E-3	129.917E-12	654.603E-3	22.2873E-3
3.50425E-3	126.763E-12	624.659E-3	-25.4850E-3	130.552E-12	677.355E-3	26.9234E-3
3.49925E-3	126.656E-12	618.376E-3	-19.1827E-3	132.003E-12	662.473E-3	6.66912E-3
3.49425E-3	125.663E-12	621.613E-3	-40.9549E-3	132.285E-12	638.059E-3	-17.9579E-3
3.48924E-3	126.517E-12	638.047E-3	-39.4207E-3	129.755E-12	653.524E-3	-13.0242E-3
3.48424E-3	126.175E-12	635.849E-3	-18.5413E-3	129.615E-12	683.878E-3	-12.5881E-3
3.47924E-3	126.657E-12	628.072E-3	-18.0816E-3	129.706E-12	683.584E-3	-32.9956E-3
3.47424E-3	125.928E-12	641.291E-3	-24.4499E-3	129.965E-12	677.233E-3	-46.1208E-3
3.46923E-3	125.945E-12	660.253E-3	-30.9744E-3	128.422E-12	665.321E-3	-36.9120E-3
3.46423E-3	127.285E-12	653.488E-3	-28.2852E-3	128.276E-12	639.843E-3	-18.3374E-3
3.45923E-3	128.013E-12	639.013E-3	-19.1440E-3	128.621E-12	638.864E-3	-9.85909E-3
3.45423E-3	129.410E-12	654.477E-3	-11.3231E-3	128.353E-12	641.527E-3	-21.5340E-3
3.44922E-3	127.883E-12	663.506E-3	-13.3440E-3	127.563E-12	632.189E-3	-49.3657E-3
3.44422E-3	128.590E-12	646.759E-3	-14.9463E-3	125.872E-12	627.203E-3	-82.4833E-3
3.43922E-3	128.331E-12	645.760E-3	2.10180E-3	126.396E-12	623.291E-3	-76.0064E-3
3.43422E-3	129.055E-12	663.132E-3	1.51510E-3	126.588E-12	639.045E-3	-28.1536E-3
3.42921E-3	128.683E-12	670.865E-3	-22.4268E-3	127.427E-12	667.040E-3	3.11784E-3
3.42421E-3	128.185E-12	657.705E-3	-25.3795E-3	126.316E-12	679.064E-3	12.3126E-3
3.41921E-3	128.068E-12	649.811E-3	-11.4837E-3	126.052E-12	685.881E-3	-3.58548E-3
3.41421E-3	126.880E-12	655.200E-3	-7.49758E-3	126.323E-12	685.950E-3	-25.7014E-3
3.40920E-3	125.932E-12	648.820E-3	-10.6451E-3	127.130E-12	675.889E-3	-14.6170E-3
3.40420E-3	124.501E-12	643.345E-3	-3.19710E-3	127.328E-12	677.455E-3	-1.70305E-3
3.39920E-3	125.035E-12	652.236E-3	4.54238E-3	127.150E-12	677.476E-3	-16.9657E-3
3.39420E-3	123.900E-12	641.166E-3	964.094E-6	126.347E-12	659.616E-3	-27.7399E-3
3.38919E-3	123.661E-12	625.383E-3	9.07535E-3	126.335E-12	634.793E-3	-25.8336E-3
3.38419E-3	123.162E-12	638.074E-3	14.9699E-3	126.730E-12	631.523E-3	-27.5191E-3
3.37919E-3	123.424E-12	666.719E-3	-7.61522E-3	125.758E-12	645.993E-3	-18.6060E-3
3.37419E-3	123.899E-12	674.492E-3	-28.6151E-3	124.390E-12	637.382E-3	-7.09779E-3
3.36918E-3	123.494E-12	644.878E-3	-15.5100E-3	124.149E-12	627.380E-3	-5.85710E-3
3.36418E-3	123.344E-12	625.673E-3	-4.02093E-3	124.373E-12	635.113E-3	-6.70686E-3
3.35918E-3	123.952E-12	633.109E-3	-11.0650E-3	122.784E-12	640.069E-3	-6.22750E-3
3.35418E-3	124.305E-12	641.999E-3	-13.4142E-3	121.855E-12	647.949E-3	7.41895E-3
3.34917E-3	124.715E-12	645.897E-3	-14.8987E-3	122.302E-12	658.112E-3	22.8650E-3
3.34417E-3	124.064E-12	665.402E-3	-23.4544E-3	122.763E-12	645.373E-3	7.86748E-3
3.33917E-3	124.163E-12	691.410E-3	-35.8339E-3	122.246E-12	639.877E-3	-21.7566E-3
3.33417E-3	123.963E-12	697.254E-3	-46.1796E-3	121.018E-12	665.498E-3	-30.9478E-3
3.32916E-3	124.888E-12	678.448E-3	-37.0755E-3	121.443E-12	690.050E-3	-19.0260E-3
3.32416E-3	123.853E-12	648.894E-3	-10.6955E-3	122.446E-12	691.653E-3	-709.028E-6
3.31916E-3	123.117E-12	641.285E-3	-7.57875E-3	122.655E-12	683.381E-3	4.03850E-3
3.31416E-3	122.350E-12	653.884E-3	-24.5967E-3	122.082E-12	688.328E-3	-22.6799E-3
3.30915E-3	121.877E-12	657.733E-3	-31.2480E-3	121.922E-12	678.806E-3	-46.1120E-3
3.30415E-3	121.766E-12	657.448E-3	-21.7109E-3	122.400E-12	652.624E-3	-34.7185E-3
3.29915E-3	121.010E-12	653.105E-3	-20.1852E-3	122.325E-12	641.463E-3	-28.0565E-3
3.29415E-3	120.314E-12	639.883E-3	-24.4316E-3	121.549E-12	647.281E-3	-29.1315E-3
3.28914E-3	119.695E-12	646.183E-3	-18.0603E-3	120.567E-12	653.574E-3	-21.3537E-3
3.28414E-3	119.199E-12	663.494E-3	-17.0423E-3	120.619E-12	645.475E-3	-37.4195E-3
3.27914E-3	118.856E-12	664.438E-3	-12.6817E-3	120.169E-12	636.339E-3	-42.4536E-3
3.27414E-3	118.371E-12	644.405E-3	-7.70166E-3	119.731E-12	644.605E-3	-16.8933E-3
3.26913E-3	118.365E-12	632.556E-3	-14.8774E-3	118.652E-12	644.357E-3	-5.03176E-3
3.26413E-3	118.006E-12	654.882E-3	-24.0368E-3	117.888E-12	636.498E-3	11.8003E-3
3.25913E-3	117.649E-12	666.674E-3	-33.6632E-3	118.664E-12	638.188E-3	17.1357E-3
3.25413E-3	117.411E-12	658.819E-3	-42.2410E-3	118.699E-12	636.620E-3	-13.9494E-3
3.24912E-3	117.621E-12	660.955E-3	-26.9536E-3	118.746E-12	644.040E-3	-27.5558E-3
3.24412E-3	117.307E-12	648.932E-3	4.92498E-3	117.328E-12	661.987E-3	-23.7147E-3
3.23912E-3	117.539E-12	635.468E-3	19.2173E-3	118.315E-12	668.740E-3	-25.3390E-3
3.23412E-3	117.169E-12	650.888E-3	16.8069E-3	119.474E-12	658.024E-3	-11.8858E-3
3.22911E-3	117.831E-12	658.995E-3	-2.65927E-3	119.919E-12	649.821E-3	8.60298E-3
3.22411E-3	117.993E-12	662.667E-3	-30.7292E-3	118.036E-12	663.937E-3	15.4688E-3
3.21911E-3	117.672E-12	681.439E-3	-39.6148E-3	118.125E-12	678.558E-3	8.79586E-3
3.21411E-3	117.325E-12	693.752E-3	-42.0415E-3	118.878E-12	667.779E-3	390.293E-6
3.20910E-3	116.619E-12	686.759E-3	-37.3224E-3	120.087E-12	670.476E-3	-5.60410E-3
3.20410E-3	117.218E-12	668.973E-3	-16.6110E-3	118.259E-12	684.674E-3	-19.4184E-3
3.19910E-3	115.750E-12	658.891E-3	-12.6661E-3	116.342E-12	674.834E-3	-35.4979E-3
3.19410E-3	115.088E-12	659.054E-3	-33.1453E-3	116.084E-12	662.694E-3	-38.6207E-3
3.18909E-3	114.505E-12	652.819E-3	-52.7185E-3	116.153E-12	653.939E-3	-22.2807E-3
3.18409E-3	114.609E-12	645.761E-3	-50.4056E-3	115.968E-12	657.639E-3	12.1543E-3
3.17909E-3	113.710E-12	651.562E-3	-34.8781E-3	114.558E-12	669.154E-3	24.8618E-3
3.17409E-3	112.132E-12	658.810E-3	-28.4859E-3	114.696E-12	661.842E-3	-5.27047E-3
3.16908E-3	112.983E-12	654.375E-3	-14.6999E-3	114.052E-12	644.284E-3	-30.2002E-3
3.16408E-3	112.523E-12	643.469E-3	-6.12751E-3	114.756E-12	645.149E-3	-16.2092E-3
3.15908E-3	112.818E-12	631.452E-3	-23.8793E-3	113.965E-12	660.344E-3	12.5449E-3
3.15408E-3	112.698E-12	623.016E-3	-26.9893E-3	114.607E-12	673.843E-3	16.1734E-3
3.14907E-3	113.340E-12	632.836E-3	-14.6785E-3	113.591E-12	690.807E-3	3.37796E-3
3.14407E-3	112.842E-12	641.105E-3	-13.7366E-3	113.367E-12	698.906E-3	-6.68222E-3
3.13907E-3	113.646E-12	637.083E-3	-5.26339E-3	114.545E-12	689.204E-3	-21.9620E-3
3.13407E-3	113.496E-12	641.566E-3	-2.96694E-3	114.560E-12	678.736E-3	-20.5728E-3
3.12906E-3	114.520E-12	641.187E-3	-30.5484E-3	113.649E-12	672.553E-3	2.40252E-3
3.12406E-3	115.135E-12	634.881E-3	-48.1157E-3	112.461E-12	664.520E-3	18.1572E-3
3.11906E-3	114.800E-12	659.175E-3	-35.5859E-3	113.832E-12	668.657E-3	22.1302E-3
3.11406E-3	114.441E-12	692.610E-3	-9.28511E-3	114.518E-12	668.800E-3	22.8884E-3
3.10905E-3	114.257E-12	688.922E-3	1.19477E-3	113.530E-12	663.365E-3	27.5676E-3
3.10405E-3	113.565E-12	676.083E-3	-14.1230E-3	111.622E-12	685.289E-3	19.1236E-3
3.09905E-3	112.265E-12	680.152E-3	-23.6872E-3	111.852E-12	697.639E-3	-15.4660E-3
3.09405E-3	111.059E-12	671.688E-3	-27.6845E-3	113.301E-12	669.568E-3	-35.5074E-3
3.08904E-3	110.225E-12	654.385E-3	-33.4149E-3	112.198E-12	645.887E-3	-24.6389E-3
3.08404E-3	110.167E-12	652.048E-3	-31.7291E-3	110.922E-12	666.491E-3	-9.68330E-3
3.07904E-3	109.847E-12	652.868E-3	-39.3939E-3	110.732E-12	692.186E-3	-13.1803E-3
3.07404E-3	108.394E-12	654.423E-3	-46.6592E-3	112.818E-12	680.968E-3	-21.9244E-3
3.06903E-3	108.314E-12	657.942E-3	-30.3258E-3	111.972E-12	665.511E-3	-14.8374E-3
3.06403E-3	108.239E-12	660.071E-3	-14.6097E-3	109.876E-12	648.300E-3	-5.32955E-3
3.05903E-3	109.582E-12	662.721E-3	-16.2231E-3	109.476E-12	622.963E-3	1.96586E-3
3.05403E-3	109.035E-12	657.619E-3	-20.7753E-3	110.440E-12	632.953E-3	-1.88932E-3
3.04902E-3	108.698E-12	653.225E-3	-4.96014E-3	110.800E-12	667.074E-3	-2.42390E-3
3.04402E-3	109.294E-12	655.276E-3	8.47110E-3	109.647E-12	676.144E-3	14.3140E-3
3.03902E-3	110.271E-12	649.980E-3	-16.8699E-3	109.297E-12	679.810E-3	16.6994E-3
3.03402E-3	110.594E-12	643.140E-3	-41.9187E-3	108.847E-12	684.242E-3	-6.59451E-3
3.02901E-3	109.885E-12	641.189E-3	-40.5970E-3	109.516E-12	663.874E-3	-16.7937E-3
3.02401E-3	110.766E-12	648.085E-3	-28.5951E-3	109.051E-12	656.697E-3	-9.08582E-3
3.01901E-3	111.985E-12	669.100E-3	-8.08670E-3	108.513E-12	666.287E-3	-30.2009E-3
3.01401E-3	111.649E-12	674.264E-3	524.501E-6	107.118E-12	659.714E-3	-47.2836E-3
3.00900E-3	110.517E-12	671.299E-3	-11.9497E-3	107.010E-12	659.325E-3	-22.4519E-3
3.00400E-3	109.631E-12	692.914E-3	-27.1555E-3	108.213E-12	667.652E-3	-16.0012E-3
2.99900E-3	110.078E-12	714.492E-3	-31.6368E-3	107.063E-12	657.257E-3	-36.2636E-3
2.99400E-3	109.721E-12	717.924E-3	-28.9395E-3	106.066E-12	654.379E-3	-45.8302E-3
2.98899E-3	108.897E-12	714.710E-3	-17.8387E-3	106.358E-12	666.459E-3	-40.4977E-3
2.98399E-3	108.721E-12	705.805E-3	-600.883E-6	108.026E-12	662.238E-3	-34.2639E-3
2.97899E-3	108.069E-12	687.172E-3	1.59325E-3	108.401E-12	659.783E-3	-27.0346E-3
2.97399E-3	107.810E-12	676.475E-3	-13.6749E-3	106.859E-12	663.048E-3	-6.72302E-3
2.96898E-3	106.560E-12	675.032E-3	-25.9097E-3	106.027E-12	655.595E-3	13.4811E-3
2.96398E-3	106.017E-12	670.277E-3	-26.7586E-3	106.588E-12	659.362E-3	19.2701E-3
2.95898E-3	104.982E-12	676.043E-3	-31.7171E-3	108.150E-12	674.603E-3	4.40986E-3
2.95398E-3	105.356E-12	672.588E-3	-32.2666E-3	106.847E-12	670.406E-3	-13.0176E-3
2.94897E-3	104.895E-12	652.896E-3	-26.2009E-3	105.441E-12	653.815E-3	-10.2801E-3
2.94397E-3	104.905E-12	655.111E-3	-11.4493E-3	106.094E-12	658.121E-3	-3.67571E-3
2.93897E-3	104.587E-12	664.479E-3	13.5265E-3	106.394E-12	669.466E-3	-5.06984E-3
2.93397E-3	104.863E-12	655.401E-3	17.7558E-3	104.772E-12	669.998E-3	-2.76890E-3
2.92896E-3	104.880E-12	645.378E-3	5.52428E-3	103.192E-12	661.108E-3	2.32254E-3
2.92396E-3	104.497E-12	648.669E-3	-4.92294E-3	103.220E-12	639.001E-3	1.34773E-3
2.91896E-3	104.323E-12	655.920E-3	-13.6163E-3	103.562E-12	626.963E-3	-3.33596E-3
2.91396E-3	104.464E-12	658.492E-3	-17.6695E-3	103.276E-12	648.926E-3	-21.4270E-3
2.90895E-3	103.897E-12	663.526E-3	-21.2556E-3	102.202E-12	681.045E-3	-34.8242E-3
2.90395E-3	103.409E-12	666.692E-3	-18.4026E-3	102.653E-12	689.021E-3	-23.7115E-3
2.89895E-3	102.946E-12	674.188E-3	-21.2799E-3	103.400E-12	663.043E-3	-17.3554E-3
2.89395E-3	103.708E-12	680.699E-3	-39.4152E-3	103.296E-12	628.029E-3	-34.0663E-3
2.88894E-3	102.525E-12	676.015E-3	-37.1503E-3	102.307E-12	643.901E-3	-46.1945E-3
2.88394E-3	102.272E-12	676.529E-3	-22.6638E-3	102.561E-12	698.075E-3	-33.6623E-3
2.87894E-3	100.971E-12	684.666E-3	-21.0317E-3	103.247E-12	717.558E-3	-24.4654E-3
2.87394E-3	101.868E-12	689.754E-3	-28.3055E-3	102.654E-12	691.559E-3	-20.0687E-3
2.86893E-3	101.311E-12	677.239E-3	-37.0307E-3	101.725E-12	669.734E-3	-12.1166E-3
2.86393E-3	100.220E-12	662.605E-3	-36.4165E-3	101.468E-12	675.885E-3	-11.5666E-3
2.85893E-3	99.7389E-12	656.681E-3	-21.4144E-3	101.395E-12	686.993E-3	-21.7854E-3
2.85393E-3	99.8651E-12	663.249E-3	-7.03874E-3	101.207E-12	682.844E-3	-13.6159E-3
2.84892E-3	100.063E-12	687.063E-3	-7.95745E-3	100.308E-12	651.637E-3	4.36213E-3
2.84392E-3	99.2915E-12	695.700E-3	-9.26426E-3	99.4415E-12	617.262E-3	-9.22896E-3
2.83892E-3	99.1417E-12	683.055E-3	-10.9714E-3	98.7934E-12	624.700E-3	-23.0441E-3
2.83392E-3	98.3948E-12	668.080E-3	-26.6842E-3	98.6215E-12	645.154E-3	-12.3845E-3
2.82891E-3	98.8503E-12	666.051E-3	-35.4661E-3	97.5262E-12	644.550E-3	-3.65475E-3
2.82391E-3	98.8297E-12	667.636E-3	-29.2775E-3	97.5568E-12	648.186E-3	-8.36563E-3
2.81891E-3	99.2801E-12	669.023E-3	-32.9703E-3	96.8458E-12	669.780E-3	-14.6132E-3
2.81391E-3	99.1214E-12	679.227E-3	-35.8858E-3	96.7708E-12	684.269E-3	-15.1193E-3
2.80890E-3	98.4698E-12	677.264E-3	-20.5360E-3	97.3730E-12	674.819E-3	-6.83731E-3
2.80390E-3	98.7703E-12	665.988E-3	-17.6775E-3	97.4346E-12	663.114E-3	1.26517E-3
2.79890E-3	99.0116E-12	665.250E-3	-20.7017E-3	97.6992E-12	671.617E-3	5.47285E-3
2.79390E-3	99.8071E-12	666.046E-3	-10.4712E-3	97.9502E-12	680.528E-3	8.40330E-3
2.78889E-3	99.3207E-12	679.719E-3	-6.41198E-3	98.2433E-12	670.462E-3	7.09726E-3
2.78389E-3	98.9196E-12	710.766E-3	-10.1892E-3	98.3862E-12	663.500E-3	6.58915E-3
2.77889E-3	98.4527E-12	714.883E-3	-17.3628E-3	97.9334E-12	675.982E-3	4.32372E-3
2.77389E-3	98.7872E-12	690.000E-3	-23.8238E-3	98.1767E-12	696.853E-3	-6.61481E-3
2.76888E-3	98.3897E-12	668.940E-3	-17.1217E-3	98.0767E-12	695.820E-3	-20.3891E-3
2.76388E-3	96.7468E-12	655.339E-3	-4.01556E-3	97.8060E-12	686.493E-3	-31.0631E-3
2.75888E-3	96.6730E-12	650.581E-3	-3.39575E-3	96.5309E-12	687.573E-3	-45.7487E-3
2.75388E-3	96.3928E-12	656.238E-3	-14.8625E-3	95.5489E-12	667.972E-3	-52.7933E-3
2.74887E-3	97.1160E-12	673.684E-3	-33.0854E-3	94.6674E-12	641.031E-3	-42.2969E-3
2.74387E-3	96.4222E-12	694.591E-3	-46.4954E-3	94.8447E-12	640.547E-3	-26.5381E-3
2.73887E-3	95.5313E-12	699.654E-3	-40.4746E-3	94.6575E-12	647.858E-3	-16.8358E-3
2.73387E-3	95.4596E-12	688.358E-3	-24.3567E-3	93.7300E-12	649.641E-3	-18.7261E-3
2.72886E-3	95.8534E-12	675.901E-3	-22.0787E-3	93.1881E-12	666.840E-3	-14.3128E-3
2.72386E-3	95.7725E-12	667.247E-3	-22.5982E-3	93.2827E-12	674.534E-3	-9.55308E-3
2.71886E-3	95.7475E-12	659.943E-3	-16.5464E-3	94.0031E-12	657.812E-3	-12.0273E-3
2.71386E-3	95.4884E-12	663.062E-3	-20.1290E-3	94.2583E-12	656.750E-3	-15.0362E-3
2.70885E-3	96.9940E-12	685.678E-3	-28.6863E-3	93.9521E-12	672.286E-3	-33.7756E-3
2.70385E-3	96.8782E-12	712.985E-3	-19.3542E-3	93.6502E-12	679.396E-3	-43.5225E-3
2.69885E-3	96.2797E-12	720.234E-3	-11.4807E-3	94.4424E-12	679.649E-3	-37.1834E-3
2.69385E-3	96.1540E-12	711.761E-3	-18.5229E-3	94.9138E-12	684.532E-3	-26.0855E-3
2.68884E-3	97.2848E-12	706.053E-3	-20.8694E-3	95.4574E-12	687.239E-3	-8.19442E-3
2.68384E-3	96.1400E-12	706.614E-3	-28.4852E-3	95.0094E-12	686.815E-3	5.67567E-3
2.67884E-3	94.6836E-12	712.956E-3	-30.1392E-3	94.2933E-12	696.991E-3	10.8534E-3
2.67384E-3	94.1758E-12	710.123E-3	-29.5939E-3	93.7934E-12	702.476E-3	-1.76755E-3
2.66883E-3	93.8547E-12	697.413E-3	-37.2179E-3	94.0306E-12	687.909E-3	-32.4427E-3
2.66383E-3	93.4837E-12	703.767E-3	-37.4668E-3	94.3039E-12	680.618E-3	-47.2439E-3
2.65883E-3	91.9874E-12	716.228E-3	-33.6903E-3	93.0284E-12	684.804E-3	-37.6065E-3
2.65383E-3	91.2666E-12	691.470E-3	-27.4650E-3	92.4403E-12	696.964E-3	-20.2439E-3
2.64882E-3	89.9438E-12	665.146E-3	-29.6693E-3	92.1338E-12	692.284E-3	2.39396E-3
2.64382E-3	89.6961E-12	681.345E-3	-28.8811E-3	91.8303E-12	666.595E-3	3.72535E-3
2.63882E-3	89.3473E-12	680.574E-3	-17.1760E-3	91.0662E-12	668.489E-3	-6.75426E-3
2.63382E-3	89.8694E-12	666.100E-3	-13.9405E-3	90.8399E-12	683.545E-3	-18.7806E-3
2.62881E-3	89.0983E-12	673.845E-3	-15.1157E-3	91.2538E-12	689.538E-3	-36.2918E-3
2.62381E-3	88.1977E-12	667.488E-3	-12.3805E-3	91.1422E-12	694.479E-3	-32.1968E-3
2.61881E-3	89.0130E-12	662.504E-3	-11.4162E-3	90.2479E-12	689.327E-3	-27.2562E-3
2.61381E-3	89.1806E-12	678.058E-3	-9.06875E-3	90.4013E-12	683.198E-3	-40.8133E-3
2.60880E-3	90.2196E-12	673.133E-3	1.86690E-3	89.6370E-12	694.052E-3	-39.6594E-3
2.60380E-3	89.0040E-12	662.775E-3	4.42477E-3	89.3440E-12	702.865E-3	-20.9761E-3
2.59880E-3	89.9313E-12	679.349E-3	-7.79329E-3	89.6761E-12	686.831E-3	-2.01909E-3
2.59380E-3	89.8246E-12	680.528E-3	-20.8902E-3	90.4531E-12	674.685E-3	7.32703E-3
2.58879E-3	90.1412E-12	667.800E-3	-28.5828E-3	89.8893E-12	675.432E-3	-12.3571E-3
2.58379E-3	89.7652E-12	682.157E-3	-14.1778E-3	88.1478E-12	677.994E-3	-21.3102E-3
2.57879E-3	89.5313E-12	693.127E-3	2.22582E-3	87.4064E-12	686.376E-3	-3.58180E-3
2.57379E-3	88.9289E-12	668.024E-3	-10.0235E-3	87.6527E-12	692.715E-3	-9.04801E-3
2.56878E-3	88.1938E-12	657.914E-3	-17.8953E-3	88.1518E-12	697.412E-3	-31.8384E-3
2.56378E-3	87.7603E-12	673.897E-3	-660.898E-6	86.8335E-12	689.645E-3	-32.9528E-3
2.55878E-3	86.3620E-12	676.458E-3	4.40526E-3	86.1177E-12	683.537E-3	-8.00394E-3
2.55378E-3	85.7679E-12	691.279E-3	-16.3284E-3	86.9557E-12	700.518E-3	-1.19388E-3
2.54877E-3	85.1265E-12	718.508E-3	-17.3910E-3	87.7114E-12	710.487E-3	-12.2245E-3
2.54377E-3	85.1199E-12	723.014E-3	-10.3230E-3	87.1806E-12	702.844E-3	3.84582E-3
2.53877E-3	84.5915E-12	705.390E-3	-13.0153E-3	86.2975E-12	686.110E-3	9.74696E-3
2.53377E-3	84.3686E-12	696.866E-3	-12.4532E-3	86.3489E-12	676.068E-3	-24.1222E-3
2.52876E-3	84.5705E-12	692.058E-3	-29.1439E-3	86.6517E-12	691.997E-3	-31.6434E-3
2.52376E-3	84.9749E-12	682.290E-3	-32.1333E-3	86.5873E-12	700.148E-3	11.7944E-3
2.51876E-3	85.1855E-12	686.785E-3	-12.8121E-3	85.6682E-12	691.435E-3	29.5265E-3
2.51376E-3	84.4061E-12	694.215E-3	-7.86516E-3	85.2101E-12	689.883E-3	1.20804E-3
2.50875E-3	85.1294E-12	701.334E-3	-17.0242E-3	84.0913E-12	690.775E-3	-27.5421E-3
2.50375E-3	84.8074E-12	703.401E-3	-23.5746E-3	84.5542E-12	697.703E-3	-32.5624E-3
2.49875E-3	85.8118E-12	703.776E-3	-35.3712E-3	84.2430E-12	699.217E-3	-23.7015E-3
2.49375E-3	85.6001E-12	711.892E-3	-35.3349E-3	83.6485E-12	683.330E-3	-22.9838E-3
2.48874E-3	85.8257E-12	709.176E-3	-9.83527E-3	82.3312E-12	679.621E-3	-28.4972E-3
2.48374E-3	86.0706E-12	704.256E-3	-2.84677E-3	82.4067E-12	696.873E-3	-34.1450E-3
2.47874E-3	85.2493E-12	705.482E-3	-17.8605E-3	82.8106E-12	712.101E-3	-32.2156E-3
2.47374E-3	85.5318E-12	698.556E-3	-24.6697E-3	82.3546E-12	718.160E-3	-29.1977E-3
2.46873E-3	84.7533E-12	700.432E-3	-14.6491E-3	82.1028E-12	703.174E-3	-24.3450E-3
2.46373E-3	84.3346E-12	710.866E-3	-3.01126E-3	81.9641E-12	683.247E-3	-14.2320E-3
2.45873E-3	83.1413E-12	715.704E-3	-13.2770E-3	83.0075E-12	687.101E-3	-26.7401E-3
2.45373E-3	83.4003E-12	719.006E-3	-32.5230E-3	82.6908E-12	699.180E-3	-39.3679E-3
2.44872E-3	83.0802E-12	714.691E-3	-30.0209E-3	82.2059E-12	703.652E-3	-24.5882E-3
2.44372E-3	81.9102E-12	714.893E-3	-9.75898E-3	81.8143E-12	697.317E-3	-21.3189E-3
2.43872E-3	81.4978E-12	731.747E-3	3.00888E-3	81.9078E-12	696.425E-3	-42.0539E-3
2.43372E-3	81.1530E-12	739.962E-3	-6.80689E-3	81.5026E-12	700.839E-3	-41.5698E-3
2.42871E-3	81.5613E-12	723.738E-3	-22.3507E-3	80.8581E-12	695.693E-3	-16.9587E-3
2.42371E-3	80.4348E-12	695.653E-3	-21.0096E-3	80.0933E-12	692.890E-3	-6.43541E-3
2.41871E-3	80.6478E-12	677.409E-3	-15.2050E-3	80.4146E-12	695.716E-3	-21.1730E-3
2.41371E-3	80.3200E-12	697.303E-3	-8.95168E-3	80.4409E-12	693.105E-3	-32.3756E-3
2.40870E-3	81.5000E-12	717.073E-3	-1.46534E-3	80.0230E-12	690.164E-3	-20.0969E-3
2.40370E-3	81.5849E-12	711.698E-3	-11.3175E-3	78.4179E-12	698.771E-3	-24.6862E-3
2.39870E-3	80.9100E-12	709.761E-3	-29.5206E-3	78.2487E-12	700.446E-3	-41.1857E-3
2.39370E-3	80.6077E-12	708.467E-3	-31.9280E-3	78.3328E-12	689.458E-3	-38.4062E-3
2.38869E-3	81.3963E-12	705.427E-3	-27.5715E-3	78.4301E-12	695.411E-3	-27.5265E-3
2.38369E-3	82.2555E-12	708.079E-3	-31.4443E-3	78.2845E-12	714.879E-3	-19.1151E-3
2.37869E-3	81.3379E-12	716.927E-3	-26.3124E-3	78.0033E-12	717.992E-3	-29.9685E-3
2.37369E-3	80.7983E-12	720.782E-3	-6.16530E-3	78.2899E-12	713.736E-3	-39.8545E-3
2.36868E-3	80.3066E-12	720.872E-3	11.0740E-3	78.3270E-12	727.914E-3	-24.9024E-3
2.36368E-3	80.6407E-12	729.800E-3	23.5255E-3	78.8243E-12	724.082E-3	-12.9855E-3
2.35868E-3	79.9984E-12	733.004E-3	8.65039E-3	78.7096E-12	702.447E-3	-15.2407E-3
2.35368E-3	79.3585E-12	736.115E-3	-23.5430E-3	78.0951E-12	705.918E-3	-13.6743E-3
2.34867E-3	78.9455E-12	752.649E-3	-39.8188E-3	78.2245E-12	714.683E-3	-20.0797E-3
2.34367E-3	78.4253E-12	746.153E-3	-43.7586E-3	78.0684E-12	711.508E-3	-37.8139E-3
2.33867E-3	78.0185E-12	732.221E-3	-43.3429E-3	77.9125E-12	714.296E-3	-41.4552E-3
2.33367E-3	77.4373E-12	742.977E-3	-39.5674E-3	76.7221E-12	725.392E-3	-28.9274E-3
2.32866E-3	76.7417E-12	743.844E-3	-35.5857E-3	76.8067E-12	726.296E-3	-14.9793E-3
2.32366E-3	76.4074E-12	739.819E-3	-37.5607E-3	76.2035E-12	718.243E-3	-15.8508E-3
2.31866E-3	76.2040E-12	737.765E-3	-23.3104E-3	75.5931E-12	712.624E-3	-16.6117E-3
2.31366E-3	75.7751E-12	714.713E-3	-7.29813E-3	74.2838E-12	706.645E-3	-13.7555E-3
2.30865E-3	75.8330E-12	700.790E-3	-6.55889E-3	73.8693E-12	699.692E-3	-29.2587E-3
2.30365E-3	75.5259E-12	713.633E-3	-7.80239E-3	73.8741E-12	700.663E-3	-32.4608E-3
2.29865E-3	75.1520E-12	719.013E-3	-6.17687E-3	74.2151E-12	695.707E-3	-9.33155E-3
2.29365E-3	75.1605E-12	708.215E-3	-14.8917E-3	73.6300E-12	681.024E-3	1.80296E-3
2.28864E-3	75.2968E-12	701.534E-3	-26.1242E-3	73.3493E-12	692.917E-3	-4.74275E-3
2.28364E-3	75.6542E-12	717.080E-3	-23.5455E-3	73.4677E-12	722.944E-3	-11.6789E-3
2.27864E-3	75.3832E-12	738.614E-3	-25.4446E-3	73.9165E-12	726.599E-3	-13.8525E-3
2.27364E-3	75.1822E-12	745.928E-3	-19.2049E-3	73.7731E-12	711.888E-3	-14.3118E-3
2.26863E-3	74.8513E-12	739.045E-3	-3.71577E-3	73.7948E-12	708.820E-3	-19.8637E-3
2.26363E-3	74.3769E-12	730.234E-3	-3.67428E-3	74.0206E-12	715.347E-3	-20.1034E-3
2.25863E-3	74.8428E-12	729.631E-3	-5.95491E-3	73.9739E-12	723.983E-3	-9.46040E-3
2.25363E-3	74.1491E-12	719.604E-3	-4.02855E-3	73.6002E-12	732.102E-3	-3.31475E-3
2.24862E-3	73.1324E-12	712.441E-3	-23.6140E-3	72.8443E-12	733.060E-3	4.51728E-3
2.24362E-3	72.3196E-12	721.368E-3	-42.7944E-3	72.8294E-12	734.146E-3	10.1938E-3
2.23862E-3	72.4160E-12	722.076E-3	-29.3659E-3	72.5119E-12	732.489E-3	4.79429E-3
2.23362E-3	71.3883E-12	718.958E-3	-17.4819E-3	72.3822E-12	729.077E-3	850.568E-6
2.22861E-3	70.2849E-12	731.520E-3	-25.2931E-3	71.1629E-12	735.664E-3	-487.053E-6
2.22361E-3	70.1467E-12	733.079E-3	-31.0023E-3	70.6231E-12	751.606E-3	-8.81947E-3
2.21861E-3	69.8455E-12	718.122E-3	-31.4546E-3	70.4303E-12	757.042E-3	-24.7529E-3
2.21361E-3	69.3050E-12	713.684E-3	-15.0809E-3	70.7084E-12	746.644E-3	-32.4546E-3
2.20860E-3	68.6032E-12	714.400E-3	23.8842E-3	70.6029E-12	743.375E-3	-34.4560E-3
2.20360E-3	69.2374E-12	711.171E-3	36.7335E-3	69.8186E-12	756.579E-3	-34.5670E-3
2.19860E-3	69.4845E-12	710.090E-3	12.9092E-3	69.6314E-12	771.440E-3	-18.6753E-3
2.19360E-3	68.9907E-12	713.733E-3	-2.91414E-3	69.7477E-12	762.591E-3	-6.66573E-3
2.18859E-3	69.2975E-12	712.899E-3	-14.1050E-3	70.0643E-12	742.079E-3	-14.6698E-3
2.18359E-3	70.0559E-12	718.358E-3	-34.9275E-3	69.7096E-12	738.089E-3	-25.5034E-3
2.17859E-3	70.4007E-12	737.902E-3	-40.3569E-3	69.2890E-12	750.501E-3	-27.6173E-3
2.17359E-3	69.8179E-12	742.829E-3	-22.8727E-3	69.1420E-12	759.522E-3	-16.6229E-3
2.16858E-3	69.8277E-12	737.993E-3	-8.23930E-3	69.5922E-12	757.106E-3	-9.60978E-3
2.16358E-3	70.6423E-12	745.456E-3	-1.74862E-3	68.9962E-12	755.516E-3	-20.8127E-3
2.15858E-3	70.5829E-12	754.422E-3	6.43583E-3	68.9410E-12	746.363E-3	-40.6968E-3
2.15358E-3	69.8554E-12	764.672E-3	-6.80097E-3	67.9675E-12	730.838E-3	-51.3636E-3
2.14857E-3	68.7724E-12	783.621E-3	-31.7166E-3	67.1821E-12	719.859E-3	-39.8395E-3
2.14357E-3	68.6462E-12	783.021E-3	-28.9990E-3	66.6618E-12	717.181E-3	-19.2379E-3
2.13857E-3	69.1052E-12	766.208E-3	-13.2030E-3	66.3714E-12	729.777E-3	-17.1390E-3
2.13357E-3	68.2956E-12	764.301E-3	1.64981E-3	66.2309E-12	747.045E-3	-28.0730E-3
2.12856E-3	66.7527E-12	767.692E-3	14.5395E-3	65.7990E-12	753.325E-3	-22.9501E-3
2.12356E-3	66.1409E-12	767.251E-3	-236.956E-6	65.7447E-12	748.337E-3	-12.4974E-3
2.11856E-3	66.1590E-12	753.139E-3	-31.9073E-3	65.5865E-12	740.986E-3	-8.22958E-3
2.11356E-3	66.3732E-12	731.153E-3	-23.4911E-3	65.3173E-12	736.901E-3	-5.80998E-3
2.10855E-3	65.9043E-12	739.390E-3	7.01093E-3	65.5839E-12	745.706E-3	-10.0851E-3
2.10355E-3	65.4914E-12	761.941E-3	3.86885E-3	65.1125E-12	765.019E-3	-4.44884E-3
2.09855E-3	65.1787E-12	761.624E-3	-10.6421E-3	65.0043E-12	771.122E-3	3.90160E-3
2.09355E-3	65.9353E-12	750.705E-3	-21.1972E-3	64.9523E-12	760.523E-3	-11.2962E-3
2.08854E-3	65.8196E-12	746.422E-3	-32.3436E-3	65.1077E-12	761.532E-3	-31.2136E-3
2.08354E-3	65.6281E-12	756.027E-3	-27.6007E-3	64.7805E-12	780.055E-3	-30.5878E-3
2.07854E-3	65.1097E-12	771.144E-3	-18.5810E-3	64.2768E-12	791.779E-3	-20.7610E-3
2.07354E-3	65.7849E-12	779.485E-3	-23.7565E-3	64.3388E-12	791.933E-3	-23.7604E-3
2.06853E-3	66.5636E-12	780.717E-3	-22.1529E-3	63.9931E-12	776.730E-3	-25.2113E-3
2.06353E-3	64.9296E-12	787.998E-3	-19.2418E-3	63.5015E-12	753.493E-3	-11.9590E-3
2.05853E-3	64.0548E-12	802.041E-3	-21.8633E-3	62.8603E-12	749.704E-3	1.80901E-3
2.05353E-3	63.8405E-12	797.775E-3	-25.7650E-3	63.0774E-12	762.712E-3	4.63845E-3
2.04852E-3	64.4099E-12	770.203E-3	-36.1083E-3	62.6868E-12	777.628E-3	2.80713E-3
2.04352E-3	63.3486E-12	760.021E-3	-41.3118E-3	62.1565E-12	782.880E-3	7.33299E-3
2.03852E-3	62.1351E-12	769.414E-3	-30.8570E-3	61.6025E-12	786.286E-3	-3.85478E-3
2.03352E-3	61.5260E-12	780.490E-3	-6.17868E-3	61.9998E-12	789.424E-3	-32.0876E-3
2.02851E-3	61.7580E-12	794.110E-3	70.8271E-6	62.4310E-12	789.853E-3	-42.5271E-3
2.02351E-3	61.4531E-12	794.882E-3	-16.3890E-3	62.1168E-12	792.834E-3	-31.8498E-3
2.01851E-3	60.3001E-12	784.652E-3	-23.9046E-3	61.5536E-12	790.624E-3	-23.6301E-3
2.01351E-3	59.7841E-12	772.252E-3	-20.7819E-3	61.6412E-12	792.556E-3	-21.5556E-3
2.00850E-3	59.8979E-12	764.987E-3	-27.3068E-3	61.7046E-12	806.602E-3	-8.99876E-3
2.00350E-3	60.5776E-12	770.394E-3	-33.6487E-3	60.9245E-12	805.714E-3	-392.892E-6
1.99850E-3	59.6892E-12	786.928E-3	-28.1478E-3	60.4811E-12	792.754E-3	-7.58200E-3
1.99350E-3	59.0383E-12	796.042E-3	-20.2059E-3	60.3926E-12	796.579E-3	-13.5403E-3
1.98849E-3	59.3718E-12	784.290E-3	-17.4741E-3	60.0847E-12	800.939E-3	-20.3349E-3
1.98349E-3	59.7079E-12	780.704E-3	-26.0168E-3	59.1539E-12	796.506E-3	-34.1516E-3
1.97849E-3	59.2693E-12	790.314E-3	-17.8376E-3	58.9329E-12	800.592E-3	-37.5005E-3
1.97349E-3	58.6079E-12	785.193E-3	-5.06838E-3	58.6146E-12	804.837E-3	-27.0438E-3
1.96848E-3	58.7990E-12	773.600E-3	-18.6723E-3	58.1358E-12	798.837E-3	-14.7806E-3
1.96348E-3	58.8804E-12	781.167E-3	-26.6398E-3	58.0571E-12	785.106E-3	-15.0458E-3
1.95848E-3	58.7124E-12	798.359E-3	-22.3577E-3	57.5911E-12	773.380E-3	-22.1658E-3
1.95348E-3	57.8974E-12	807.641E-3	-26.4352E-3	57.2596E-12	784.178E-3	-14.0468E-3
1.94847E-3	57.8937E-12	805.245E-3	-32.3434E-3	57.0333E-12	814.819E-3	-440.909E-6
1.94347E-3	57.9710E-12	791.067E-3	-31.9880E-3	57.3494E-12	836.219E-3	6.54417E-3
1.93847E-3	57.8082E-12	794.337E-3	-27.3033E-3	57.3628E-12	836.157E-3	5.50413E-3
1.93347E-3	57.1624E-12	816.431E-3	-25.8138E-3	57.3433E-12	828.784E-3	-6.02610E-3
1.92846E-3	56.2746E-12	830.827E-3	-24.9540E-3	56.7741E-12	825.560E-3	-23.8112E-3
1.92346E-3	56.6624E-12	833.430E-3	-17.7015E-3	56.6823E-12	829.751E-3	-24.7691E-3
1.91846E-3	56.9001E-12	821.323E-3	-16.2987E-3	56.9208E-12	836.783E-3	-3.01274E-3
1.91346E-3	56.4504E-12	809.465E-3	-20.7739E-3	56.4828E-12	844.347E-3	7.66854E-3
1.90845E-3	55.4895E-12	819.506E-3	-20.9564E-3	55.8001E-12	852.608E-3	-808.916E-6
1.90345E-3	55.3716E-12	827.842E-3	-13.8448E-3	55.3028E-12	846.376E-3	-12.5405E-3
1.89845E-3	55.6132E-12	825.712E-3	-10.2037E-3	55.2380E-12	831.118E-3	-25.7021E-3
1.89345E-3	55.0417E-12	843.723E-3	-17.2420E-3	54.6870E-12	825.427E-3	-33.4531E-3
1.88844E-3	53.8432E-12	861.847E-3	-28.6532E-3	53.4913E-12	821.441E-3	-33.2625E-3
1.88344E-3	53.3512E-12	856.243E-3	-36.1611E-3	52.7610E-12	823.660E-3	-25.2848E-3
1.87844E-3	53.8544E-12	849.624E-3	-23.8604E-3	52.5164E-12	829.595E-3	-22.4024E-3
1.87344E-3	53.6109E-12	837.028E-3	-16.4598E-3	52.3149E-12	836.143E-3	-33.3521E-3
1.86843E-3	52.9301E-12	815.095E-3	-25.1053E-3	51.8805E-12	853.098E-3	-32.2396E-3
1.86343E-3	52.7327E-12	811.910E-3	-28.1359E-3	51.7795E-12	861.435E-3	-23.2871E-3
1.85843E-3	53.0465E-12	826.674E-3	-26.5501E-3	51.6498E-12	853.904E-3	-29.3148E-3
1.85343E-3	52.7777E-12	835.915E-3	-22.3324E-3	51.7265E-12	863.922E-3	-40.3930E-3
1.84842E-3	52.3287E-12	840.644E-3	-17.3780E-3	51.7197E-12	889.449E-3	-33.5678E-3
1.84342E-3	52.1935E-12	855.372E-3	-15.2104E-3	51.4372E-12	892.984E-3	-15.0629E-3
1.83842E-3	52.4599E-12	858.279E-3	-22.5357E-3	51.5518E-12	881.232E-3	2.86465E-3
1.83342E-3	52.5577E-12	854.110E-3	-35.9539E-3	51.5746E-12	877.517E-3	16.5996E-3
1.82841E-3	51.7354E-12	872.001E-3	-39.2432E-3	51.3979E-12	872.353E-3	18.1341E-3
1.82341E-3	51.0652E-12	885.464E-3	-26.4934E-3	50.9690E-12	854.353E-3	16.8982E-3
1.81841E-3	50.6728E-12	875.304E-3	-17.2944E-3	50.3701E-12	847.739E-3	16.7177E-3
1.81341E-3	50.3754E-12	865.958E-3	-19.1659E-3	50.0461E-12	860.464E-3	6.41353E-3
1.80840E-3	49.5784E-12	867.218E-3	-15.8267E-3	49.5147E-12	867.185E-3	-9.35806E-3
1.80340E-3	48.9513E-12	870.189E-3	-16.2597E-3	48.7867E-12	868.812E-3	-18.6587E-3
1.79840E-3	48.6001E-12	882.740E-3	-25.9980E-3	48.2898E-12	872.089E-3	-20.2950E-3
1.79340E-3	48.3509E-12	902.196E-3	-21.9495E-3	47.9796E-12	871.309E-3	-21.7892E-3
1.78839E-3	48.3244E-12	904.322E-3	-6.71625E-3	47.5222E-12	878.969E-3	-20.5996E-3
1.78339E-3	47.4344E-12	883.321E-3	201.032E-6	47.3008E-12	896.725E-3	-13.2551E-3
1.77839E-3	46.8109E-12	863.064E-3	-1.44011E-3	46.8569E-12	911.951E-3	-10.3284E-3
1.77339E-3	46.8149E-12	864.590E-3	-2.47184E-3	46.6469E-12	924.330E-3	-10.6948E-3
1.76838E-3	47.0815E-12	874.795E-3	-552.255E-6	46.5449E-12	918.532E-3	-9.09909E-3
1.76338E-3	46.9131E-12	881.151E-3	-1.47553E-3	46.4910E-12	910.819E-3	-5.67894E-3
1.75838E-3	46.6022E-12	885.456E-3	-3.39519E-3	46.0993E-12	925.146E-3	-3.68719E-3
1.75338E-3	46.6133E-12	886.796E-3	-2.85149E-3	45.8951E-12	940.655E-3	-8.27123E-3
1.74837E-3	46.9361E-12	906.505E-3	-1.04447E-3	46.1620E-12	948.355E-3	-7.82127E-3
1.74337E-3	46.9905E-12	942.510E-3	-3.92360E-3	46.1521E-12	958.498E-3	-1.92467E-3
1.73837E-3	46.4835E-12	956.231E-3	-17.1116E-3	45.6521E-12	964.960E-3	-4.50581E-3
1.73337E-3	46.0187E-12	952.068E-3	-26.7748E-3	45.1119E-12	953.331E-3	-12.5327E-3
1.72836E-3	45.9351E-12	962.228E-3	-25.3244E-3	45.2805E-12	947.054E-3	-13.8903E-3
1.72336E-3	45.6706E-12	973.836E-3	-24.5484E-3	45.3904E-12	955.202E-3	-11.1528E-3
1.71836E-3	44.9141E-12	962.231E-3	-25.4767E-3	44.5528E-12	951.752E-3	-6.06222E-3
1.71336E-3	44.2980E-12	949.844E-3	-17.9587E-3	43.4964E-12	940.188E-3	3.35802E-3
1.70835E-3	43.9855E-12	943.647E-3	-5.17438E-3	42.9711E-12	938.819E-3	-2.94179E-3
1.70335E-3	43.6169E-12	937.145E-3	-5.88114E-3	42.8155E-12	942.354E-3	-27.4682E-3
1.69835E-3	42.7651E-12	936.358E-3	-5.98438E-3	42.2643E-12	949.366E-3	-33.6593E-3
1.69335E-3	42.2756E-12	946.388E-3	-543.902E-6	41.3815E-12	961.892E-3	-21.4310E-3
1.68834E-3	41.8895E-12	963.303E-3	-3.93294E-3	41.2312E-12	971.515E-3	-21.1174E-3
1.68334E-3	41.8099E-12	972.338E-3	-12.3689E-3	41.3546E-12	976.697E-3	-21.8561E-3
1.67834E-3	41.6527E-12	968.164E-3	-18.4691E-3	41.0490E-12	977.853E-3	-18.0146E-3
1.67334E-3	41.0406E-12	967.982E-3	-9.82158E-3	40.6365E-12	978.186E-3	-13.2546E-3
1.66833E-3	40.6370E-12	978.911E-3	-3.29373E-3	40.2510E-12	986.730E-3	344.229E-6
1.66333E-3	40.3551E-12	975.240E-3	-11.8675E-3	40.1587E-12	1.00839E+0	12.2425E-3
1.65833E-3	40.2538E-12	968.832E-3	-13.2093E-3	40.2135E-12	1.02416E+0	411.595E-6
1.65333E-3	39.9556E-12	977.861E-3	-7.36893E-3	39.6487E-12	1.02136E+0	-13.8828E-3
1.64832E-3	39.5010E-12	992.617E-3	-17.0783E-3	39.4035E-12	1.02292E+0	-10.2780E-3
1.64332E-3	39.1422E-12	1.00938E+0	-40.8423E-3	39.0802E-12	1.02900E+0	-11.5075E-3
1.63832E-3	39.0644E-12	1.01951E+0	-52.8627E-3	39.0343E-12	1.02612E+0	-13.8764E-3
1.63332E-3	39.1219E-12	1.01317E+0	-39.9411E-3	38.6002E-12	1.02633E+0	-11.5228E-3
1.62831E-3	38.5178E-12	1.00523E+0	-24.2575E-3	38.2356E-12	1.03314E+0	-24.2181E-3
1.62331E-3	37.6051E-12	1.01937E+0	-21.4456E-3	37.7846E-12	1.03832E+0	-42.2849E-3
1.61831E-3	37.1174E-12	1.03948E+0	-19.9867E-3	37.3077E-12	1.03849E+0	-32.6349E-3
1.61331E-3	37.1578E-12	1.03514E+0	-17.7258E-3	36.9543E-12	1.03956E+0	-17.3801E-3
1.60830E-3	36.8522E-12	1.02388E+0	-20.0732E-3	36.8436E-12	1.04931E+0	-17.3205E-3
1.60330E-3	36.0773E-12	1.03097E+0	-17.1462E-3	36.4979E-12	1.06415E+0	-12.2532E-3
1.59830E-3	35.4809E-12	1.03965E+0	-7.07090E-3	35.9939E-12	1.07924E+0	-18.5543E-3
1.59330E-3	35.4286E-12	1.04313E+0	-10.4965E-3	35.4644E-12	1.08063E+0	-30.7337E-3
1.58829E-3	35.4792E-12	1.03720E+0	-19.3030E-3	35.6306E-12	1.07227E+0	-18.2800E-3
1.58329E-3	35.0361E-12	1.03268E+0	-12.3365E-3	35.2581E-12	1.07428E+0	-13.5477E-3
1.57829E-3	34.3817E-12	1.04777E+0	-10.8122E-3	34.8250E-12	1.07725E+0	-18.9121E-3
1.57329E-3	34.0700E-12	1.05692E+0	-22.1494E-3	33.9968E-12	1.08077E+0	-5.53500E-3
1.56828E-3	34.6042E-12	1.05950E+0	-26.2266E-3	34.0140E-12	1.08724E+0	2.66763E-3
1.56328E-3	34.0683E-12	1.06626E+0	-24.4997E-3	33.5853E-12	1.08511E+0	-15.1665E-3
1.55828E-3	33.3840E-12	1.08152E+0	-13.6678E-3	33.0080E-12	1.09088E+0	-31.0213E-3
1.55328E-3	32.9980E-12	1.10524E+0	5.44844E-3	32.3580E-12	1.11115E+0	-34.2625E-3
1.54827E-3	33.0232E-12	1.11581E+0	4.37278E-3	32.0114E-12	1.11453E+0	-37.2417E-3
1.54327E-3	32.5760E-12	1.11490E+0	-3.36472E-3	31.7646E-12	1.09702E+0	-14.3724E-3
1.53827E-3	31.8772E-12	1.11232E+0	-2.80485E-3	31.3468E-12	1.10123E+0	12.2914E-3
1.53327E-3	31.5388E-12	1.10693E+0	-7.00272E-3	30.7628E-12	1.11516E+0	236.433E-6
1.52826E-3	31.4628E-12	1.11596E+0	-18.2195E-3	30.5059E-12	1.10557E+0	-17.6986E-3
1.52326E-3	31.1563E-12	1.13744E+0	-26.5044E-3	30.1806E-12	1.10939E+0	-16.4625E-3
1.51826E-3	30.5939E-12	1.14494E+0	-19.7136E-3	29.9410E-12	1.13139E+0	-9.51437E-3
1.51326E-3	29.7911E-12	1.13632E+0	-11.7162E-3	29.5857E-12	1.13748E+0	-4.86671E-3
1.50825E-3	29.4524E-12	1.12118E+0	-13.1875E-3	29.3277E-12	1.14014E+0	-14.0274E-3
1.50325E-3	29.3546E-12	1.11955E+0	-21.3647E-3	29.1364E-12	1.14417E+0	-34.3625E-3
1.49825E-3	29.0924E-12	1.13921E+0	-27.6610E-3	29.0496E-12	1.14190E+0	-31.1497E-3
1.49325E-3	28.4249E-12	1.15476E+0	-17.6200E-3	28.5157E-12	1.15261E+0	-5.41556E-3
1.48824E-3	27.9417E-12	1.14468E+0	-2.30354E-3	28.1695E-12	1.16078E+0	-3.56342E-3
1.48324E-3	27.3230E-12	1.12821E+0	1.94675E-3	27.8267E-12	1.14364E+0	-18.4707E-3
1.47824E-3	27.1450E-12	1.13085E+0	6.31211E-3	27.5239E-12	1.12826E+0	-19.2390E-3
1.47324E-3	26.8699E-12	1.13581E+0	7.16087E-3	27.2179E-12	1.12998E+0	-17.2108E-3
1.46823E-3	26.3092E-12	1.13660E+0	-5.06513E-3	26.4680E-12	1.13931E+0	-10.6655E-3
1.46323E-3	25.7738E-12	1.14478E+0	-19.9758E-3	26.0921E-12	1.15007E+0	393.903E-6
1.45823E-3	25.4567E-12	1.14659E+0	-22.9421E-3	25.5668E-12	1.15125E+0	-8.85361E-3
1.45323E-3	25.1623E-12	1.14183E+0	-16.7975E-3	25.1904E-12	1.15140E+0	-23.8659E-3
1.44822E-3	24.7663E-12	1.13894E+0	-12.0442E-3	24.7678E-12	1.16583E+0	-19.4341E-3
1.44322E-3	24.2010E-12	1.13529E+0	-5.86385E-3	24.1643E-12	1.16882E+0	-17.1562E-3
1.43822E-3	23.9241E-12	1.14243E+0	-12.4553E-3	23.8199E-12	1.15705E+0	-22.9823E-3
1.43322E-3	23.9525E-12	1.15195E+0	-24.1838E-3	23.6128E-12	1.15259E+0	-19.0020E-3
1.42821E-3	23.6377E-12	1.14645E+0	-20.1478E-3	23.4852E-12	1.14846E+0	-12.4064E-3
1.42321E-3	23.3238E-12	1.14207E+0	-16.6283E-3	23.2266E-12	1.13870E+0	-22.2608E-3
1.41821E-3	22.7965E-12	1.14681E+0	-20.4928E-3	22.6726E-12	1.14887E+0	-30.6256E-3
1.41321E-3	22.3890E-12	1.15438E+0	-18.9546E-3	22.3800E-12	1.17036E+0	-24.3497E-3
1.40820E-3	22.0859E-12	1.15332E+0	-9.60796E-3	22.2255E-12	1.15930E+0	-27.0118E-3
1.40320E-3	21.6937E-12	1.14195E+0	1.60542E-3	21.9544E-12	1.14068E+0	-26.6261E-3
1.39820E-3	21.1682E-12	1.13334E+0	1.26487E-3	21.4910E-12	1.14026E+0	-14.1915E-3
1.39320E-3	20.8297E-12	1.12559E+0	-9.35955E-3	21.1770E-12	1.12073E+0	-13.5538E-3
1.38819E-3	20.5397E-12	1.11633E+0	-9.22955E-3	20.7950E-12	1.08912E+0	-22.3337E-3
1.38319E-3	20.3545E-12	1.11536E+0	-5.73015E-3	20.6214E-12	1.08261E+0	-32.9559E-3
1.37819E-3	19.8920E-12	1.11339E+0	-5.12837E-3	19.9932E-12	1.07926E+0	-41.5236E-3
1.37319E-3	19.2123E-12	1.09869E+0	-231.061E-6	19.5128E-12	1.06874E+0	-37.4565E-3
1.36818E-3	18.7983E-12	1.09362E+0	-4.04578E-3	18.8506E-12	1.06502E+0	-26.2431E-3
1.36318E-3	18.6546E-12	1.09799E+0	-22.3747E-3	18.5207E-12	1.05567E+0	-10.7790E-3
1.35818E-3	18.3822E-12	1.09081E+0	-33.9339E-3	18.1360E-12	1.03158E+0	-6.84198E-3
1.35318E-3	17.7612E-12	1.07639E+0	-25.8936E-3	17.5955E-12	1.01916E+0	-21.8581E-3
1.34817E-3	17.3537E-12	1.06495E+0	-13.5148E-3	17.0921E-12	1.02058E+0	-19.2777E-3
1.34317E-3	17.3468E-12	1.06075E+0	-22.4248E-3	16.8151E-12	1.01229E+0	2.95462E-3
1.33817E-3	17.2460E-12	1.05628E+0	-41.0838E-3	16.7001E-12	1.00586E+0	9.89373E-3
1.33317E-3	16.8664E-12	1.05248E+0	-43.2104E-3	16.3580E-12	1.00637E+0	211.923E-6
1.32816E-3	16.3442E-12	1.04837E+0	-29.1628E-3	15.9695E-12	1.00046E+0	-6.67449E-3
1.32316E-3	16.2398E-12	1.03976E+0	-11.0175E-3	15.9277E-12	990.596E-3	-13.8637E-3
1.31816E-3	16.1029E-12	1.03626E+0	-12.5943E-3	15.7411E-12	980.792E-3	-20.7354E-3
1.31316E-3	15.6648E-12	1.03410E+0	-25.9402E-3	15.4022E-12	964.117E-3	-21.0749E-3
1.30815E-3	15.1578E-12	1.02393E+0	-29.9634E-3	14.9064E-12	952.093E-3	-20.5814E-3
1.30315E-3	14.8992E-12	1.00741E+0	-19.2283E-3	14.7711E-12	953.217E-3	-22.1634E-3
1.29815E-3	14.6817E-12	988.230E-3	-6.02463E-3	14.5679E-12	936.984E-3	-25.0068E-3
1.29315E-3	14.4147E-12	974.755E-3	-4.77781E-3	14.2143E-12	912.403E-3	-26.0777E-3
1.28814E-3	13.9719E-12	968.118E-3	-7.51024E-3	13.7825E-12	902.456E-3	-21.7069E-3
1.28314E-3	13.5461E-12	961.392E-3	-13.4170E-3	13.3694E-12	878.378E-3	-20.6313E-3
1.27814E-3	13.1754E-12	950.990E-3	-22.2684E-3	13.1411E-12	851.791E-3	-33.5405E-3
1.27314E-3	12.7867E-12	929.155E-3	-22.2598E-3	12.7617E-12	846.503E-3	-48.0069E-3
1.26813E-3	12.4713E-12	905.695E-3	-15.7802E-3	12.4701E-12	832.644E-3	-35.4613E-3
1.26313E-3	12.1161E-12	884.741E-3	-15.1513E-3	12.1124E-12	809.688E-3	-11.7795E-3
1.25813E-3	11.7701E-12	857.375E-3	-21.0669E-3	11.8012E-12	802.477E-3	-11.6441E-3
1.25313E-3	11.4557E-12	833.156E-3	-24.5376E-3	11.4800E-12	794.503E-3	-23.3377E-3
1.24812E-3	11.4250E-12	820.207E-3	-21.2014E-3	11.3520E-12	777.435E-3	-25.1584E-3
1.24312E-3	11.3248E-12	809.525E-3	-17.7015E-3	11.1537E-12	754.699E-3	-22.4903E-3
1.23812E-3	10.8162E-12	797.468E-3	-20.1104E-3	10.8987E-12	725.706E-3	-29.8801E-3
1.23312E-3	10.4740E-12	780.519E-3	-24.9866E-3	10.4748E-12	706.973E-3	-35.1092E-3
1.22811E-3	10.5113E-12	762.137E-3	-20.6491E-3	10.3077E-12	695.183E-3	-33.5797E-3
1.22311E-3	10.4481E-12	751.866E-3	-15.4897E-3	10.3176E-12	693.201E-3	-34.8278E-3
1.21811E-3	9.86774E-12	741.143E-3	-26.4647E-3	9.95295E-12	695.036E-3	-29.8001E-3
1.21311E-3	9.50670E-12	731.530E-3	-34.3642E-3	9.59415E-12	679.994E-3	-25.9227E-3
1.20810E-3	9.44611E-12	711.216E-3	-16.8550E-3	9.37170E-12	652.464E-3	-26.5776E-3
1.20310E-3	9.45276E-12	679.992E-3	-2.44176E-3	9.27504E-12	626.555E-3	-23.2508E-3
1.19810E-3	8.94295E-12	663.996E-3	-14.7475E-3	9.07004E-12	610.981E-3	-19.9248E-3
1.19310E-3	8.53176E-12	659.683E-3	-25.5856E-3	8.70432E-12	591.967E-3	-15.9849E-3
1.18809E-3	8.42654E-12	653.293E-3	-20.3369E-3	8.50458E-12	572.228E-3	-18.1033E-3
1.18309E-3	8.44569E-12	633.209E-3	-10.4092E-3	8.34705E-12	567.488E-3	-26.6141E-3
1.17809E-3	8.05817E-12	608.137E-3	-5.06261E-3	8.23724E-12	556.264E-3	-30.9306E-3
1.17309E-3	7.64712E-12	597.658E-3	-7.90045E-3	7.90729E-12	525.677E-3	-24.7046E-3
1.16808E-3	7.52929E-12	586.755E-3	-9.11824E-3	7.72975E-12	502.131E-3	-7.70591E-3
1.16308E-3	7.50430E-12	561.487E-3	-10.9872E-3	7.59623E-12	490.265E-3	2.81761E-3
1.15808E-3	7.25321E-12	534.211E-3	-17.5919E-3	7.48554E-12	468.019E-3	-2.74118E-3
1.15308E-3	7.09384E-12	525.146E-3	-18.2705E-3	7.22384E-12	447.765E-3	-19.6992E-3
1.14807E-3	6.99089E-12	523.669E-3	-18.0356E-3	7.05239E-12	437.140E-3	-35.2872E-3
1.14307E-3	6.88892E-12	500.049E-3	-20.2422E-3	7.00229E-12	419.769E-3	-25.0877E-3
1.13807E-3	6.78300E-12	469.381E-3	-16.6269E-3	6.77177E-12	398.163E-3	-9.13462E-3
1.13307E-3	6.69965E-12	449.362E-3	-24.3303E-3	6.70911E-12	374.674E-3	-15.9259E-3
1.12806E-3	6.60356E-12	439.410E-3	-32.3667E-3	6.45731E-12	351.512E-3	-26.0257E-3
1.12306E-3	6.41984E-12	435.148E-3	-18.0266E-3	6.30717E-12	345.734E-3	-25.1756E-3
1.11806E-3	6.33787E-12	429.320E-3	-13.1022E-3	6.08979E-12	354.219E-3	-14.5370E-3
1.11306E-3	6.26430E-12	424.157E-3	-29.6254E-3	5.96284E-12	348.999E-3	-6.87404E-3
1.10805E-3	6.28277E-12	407.897E-3	-35.7457E-3	5.85946E-12	325.620E-3	-12.9148E-3
1.10305E-3	5.97732E-12	380.217E-3	-29.6479E-3	5.67646E-12	304.859E-3	-23.2895E-3
1.09805E-3	5.71419E-12	360.990E-3	-20.9163E-3	5.52531E-12	296.767E-3	-30.2891E-3
1.09305E-3	5.78127E-12	363.934E-3	-17.2810E-3	5.40278E-12	293.639E-3	-28.4026E-3
1.08804E-3	5.66130E-12	362.492E-3	-20.5552E-3	5.42904E-12	286.842E-3	-20.2589E-3
1.08304E-3	5.43513E-12	337.681E-3	-11.6300E-3	5.26902E-12	270.520E-3	-18.7221E-3
1.07804E-3	5.20440E-12	311.738E-3	-5.65358E-3	5.07926E-12	253.338E-3	-12.9888E-3
1.07304E-3	5.21419E-12	295.853E-3	-8.45155E-3	5.03904E-12	252.284E-3	-2.64307E-3
1.06803E-3	5.18586E-12	285.503E-3	-4.83145E-3	5.07213E-12	253.275E-3	-6.64573E-3
1.06303E-3	4.95051E-12	278.350E-3	-1.66182E-3	4.97634E-12	239.915E-3	-10.6022E-3
1.05803E-3	4.66602E-12	270.079E-3	-8.27999E-3	4.84229E-12	226.648E-3	-12.5530E-3
1.05303E-3	4.73987E-12	254.147E-3	-15.4471E-3	4.74995E-12	218.008E-3	-24.8733E-3
1.04802E-3	4.72238E-12	238.358E-3	-16.6162E-3	4.67042E-12	203.672E-3	-32.0027E-3
1.04302E-3	4.68915E-12	224.287E-3	-19.2783E-3	4.69167E-12	193.778E-3	-24.8135E-3
1.03802E-3	4.50729E-12	220.746E-3	-26.3518E-3	4.47851E-12	182.113E-3	-25.6149E-3
1.03302E-3	4.40198E-12	228.069E-3	-30.8980E-3	4.34087E-12	167.415E-3	-33.2793E-3
1.02801E-3	4.34808E-12	219.996E-3	-18.7465E-3	4.27561E-12	160.185E-3	-25.8667E-3
1.02301E-3	4.10653E-12	208.451E-3	-8.96219E-3	4.08914E-12	149.289E-3	-24.0236E-3
1.01801E-3	4.09072E-12	200.115E-3	-19.7765E-3	3.95928E-12	140.343E-3	-31.9073E-3
1.01301E-3	4.06691E-12	174.103E-3	-28.2461E-3	3.99659E-12	146.332E-3	-27.5213E-3
1.00800E-3	4.00391E-12	154.429E-3	-27.6140E-3	3.89648E-12	150.998E-3	-17.8920E-3
1.00300E-3	3.86826E-12	157.968E-3	-27.1131E-3	3.73811E-12	144.009E-3	-9.83712E-3
997.999E-6	3.96389E-12	158.969E-3	-23.0337E-3	3.72062E-12	137.726E-3	-5.40308E-3
992.997E-6	3.92582E-12	150.630E-3	-21.1736E-3	3.79341E-12	133.030E-3	-8.42845E-3
987.994E-6	3.75772E-12	144.042E-3	-20.5074E-3	3.67880E-12	120.980E-3	-9.71238E-3
982.991E-6	3.63223E-12	137.869E-3	-10.8424E-3	3.54455E-12	116.929E-3	-9.51212E-3
977.989E-6	3.74323E-12	128.370E-3	-11.0571E-3	3.55315E-12	116.325E-3	-11.6168E-3
972.986E-6	3.85399E-12	126.208E-3	-18.7788E-3	3.73830E-12	101.658E-3	-10.8332E-3
967.984E-6	3.58067E-12	121.225E-3	-16.7527E-3	3.57491E-12	98.9744E-3	-10.1662E-3
962.981E-6	3.41423E-12	110.030E-3	-14.2132E-3	3.42124E-12	107.405E-3	-13.5938E-3
957.979E-6	3.54919E-12	106.810E-3	-19.0745E-3	3.37879E-12	104.352E-3	-10.3340E-3
952.976E-6	3.58512E-12	101.261E-3	-29.3813E-3	3.47863E-12	93.5614E-3	-659.615E-6
947.974E-6	3.41049E-12	89.5840E-3	-26.7425E-3	3.41106E-12	88.2220E-3	-2.97941E-3
942.971E-6	3.25039E-12	82.6572E-3	-18.2350E-3	3.25081E-12	84.6669E-3	-11.2828E-3
937.969E-6	3.34332E-12	85.8604E-3	-25.1331E-3	3.23381E-12	81.7849E-3	-8.35801E-3
932.966E-6	3.35970E-12	88.5730E-3	-33.2597E-3	3.32109E-12	88.0087E-3	-2.48306E-3
927.964E-6	3.22260E-12	83.0553E-3	-28.7744E-3	3.33058E-12	80.3424E-3	-8.79483E-3
922.961E-6	3.09106E-12	79.5515E-3	-18.0685E-3	3.14435E-12	67.8811E-3	-15.3620E-3
917.959E-6	3.18673E-12	75.7942E-3	-13.1446E-3	3.06679E-12	72.5458E-3	-14.8939E-3
912.956E-6	3.17416E-12	68.2703E-3	-21.1532E-3	3.17940E-12	74.1673E-3	-22.0053E-3
907.954E-6	3.14241E-12	73.6206E-3	-29.5197E-3	3.17583E-12	74.5717E-3	-26.9458E-3
902.951E-6	3.12154E-12	81.8094E-3	-24.4400E-3	3.06188E-12	71.2966E-3	-20.7789E-3
897.949E-6	3.02164E-12	71.1777E-3	-5.99359E-3	3.10624E-12	59.1083E-3	-18.1494E-3
892.946E-6	3.02940E-12	62.8186E-3	7.70449E-3	3.18127E-12	58.5556E-3	-14.2839E-3
887.944E-6	3.00937E-12	70.0375E-3	3.28977E-3	3.10899E-12	66.3935E-3	-9.67239E-3
882.941E-6	3.05287E-12	75.6185E-3	-8.69369E-3	3.08546E-12	69.4173E-3	-14.6256E-3
877.939E-6	2.98062E-12	78.9022E-3	-18.0489E-3	3.01386E-12	68.8343E-3	-17.3983E-3
872.936E-6	2.84368E-12	85.9255E-3	-14.4621E-3	3.00055E-12	67.5039E-3	-12.8052E-3
867.934E-6	2.76730E-12	84.3750E-3	-10.5641E-3	2.97782E-12	71.2761E-3	-17.7505E-3
862.931E-6	2.90631E-12	73.4215E-3	-10.3904E-3	2.95678E-12	63.1596E-3	-24.4952E-3
857.929E-6	2.98141E-12	67.4025E-3	-3.28013E-3	2.96477E-12	44.7585E-3	-17.2663E-3
852.926E-6	2.71535E-12	68.8448E-3	-2.81325E-3	2.87924E-12	44.7418E-3	-20.9271E-3
847.924E-6	2.64760E-12	72.2637E-3	-9.32471E-3	2.75066E-12	53.4322E-3	-35.7364E-3
842.921E-6	2.75968E-12	76.3447E-3	-17.2783E-3	2.81586E-12	64.7979E-3	-30.0443E-3
837.919E-6	2.82359E-12	76.4165E-3	-29.6283E-3	2.81251E-12	77.2927E-3	-19.8093E-3
832.916E-6	2.67853E-12	76.0070E-3	-28.7515E-3	2.73678E-12	69.9954E-3	-21.9350E-3
827.914E-6	2.58719E-12	76.0631E-3	-18.1525E-3	2.60931E-12	62.1082E-3	-22.5652E-3
822.911E-6	2.65031E-12	68.4280E-3	-21.5426E-3	2.66824E-12	70.9640E-3	-27.0201E-3
817.909E-6	2.70971E-12	57.2531E-3	-29.1656E-3	2.83072E-12	61.6703E-3	-34.6547E-3
812.906E-6	2.60734E-12	49.2630E-3	-23.9860E-3	2.63809E-12	42.9803E-3	-30.5496E-3
807.904E-6	2.51855E-12	56.8026E-3	-17.4752E-3	2.46360E-12	51.0395E-3	-13.2714E-3
802.901E-6	2.65191E-12	68.1788E-3	-11.0880E-3	2.54443E-12	64.4050E-3	-549.848E-6
797.899E-6	2.67071E-12	69.0945E-3	-3.42834E-3	2.60490E-12	74.6397E-3	-1.69315E-3
792.896E-6	2.52285E-12	75.3148E-3	-2.79837E-3	2.60760E-12	84.3123E-3	-10.0261E-3
787.894E-6	2.50453E-12	85.6085E-3	-6.73098E-3	2.46334E-12	75.4435E-3	-22.7499E-3
782.891E-6	2.53896E-12	83.4455E-3	-17.4548E-3	2.49564E-12	61.5665E-3	-23.5807E-3
777.889E-6	2.54790E-12	70.5089E-3	-27.7452E-3	2.57365E-12	62.3044E-3	-16.0086E-3
772.886E-6	2.44254E-12	68.2067E-3	-21.7238E-3	2.50386E-12	66.8459E-3	-14.4939E-3
767.884E-6	2.42165E-12	74.2893E-3	-8.46718E-3	2.36957E-12	62.3338E-3	-9.94226E-3
762.881E-6	2.44264E-12	77.6708E-3	-2.04081E-3	2.36606E-12	64.2428E-3	-10.7666E-3
757.879E-6	2.36183E-12	78.1077E-3	3.47832E-3	2.44093E-12	76.0873E-3	-20.2315E-3
752.876E-6	2.25948E-12	63.5067E-3	5.19935E-3	2.32390E-12	78.5802E-3	-24.3091E-3
747.874E-6	2.33014E-12	48.3688E-3	-2.63451E-3	2.27614E-12	82.0807E-3	-30.0393E-3
742.871E-6	2.34494E-12	45.2999E-3	-12.6859E-3	2.31812E-12	87.9089E-3	-42.2382E-3
737.869E-6	2.16498E-12	47.8518E-3	-16.1790E-3	2.34376E-12	84.6763E-3	-40.7523E-3
732.866E-6	2.16537E-12	63.2665E-3	-9.36574E-3	2.25430E-12	88.5767E-3	-22.2896E-3
727.864E-6	2.24682E-12	81.9860E-3	-388.646E-6	2.16795E-12	93.2407E-3	-7.33529E-3
722.861E-6	2.29194E-12	92.7184E-3	-3.93975E-3	2.22478E-12	81.9847E-3	-6.37948E-3
717.859E-6	2.04967E-12	99.0034E-3	-15.8879E-3	2.16228E-12	81.0363E-3	-19.6332E-3
712.856E-6	2.02650E-12	94.7713E-3	-13.4309E-3	2.10766E-12	95.1714E-3	-30.2343E-3
707.854E-6	2.11633E-12	80.5320E-3	-4.25636E-3	2.06021E-12	91.4829E-3	-21.0585E-3
702.851E-6	2.17035E-12	72.2526E-3	-11.6517E-3	2.13232E-12	75.0157E-3	-5.48780E-3
697.849E-6	2.05741E-12	72.1481E-3	-16.6629E-3	2.10372E-12	68.0502E-3	-8.08252E-3
692.846E-6	1.92688E-12	71.7275E-3	-4.73186E-3	1.99362E-12	68.4840E-3	-21.5675E-3
687.844E-6	2.01967E-12	68.9733E-3	3.75938E-3	1.93109E-12	75.5242E-3	-22.3015E-3
682.841E-6	2.09097E-12	68.8722E-3	-2.55421E-3	2.03848E-12	81.8553E-3	-12.4920E-3
677.839E-6	1.97416E-12	76.0658E-3	-14.6088E-3	1.97965E-12	79.8005E-3	-10.5460E-3
672.836E-6	1.81404E-12	85.2048E-3	-22.6492E-3	1.85391E-12	76.9165E-3	-11.4102E-3
667.834E-6	1.85937E-12	85.5787E-3	-24.1013E-3	1.83711E-12	73.8745E-3	-18.4617E-3
662.831E-6	1.90738E-12	76.9527E-3	-15.5645E-3	1.80174E-12	72.5154E-3	-28.6218E-3
657.829E-6	1.82196E-12	76.7654E-3	-10.3109E-3	1.83945E-12	77.7857E-3	-19.4602E-3
652.826E-6	1.69948E-12	84.0013E-3	-18.5374E-3	1.73010E-12	83.5429E-3	-13.2455E-3
647.824E-6	1.74244E-12	80.8307E-3	-19.9396E-3	1.74326E-12	83.2811E-3	-15.9600E-3
642.821E-6	1.68429E-12	71.7146E-3	-2.80690E-3	1.78946E-12	72.9082E-3	-13.0094E-3
637.819E-6	1.64522E-12	70.6047E-3	5.09417E-3	1.65667E-12	68.7478E-3	-16.1933E-3
632.816E-6	1.62216E-12	71.5408E-3	-12.1050E-3	1.62050E-12	74.5853E-3	-15.8883E-3
627.814E-6	1.67416E-12	79.0377E-3	-28.3184E-3	1.61800E-12	77.5106E-3	-9.63551E-3
622.811E-6	1.52074E-12	93.0691E-3	-28.0497E-3	1.60602E-12	82.9564E-3	-15.8250E-3
617.809E-6	1.44099E-12	94.6129E-3	-18.2161E-3	1.52317E-12	83.3759E-3	-26.4423E-3
612.806E-6	1.48387E-12	88.9894E-3	-4.45946E-3	1.47022E-12	85.5792E-3	-23.8915E-3
607.804E-6	1.55994E-12	83.1207E-3	2.90305E-3	1.59112E-12	100.942E-3	-11.2034E-3
602.801E-6	1.43331E-12	87.2637E-3	1.54292E-3	1.52400E-12	96.4849E-3	-6.03123E-3
597.799E-6	1.34513E-12	97.3304E-3	4.53581E-3	1.35653E-12	64.3985E-3	-2.23743E-3
592.796E-6	1.42864E-12	94.0427E-3	2.76350E-3	1.36582E-12	56.7085E-3	-3.16582E-3
587.794E-6	1.48489E-12	84.5260E-3	-8.15642E-3	1.41945E-12	84.1414E-3	-19.3485E-3
582.791E-6	1.32543E-12	80.0962E-3	-13.2376E-3	1.40081E-12	99.2824E-3	-25.9218E-3
577.789E-6	1.21839E-12	78.7702E-3	-17.8823E-3	1.25413E-12	101.827E-3	-18.6252E-3
572.786E-6	1.27313E-12	78.2988E-3	-16.5479E-3	1.22338E-12	106.118E-3	-16.4132E-3
567.784E-6	1.37568E-12	88.9504E-3	-6.16989E-3	1.35219E-12	90.6844E-3	-14.8628E-3
562.781E-6	1.23721E-12	103.555E-3	-9.89284E-3	1.29260E-12	79.3573E-3	-8.96683E-3
557.779E-6	1.04543E-12	100.637E-3	-22.2083E-3	1.13868E-12	88.6410E-3	-13.7263E-3
552.776E-6	1.16852E-12	85.2097E-3	-25.2113E-3	1.11658E-12	89.8652E-3	-28.4771E-3
547.774E-6	1.21828E-12	75.7202E-3	-24.5236E-3	1.17721E-12	80.8518E-3	-28.3339E-3
542.771E-6	1.07711E-12	82.5870E-3	-19.5681E-3	1.16189E-12	70.3458E-3	-25.2316E-3
537.769E-6	1.04243E-12	95.0495E-3	-11.4720E-3	1.02752E-12	67.8406E-3	-31.8029E-3
532.766E-6	1.04679E-12	91.8474E-3	-10.2239E-3	993.136E-15	80.4130E-3	-18.2926E-3
527.764E-6	1.06233E-12	82.9678E-3	-9.12650E-3	1.08676E-12	91.1061E-3	-1.09520E-3
522.761E-6	1.00496E-12	87.6985E-3	-6.22289E-3	966.769E-15	81.7693E-3	-3.11762E-3
517.759E-6	958.250E-15	99.2741E-3	-11.9536E-3	913.145E-15	72.8713E-3	-7.25732E-3
512.756E-6	939.887E-15	99.1062E-3	-14.4837E-3	945.450E-15	83.6372E-3	-17.6864E-3
507.754E-6	875.007E-15	90.9308E-3	-13.5743E-3	966.830E-15	91.5628E-3	-25.1871E-3
502.751E-6	848.256E-15	79.2137E-3	-22.3699E-3	822.926E-15	84.3481E-3	-12.4556E-3
497.749E-6	887.092E-15	62.7577E-3	-28.9154E-3	794.205E-15	78.6962E-3	-6.33611E-3
492.746E-6	897.991E-15	63.7485E-3	-25.8642E-3	864.081E-15	76.6601E-3	-13.4869E-3
487.744E-6	753.172E-15	73.9597E-3	-22.0242E-3	868.293E-15	75.9941E-3	-13.0037E-3
482.741E-6	672.579E-15	73.2686E-3	-22.0571E-3	704.213E-15	72.0800E-3	-11.2695E-3
477.739E-6	772.877E-15	68.1960E-3	-25.5227E-3	730.624E-15	67.1451E-3	-8.71240E-3
472.736E-6	837.418E-15	58.0225E-3	-21.9065E-3	841.585E-15	68.1369E-3	2.33617E-3
467.734E-6	669.222E-15	54.5689E-3	-15.8613E-3	736.910E-15	67.9393E-3	9.15169E-3
462.731E-6	588.394E-15	57.9082E-3	-18.9820E-3	645.575E-15	66.1928E-3	4.10177E-3
457.729E-6	684.446E-15	55.7987E-3	-23.0572E-3	633.682E-15	66.1794E-3	8.21178E-3
452.726E-6	731.478E-15	55.7343E-3	-22.1926E-3	709.950E-15	68.0262E-3	12.3013E-3
447.724E-6	633.246E-15	58.9696E-3	-11.8536E-3	689.739E-15	68.3464E-3	-12.1889E-3
442.721E-6	502.056E-15	62.6300E-3	-5.81319E-3	520.070E-15	75.0075E-3	-33.2888E-3
437.719E-6	581.140E-15	60.2956E-3	-9.16428E-3	516.765E-15	85.5897E-3	-20.3047E-3
432.716E-6	680.427E-15	49.4405E-3	-8.31565E-3	629.916E-15	78.7903E-3	-5.82554E-3
427.714E-6	508.691E-15	47.0534E-3	-11.9684E-3	582.910E-15	57.6987E-3	-8.42084E-3
422.711E-6	401.906E-15	61.5338E-3	-24.4114E-3	442.677E-15	43.2599E-3	-7.76433E-3
417.709E-6	490.581E-15	75.8353E-3	-29.9706E-3	423.364E-15	43.5651E-3	-9.02520E-3
412.706E-6	480.074E-15	75.2377E-3	-20.7045E-3	527.490E-15	45.1418E-3	-18.8057E-3
407.704E-6	409.308E-15	67.8148E-3	-13.2764E-3	444.796E-15	50.2347E-3	-22.0383E-3
402.701E-6	374.117E-15	62.7756E-3	-15.9475E-3	322.072E-15	56.0384E-3	-32.9825E-3
397.699E-6	413.799E-15	63.7819E-3	-14.5585E-3	386.159E-15	50.4875E-3	-50.4749E-3
392.696E-6	380.631E-15	65.0772E-3	-3.48576E-3	428.107E-15	49.2456E-3	-39.8989E-3
387.694E-6	311.190E-15	50.8062E-3	5.90403E-3	308.653E-15	52.3456E-3	-23.9174E-3
382.691E-6	368.703E-15	34.6688E-3	-198.469E-6	300.892E-15	45.7266E-3	-21.1070E-3
377.689E-6	345.300E-15	35.5775E-3	-16.2550E-3	333.860E-15	44.0536E-3	-14.2565E-3
372.686E-6	297.754E-15	46.1724E-3	-16.9838E-3	329.265E-15	51.1082E-3	-17.7332E-3
367.684E-6	210.656E-15	54.7962E-3	-11.0130E-3	291.275E-15	54.8197E-3	-27.5317E-3
362.681E-6	295.312E-15	55.4234E-3	-24.0883E-3	239.186E-15	52.6030E-3	-23.7666E-3
357.679E-6	346.172E-15	55.1974E-3	-31.0818E-3	281.911E-15	48.6823E-3	-18.9205E-3
352.676E-6	210.665E-15	54.5998E-3	-15.6853E-3	287.064E-15	44.0935E-3	-14.6901E-3
347.674E-6	136.908E-15	49.9155E-3	-1.03854E-3	160.267E-15	35.7847E-3	-8.45313E-3
342.671E-6	252.901E-15	47.8714E-3	429.365E-6	164.627E-15	30.3379E-3	-14.0759E-3
337.669E-6	297.701E-15	41.3599E-3	-1.16119E-3	235.254E-15	33.3609E-3	-23.2319E-3
332.666E-6	159.971E-15	30.9518E-3	3.96156E-3	242.508E-15	44.8740E-3	-16.7438E-3
327.664E-6	71.8450E-15	33.0783E-3	1.59359E-3	96.4509E-15	48.2907E-3	-10.1448E-3
322.661E-6	131.694E-15	37.5995E-3	-4.57475E-3	128.407E-15	24.6631E-3	-19.4700E-3
317.659E-6	232.158E-15	32.0197E-3	-4.49629E-3	168.847E-15	7.05797E-3	-21.2028E-3
312.656E-6	152.786E-15	28.5265E-3	-10.9455E-3	172.379E-15	25.7095E-3	-10.7604E-3
307.654E-6	20.7150E-15	30.8303E-3	-21.5015E-3	64.4074E-15	34.2382E-3	-14.4126E-3
302.651E-6	110.942E-15	31.4240E-3	-29.3263E-3	73.9899E-15	19.2459E-3	-23.4085E-3
297.649E-6	132.348E-15	34.9142E-3	-35.2642E-3	154.173E-15	15.3130E-3	-15.1953E-3
292.646E-6	59.4723E-15	44.0224E-3	-27.8707E-3	137.065E-15	16.6906E-3	-14.7349E-3
287.644E-6	58.2080E-15	41.9686E-3	-18.6946E-3	-17.3361E-15	18.2386E-3	-26.4970E-3
282.641E-6	63.0472E-15	28.4807E-3	-25.7594E-3	57.3971E-15	38.6615E-3	-29.0281E-3
277.639E-6	107.080E-15	28.8440E-3	-25.6071E-3	127.457E-15	56.5383E-3	-30.8364E-3
272.636E-6	14.6289E-15	34.4510E-3	-13.3780E-3	54.6680E-15	33.6003E-3	-27.0081E-3
267.634E-6	9.61529E-15	26.3853E-3	-7.96051E-3	-43.3807E-15	9.47825E-3	-21.7286E-3
262.631E-6	100.087E-15	24.2168E-3	-1.94473E-3	26.0861E-15	15.1906E-3	-36.1678E-3
257.629E-6	-16.5862E-15	23.5072E-3	-1.67850E-3	42.3301E-15	18.2936E-3	-40.3490E-3
252.626E-6	-53.7043E-15	16.1492E-3	-10.6652E-3	28.9460E-15	13.9240E-3	-10.1978E-3
247.624E-6	43.6032E-15	20.3255E-3	-6.03324E-3	-26.2995E-15	10.8959E-3	5.93991E-3
242.621E-6	76.2046E-15	21.2114E-3	2.52934E-3	19.2065E-15	-6.72729E-3	-5.45302E-3
237.619E-6	-2.95795E-15	13.4532E-3	2.64990E-3	42.5307E-15	-19.6886E-3	-12.2041E-3
232.616E-6	-102.559E-15	18.7189E-3	-1.06498E-3	-76.2263E-15	2.33493E-3	-18.2162E-3
227.614E-6	41.2489E-15	26.3612E-3	-11.7606E-3	-85.8698E-15	19.3644E-3	-20.4158E-3
222.611E-6	69.3861E-15	23.6151E-3	-15.5319E-3	31.6403E-15	7.53847E-3	-11.4334E-3
217.609E-6	-111.025E-15	24.2062E-3	-14.1511E-3	17.7068E-15	77.5928E-6	-5.64683E-3
212.606E-6	-131.646E-15	26.3220E-3	-13.2871E-3	-103.867E-15	-2.72679E-3	-8.64981E-3
207.604E-6	-34.9142E-15	19.3899E-3	-13.7200E-3	-72.8258E-15	-10.1321E-3	-11.3188E-3
202.601E-6	55.9410E-15	17.1138E-3	-18.6301E-3	-15.8800E-15	-3.13179E-3	-17.4192E-3
197.599E-6	-62.0400E-15	23.4846E-3	-12.2955E-3	-1.11818E-15	2.92062E-3	-28.6972E-3
192.596E-6	-163.358E-15	18.6038E-3	-2.67882E-3	-129.266E-15	-1.23461E-3	-32.2954E-3
187.594E-6	-75.5898E-15	4.24269E-3	-10.4749E-3	-88.9826E-15	1.31008E-3	-30.5696E-3
182.591E-6	38.7639E-15	2.22980E-3	-21.7467E-3	-27.1192E-15	1.86910E-3	-31.4386E-3
177.589E-6	-102.367E-15	6.08730E-3	-17.9404E-3	-61.1768E-15	2.15465E-3	-29.4414E-3
172.586E-6	-114.661E-15	14.5638E-3	-11.4799E-3	-122.125E-15	912.022E-6	-22.9369E-3
167.584E-6	-71.3958E-15	22.5594E-3	-7.57294E-3	-148.998E-15	-9.49768E-3	-22.1642E-3
162.581E-6	-31.7840E-15	17.3553E-3	-11.5651E-3	-12.2527E-15	-11.0463E-3	-17.5528E-3
157.579E-6	-79.4960E-15	9.96177E-3	-26.4166E-3	-64.0105E-15	3.60985E-3	-7.94014E-3
152.576E-6	-128.446E-15	2.51096E-3	-21.0163E-3	-216.119E-15	7.76206E-3	-2.29270E-3
147.574E-6	-76.6448E-15	986.014E-6	-4.31434E-3	-128.158E-15	264.631E-6	8.80043E-3
142.571E-6	-86.6459E-15	9.82652E-3	-11.1334E-3	-66.2427E-15	6.95059E-3	5.93314E-3
137.569E-6	-102.149E-15	15.2008E-3	-30.4387E-3	-109.900E-15	16.7101E-3	-25.9851E-3
132.566E-6	-68.3964E-15	9.29805E-3	-37.6940E-3	-173.665E-15	9.27679E-3	-36.2103E-3
127.564E-6	-67.6203E-15	-1.08984E-3	-31.7662E-3	-80.3505E-15	1.42786E-3	-11.3645E-3
122.561E-6	-127.897E-15	-5.94141E-3	-21.8314E-3	-61.7522E-15	1.60007E-3	-6.34346E-3
117.559E-6	-195.489E-15	-3.07642E-3	-14.4676E-3	-157.255E-15	-1.31270E-3	-19.3133E-3
112.556E-6	-89.1570E-15	-3.32544E-3	-13.7637E-3	-183.875E-15	-1.53884E-3	-19.7121E-3
107.554E-6	-12.8282E-15	-7.28594E-3	-16.1558E-3	-72.1980E-15	-1.21508E-3	-24.3507E-3
102.551E-6	-147.969E-15	1.36117E-3	-14.6780E-3	-100.762E-15	-1.41314E-3	-26.9313E-3
97.5488E-6	-219.519E-15	6.32920E-3	-7.19863E-3	-178.757E-15	4.49670E-3	-16.9322E-3
92.5463E-6	-109.517E-15	442.984E-6	-4.88174E-3	-179.123E-15	10.9623E-3	-14.9542E-3
87.5438E-6	-34.9229E-15	572.981E-6	-7.54427E-3	-91.8339E-15	7.35721E-3	-19.6022E-3
82.5413E-6	-146.408E-15	2.16148E-3	-6.37129E-3	-94.8943E-15	1.50177E-3	-15.1068E-3
77.5388E-6	-205.612E-15	4.21550E-3	-3.91873E-3	-245.381E-15	-4.69160E-3	-7.48476E-3
72.5363E-6	-132.396E-15	3.94870E-3	-2.91034E-3	-210.382E-15	-19.7613E-3	-1.97443E-3
67.5338E-6	-2.94923E-15	3.22166E-3	-8.39311E-3	-83.4459E-15	-20.6234E-3	3.62980E-3
62.5313E-6	-150.262E-15	5.03349E-3	-14.8653E-3	-124.845E-15	-4.56518E-3	264.256E-6
57.5288E-6	-263.412E-15	7.76685E-3	-14.5235E-3	-234.953E-15	-4.95457E-3	-11.4707E-3
52.5263E-6	-131.594E-15	13.3626E-3	-8.41725E-3	-213.477E-15	-15.1475E-3	-12.7134E-3
47.5238E-6	-106.779E-15	15.6013E-3	-4.85832E-3	-134.018E-15	-15.9179E-3	-7.71697E-3
42.5213E-6	-158.371E-15	10.8276E-3	-18.0338E-3	-99.4022E-15	-17.3716E-3	-13.7212E-3
37.5188E-6	-202.717E-15	938.747E-6	-30.7655E-3	-229.355E-15	-11.9342E-3	-16.5900E-3
32.5163E-6	-160.908E-15	-5.24345E-3	-29.0186E-3	-217.418E-15	-1.95661E-3	-10.1896E-3
27.5138E-6	-161.091E-15	1.75300E-3	-27.8662E-3	-74.6917E-15	-12.7689E-3	-11.8659E-3
22.5113E-6	-169.889E-15	6.43995E-3	-23.3709E-3	-159.897E-15	-32.8660E-3	-11.4389E-3
17.5088E-6	-133.966E-15	2.16596E-3	-13.2211E-3	-234.316E-15	-40.5379E-3	-1.90054E-3
12.5063E-6	-127.967E-15	-4.26794E-3	-3.26597E-3	-159.670E-15	-39.4103E-3	1.19274E-3
7.50375E-6	-217.540E-15	-10.2811E-3	457.703E-6	-142.214E-15	-28.6201E-3	6.56111E-3
2.50125E-6	-213.564E-15	-14.5458E-3	-7.63105E-3	-203.912E-15	-9.57934E-3	8.04789E-3
-2.50125E-6	-146.452E-15	-10.5861E-3	-20.3655E-3	-221.098E-15	-2.74939E-3	-7.32830E-3
-7.50375E-6	-116.222E-15	-4.38910E-3	-31.9342E-3	-129.937E-15	-11.9393E-3	-17.0882E-3
-12.5063E-6	-210.992E-15	-8.00433E-3	-34.6125E-3	-82.0944E-15	-10.3013E-3	-12.3187E-3
-17.5088E-6	-295.334E-15	-12.9076E-3	-25.3835E-3	-223.966E-15	6.85074E-3	-13.2730E-3
-22.5113E-6	-165.399E-15	-10.5879E-3	-12.3377E-3	-248.712E-15	10.3294E-3	-17.2146E-3
-27.5138E-6	-92.3570E-15	-31.1361E-6	-6.38716E-3	-170.996E-15	3.93420E-3	-7.05901E-3
-32.5163E-6	-253.560E-15	12.9591E-3	-7.46918E-3	-149.913E-15	6.41098E-3	-7.88480E-3
-37.5188E-6	-289.361E-15	16.7790E-3	-11.7323E-3	-263.072E-15	8.42659E-3	-17.7725E-3
-42.5213E-6	-204.304E-15	18.6066E-3	-19.9836E-3	-261.172E-15	-1.96167E-3	-13.4730E-3
-47.5238E-6	-102.297E-15	16.5070E-3	-21.2010E-3	-141.325E-15	-9.70918E-3	-14.3863E-3
-52.5263E-6	-144.873E-15	1.88526E-3	-10.8031E-3	-158.824E-15	-5.77340E-3	-17.3647E-3
-57.5288E-6	-297.444E-15	-3.21335E-3	-11.2598E-3	-242.678E-15	5.87090E-3	-8.74777E-3
-62.5313E-6	-183.796E-15	7.03938E-3	-21.4199E-3	-278.837E-15	16.8372E-3	-11.0476E-3
-67.5338E-6	-137.881E-15	21.7420E-3	-16.9223E-3	-171.284E-15	5.76513E-3	-20.0997E-3
-72.5363E-6	-200.032E-15	27.0768E-3	-5.65030E-3	-167.491E-15	-1.66115E-3	-16.3499E-3
-77.5388E-6	-263.238E-15	16.4624E-3	-2.82136E-3	-280.511E-15	11.2717E-3	-17.4404E-3
-82.5413E-6	-208.838E-15	4.50997E-3	1.41445E-3	-237.464E-15	12.7152E-3	-30.0877E-3
-87.5438E-6	-199.822E-15	-182.426E-6	6.50453E-3	-182.680E-15	7.87882E-3	-32.1597E-3
-92.5463E-6	-216.895E-15	1.24203E-3	3.08597E-3	-198.218E-15	11.1572E-3	-24.0259E-3
-97.5488E-6	-240.010E-15	1.94462E-3	-648.490E-6	-281.653E-15	-86.4347E-6	-21.1990E-3
-102.551E-6	-180.797E-15	1.66155E-3	-6.59627E-3	-251.702E-15	-10.8577E-3	-14.2499E-3
-107.554E-6	-199.256E-15	9.84831E-3	-13.8978E-3	-156.060E-15	-2.65760E-3	-13.3084E-3
-112.556E-6	-237.708E-15	12.4856E-3	-23.9531E-3	-224.533E-15	2.22605E-3	-22.5333E-3
-117.559E-6	-195.349E-15	2.78871E-3	-38.8695E-3	-311.360E-15	7.60018E-3	-13.4279E-3
-122.561E-6	-243.907E-15	-1.25088E-3	-38.5513E-3	-233.505E-15	20.8185E-3	-5.14262E-3
-127.564E-6	-250.952E-15	-1.77988E-3	-26.2453E-3	-203.598E-15	24.0832E-3	-16.3539E-3
-132.566E-6	-308.160E-15	-3.62094E-3	-24.0104E-3	-278.741E-15	20.3232E-3	-22.6659E-3
-137.569E-6	-229.486E-15	7.52748E-3	-32.5720E-3	-298.412E-15	29.9196E-3	-28.6638E-3
-142.571E-6	-202.770E-15	26.5984E-3	-32.4832E-3	-189.787E-15	29.1117E-3	-43.9358E-3
-147.574E-6	-289.736E-15	25.3297E-3	-23.7559E-3	-201.924E-15	12.3721E-3	-39.2941E-3
-152.576E-6	-340.892E-15	8.08342E-3	-18.8089E-3	-312.450E-15	10.3927E-3	-20.4064E-3
-157.579E-6	-253.621E-15	6.39981E-3	-19.4011E-3	-323.846E-15	10.1650E-3	-28.1963E-3
-162.581E-6	-161.039E-15	14.1976E-3	-25.7745E-3	-223.862E-15	-2.67139E-3	-28.3469E-3
-167.584E-6	-279.630E-15	11.5079E-3	-30.5049E-3	-210.896E-15	-1.31231E-3	-7.70586E-3
-172.586E-6	-346.473E-15	5.42759E-3	-26.4236E-3	-337.875E-15	7.15765E-3	-9.78702E-3
-177.589E-6	-291.201E-15	3.11400E-3	-24.8236E-3	-364.051E-15	-3.36505E-3	-12.5249E-3
-182.591E-6	-160.054E-15	185.843E-6	-32.0004E-3	-232.842E-15	-9.21540E-3	-3.14908E-3
-187.594E-6	-300.225E-15	4.70420E-3	-22.5934E-3	-260.082E-15	-2.01464E-3	-5.91758E-3
-192.596E-6	-367.783E-15	6.86568E-3	735.578E-6	-347.205E-15	5.68617E-3	-10.5272E-3
-197.599E-6	-293.869E-15	-1.82258E-3	5.07909E-3	-385.509E-15	20.3115E-3	-4.97144E-3
-202.601E-6	-281.121E-15	4.83761E-3	3.78832E-3	-260.884E-15	35.7056E-3	-1.37293E-3
-207.604E-6	-302.702E-15	21.9908E-3	8.36780E-3	-253.472E-15	33.4583E-3	-5.14988E-3
-212.606E-6	-375.290E-15	25.8744E-3	-1.09682E-3	-411.074E-15	16.1798E-3	-11.4875E-3
-217.609E-6	-325.058E-15	24.0330E-3	-10.1216E-3	-387.506E-15	7.73816E-3	-21.0699E-3
-222.611E-6	-313.609E-15	31.1373E-3	-5.90536E-3	-298.604E-15	2.45500E-3	-31.0978E-3
-227.614E-6	-394.917E-15	38.2903E-3	-9.47750E-3	-333.446E-15	-2.33940E-3	-23.3178E-3
-232.616E-6	-364.670E-15	51.0326E-3	-13.0115E-3	-441.801E-15	14.5596E-3	-8.20210E-3
-237.619E-6	-329.496E-15	63.6843E-3	-10.9016E-3	-357.319E-15	26.0308E-3	-10.2458E-3
-242.621E-6	-427.239E-15	44.6396E-3	-14.9123E-3	-320.193E-15	23.2596E-3	-16.8279E-3
-247.624E-6	-437.066E-15	10.6077E-3	-17.2435E-3	-381.995E-15	36.5852E-3	-20.1241E-3
-252.626E-6	-382.466E-15	-592.826E-6	-18.8814E-3	-436.011E-15	49.1698E-3	-25.1628E-3
-257.629E-6	-302.039E-15	13.5560E-3	-18.9370E-3	-385.134E-15	42.0457E-3	-23.9845E-3
-262.631E-6	-458.263E-15	29.1404E-3	-14.4647E-3	-330.839E-15	35.2651E-3	-21.4841E-3
-267.634E-6	-528.453E-15	35.1499E-3	-12.5552E-3	-510.125E-15	33.6643E-3	-20.4604E-3
-272.636E-6	-426.368E-15	36.7728E-3	-18.5299E-3	-488.153E-15	29.1974E-3	-14.2850E-3
-277.639E-6	-393.199E-15	42.3752E-3	-23.8571E-3	-429.114E-15	35.5440E-3	-12.7726E-3
-282.641E-6	-467.767E-15	46.1497E-3	-20.8878E-3	-407.961E-15	36.3393E-3	-17.7263E-3
-287.644E-6	-562.005E-15	35.9534E-3	-17.7924E-3	-521.678E-15	23.9039E-3	-15.2075E-3
-292.646E-6	-458.777E-15	33.4882E-3	-18.9823E-3	-544.096E-15	36.7399E-3	-10.3105E-3
-297.649E-6	-400.401E-15	40.2307E-3	-16.8489E-3	-426.463E-15	53.9109E-3	-10.8277E-3
-302.651E-6	-551.298E-15	37.6957E-3	-12.5623E-3	-463.895E-15	47.4506E-3	-1.91419E-3
-307.654E-6	-665.974E-15	45.8995E-3	-13.4962E-3	-613.440E-15	37.9955E-3	5.42067E-3
-312.656E-6	-523.161E-15	63.2647E-3	-21.3029E-3	-673.150E-15	32.8703E-3	-11.5493E-3
-317.659E-6	-512.767E-15	61.9155E-3	-35.1417E-3	-529.299E-15	30.5604E-3	-23.8728E-3
-322.661E-6	-578.598E-15	49.8113E-3	-36.9179E-3	-549.920E-15	42.8423E-3	-11.2201E-3
-327.664E-6	-649.024E-15	41.9844E-3	-22.7229E-3	-619.997E-15	59.2919E-3	-10.8929E-3
-332.666E-6	-608.392E-15	46.8244E-3	-12.5530E-3	-676.054E-15	53.4022E-3	-26.2785E-3
-337.669E-6	-585.748E-15	63.5416E-3	-13.1938E-3	-605.916E-15	46.6696E-3	-26.7823E-3
-342.671E-6	-668.433E-15	69.6511E-3	-18.4208E-3	-596.987E-15	58.6179E-3	-24.8749E-3
-347.674E-6	-708.734E-15	71.1371E-3	-11.0083E-3	-729.948E-15	68.7098E-3	-26.5151E-3
-352.676E-6	-667.692E-15	74.3927E-3	953.805E-6	-717.514E-15	72.1337E-3	-18.9134E-3
-357.679E-6	-700.101E-15	70.8365E-3	-3.50001E-3	-649.006E-15	75.8602E-3	-21.2654E-3
-362.681E-6	-768.967E-15	65.5331E-3	-6.23528E-3	-711.594E-15	70.0249E-3	-34.6135E-3
-367.684E-6	-743.123E-15	63.8467E-3	-7.35608E-3	-851.111E-15	64.2693E-3	-34.8676E-3
-372.686E-6	-716.564E-15	69.6398E-3	-11.0680E-3	-742.730E-15	74.7911E-3	-25.9460E-3
-377.689E-6	-844.546E-15	69.1082E-3	-2.79980E-3	-703.145E-15	78.2952E-3	-18.9281E-3
-382.691E-6	-895.597E-15	59.8680E-3	-6.16697E-3	-879.048E-15	74.4008E-3	-7.14184E-3
-387.694E-6	-879.632E-15	60.6659E-3	-29.5651E-3	-939.089E-15	87.1585E-3	-2.13491E-3
-392.696E-6	-813.435E-15	65.2384E-3	-34.6132E-3	-827.447E-15	97.6867E-3	-16.1047E-3
-397.699E-6	-938.357E-15	60.7579E-3	-25.3940E-3	-872.038E-15	98.5315E-3	-30.1274E-3
-402.701E-6	-1.01110E-12	63.0890E-3	-24.3458E-3	-1.03901E-12	105.254E-3	-29.7180E-3
-407.704E-6	-935.994E-15	76.6807E-3	-16.3021E-3	-1.06868E-12	108.883E-3	-23.1686E-3
-412.706E-6	-928.199E-15	78.4099E-3	-2.05486E-3	-955.028E-15	103.415E-3	-20.6524E-3
-417.709E-6	-1.01641E-12	74.7751E-3	783.979E-6	-969.057E-15	97.7888E-3	-26.2532E-3
-422.711E-6	-1.10970E-12	78.5936E-3	2.53279E-3	-1.17377E-12	88.4029E-3	-38.7014E-3
-427.714E-6	-1.04483E-12	77.3144E-3	4.01927E-3	-1.17760E-12	80.0964E-3	-39.6478E-3
-432.716E-6	-1.01631E-12	75.4935E-3	-5.73454E-3	-1.06943E-12	102.511E-3	-24.8907E-3
-437.719E-6	-1.14874E-12	88.4165E-3	-11.7123E-3	-1.10354E-12	126.119E-3	-15.8836E-3
-442.721E-6	-1.23119E-12	105.384E-3	-7.45860E-3	-1.28423E-12	115.855E-3	-13.4674E-3
-447.724E-6	-1.19948E-12	105.347E-3	-9.32226E-3	-1.34852E-12	109.662E-3	-11.5328E-3
-452.726E-6	-1.22032E-12	101.627E-3	-20.5933E-3	-1.24859E-12	104.717E-3	-19.3288E-3
-457.729E-6	-1.32529E-12	109.005E-3	-19.2378E-3	-1.26587E-12	89.9216E-3	-23.4210E-3
-462.731E-6	-1.33934E-12	118.803E-3	-10.9726E-3	-1.35129E-12	100.387E-3	-11.0713E-3
-467.734E-6	-1.32161E-12	120.818E-3	-7.68853E-3	-1.41634E-12	121.564E-3	-6.26514E-3
-472.736E-6	-1.34784E-12	107.959E-3	-5.33338E-3	-1.36481E-12	119.274E-3	-10.5393E-3
-477.739E-6	-1.52435E-12	95.5402E-3	-11.1589E-3	-1.47362E-12	119.987E-3	-6.75997E-3
-482.741E-6	-1.50960E-12	100.048E-3	-16.1462E-3	-1.58104E-12	134.129E-3	-14.9056E-3
-487.744E-6	-1.45548E-12	104.201E-3	-10.5187E-3	-1.48106E-12	138.938E-3	-33.5245E-3
-492.746E-6	-1.62268E-12	101.935E-3	-10.0416E-3	-1.51302E-12	136.349E-3	-34.9151E-3
-497.749E-6	-1.72034E-12	103.446E-3	-11.1852E-3	-1.67652E-12	137.032E-3	-30.6375E-3
-502.751E-6	-1.67584E-12	106.240E-3	-5.88173E-3	-1.69433E-12	140.100E-3	-33.3506E-3
-507.754E-6	-1.62720E-12	110.283E-3	-9.27399E-3	-1.63186E-12	141.655E-3	-25.1184E-3
-512.756E-6	-1.78548E-12	122.932E-3	-17.3430E-3	-1.65433E-12	143.789E-3	-10.9042E-3
-517.759E-6	-1.93766E-12	138.373E-3	-23.5316E-3	-1.85295E-12	135.709E-3	-12.8485E-3
-522.761E-6	-1.84354E-12	145.585E-3	-32.8371E-3	-1.95913E-12	131.412E-3	-15.6742E-3
-527.764E-6	-1.76869E-12	153.464E-3	-34.4666E-3	-1.85881E-12	140.422E-3	-16.4963E-3
-532.766E-6	-1.96594E-12	158.512E-3	-16.0916E-3	-1.82529E-12	134.182E-3	-26.4947E-3
-537.769E-6	-2.13172E-12	147.788E-3	-7.79705E-3	-2.04742E-12	123.749E-3	-19.7569E-3
-542.771E-6	-2.08668E-12	141.032E-3	-23.1945E-3	-2.09836E-12	134.898E-3	-8.51229E-3
-547.774E-6	-2.00332E-12	149.698E-3	-24.0488E-3	-2.08250E-12	147.152E-3	-15.9095E-3
-552.776E-6	-2.09217E-12	149.253E-3	-9.94842E-3	-2.13669E-12	143.012E-3	-19.1372E-3
-557.779E-6	-2.22398E-12	139.203E-3	-7.43121E-3	-2.21665E-12	143.543E-3	-18.8717E-3
-562.781E-6	-2.23479E-12	133.825E-3	-9.58860E-3	-2.31925E-12	151.465E-3	-21.2270E-3
-567.784E-6	-2.27638E-12	139.464E-3	-7.95762E-3	-2.29554E-12	154.876E-3	-11.6002E-3
-572.786E-6	-2.41417E-12	153.094E-3	-11.3670E-3	-2.35306E-12	160.810E-3	-7.32329E-3
-577.789E-6	-2.44358E-12	157.721E-3	-14.1511E-3	-2.46697E-12	162.297E-3	-27.2813E-3
-582.791E-6	-2.47201E-12	159.878E-3	-14.0598E-3	-2.53854E-12	153.107E-3	-36.0419E-3
-587.794E-6	-2.50339E-12	162.845E-3	-18.1079E-3	-2.53791E-12	153.272E-3	-20.5585E-3
-592.796E-6	-2.59400E-12	154.515E-3	-24.1527E-3	-2.56434E-12	160.553E-3	-9.77335E-3
-597.799E-6	-2.59137E-12	144.891E-3	-28.7870E-3	-2.70886E-12	153.014E-3	-5.32082E-3
-602.801E-6	-2.63565E-12	144.896E-3	-28.4228E-3	-2.69307E-12	143.747E-3	-4.45172E-3
-607.804E-6	-2.82583E-12	151.697E-3	-15.4122E-3	-2.75183E-12	146.376E-3	-15.6795E-3
-612.806E-6	-2.88872E-12	161.513E-3	-6.53731E-3	-2.89339E-12	153.922E-3	-23.0552E-3
-617.809E-6	-2.75330E-12	169.879E-3	-23.2670E-3	-2.89281E-12	169.911E-3	-14.1575E-3
-622.811E-6	-2.78856E-12	163.035E-3	-36.0024E-3	-2.88246E-12	174.501E-3	-14.1277E-3
-627.814E-6	-3.03106E-12	156.541E-3	-27.5435E-3	-2.87374E-12	161.758E-3	-22.1653E-3
-632.816E-6	-3.07184E-12	164.158E-3	-18.6181E-3	-3.10208E-12	161.259E-3	-23.3504E-3
-637.819E-6	-2.95072E-12	167.480E-3	-21.2143E-3	-3.18374E-12	164.092E-3	-36.2616E-3
-642.821E-6	-2.94195E-12	157.287E-3	-32.3732E-3	-3.00138E-12	154.235E-3	-46.6818E-3
-647.824E-6	-3.17997E-12	136.413E-3	-34.1881E-3	-3.02180E-12	152.210E-3	-35.7706E-3
-652.826E-6	-3.31578E-12	125.903E-3	-21.9527E-3	-3.23867E-12	169.860E-3	-33.8809E-3
-657.829E-6	-3.22102E-12	138.191E-3	-12.5205E-3	-3.32290E-12	177.147E-3	-37.8587E-3
-662.831E-6	-3.17008E-12	156.967E-3	-23.1207E-3	-3.32283E-12	172.667E-3	-18.9021E-3
-667.834E-6	-3.38746E-12	164.489E-3	-41.1108E-3	-3.37955E-12	183.502E-3	4.96011E-3
-672.836E-6	-3.48825E-12	156.085E-3	-39.1197E-3	-3.50285E-12	188.041E-3	12.7900E-3
-677.839E-6	-3.51932E-12	145.059E-3	-23.5621E-3	-3.58526E-12	172.662E-3	7.16105E-3
-682.841E-6	-3.43294E-12	144.190E-3	-9.90618E-3	-3.63683E-12	169.750E-3	-10.2727E-3
-687.844E-6	-3.56306E-12	153.618E-3	-2.34396E-3	-3.72534E-12	181.224E-3	-23.7709E-3
-692.846E-6	-3.67594E-12	164.708E-3	-8.98450E-3	-3.83978E-12	177.656E-3	-17.3256E-3
-697.849E-6	-3.70051E-12	159.233E-3	-16.2602E-3	-3.87393E-12	163.737E-3	-11.9134E-3
-702.851E-6	-3.78508E-12	144.637E-3	-8.68399E-3	-3.93139E-12	153.309E-3	-15.5369E-3
-707.854E-6	-3.77490E-12	149.503E-3	-7.32884E-3	-3.90332E-12	152.322E-3	-4.03694E-3
-712.856E-6	-3.71763E-12	156.323E-3	-18.0800E-3	-4.01476E-12	164.911E-3	11.3539E-3
-717.859E-6	-3.73845E-12	143.484E-3	-21.1662E-3	-4.05670E-12	162.481E-3	9.55661E-3
-722.861E-6	-3.86654E-12	139.733E-3	-14.7132E-3	-4.01943E-12	142.138E-3	4.87242E-3
-727.864E-6	-4.02054E-12	154.494E-3	-11.4226E-3	-4.10759E-12	145.198E-3	-2.89810E-3
-732.866E-6	-3.98493E-12	156.019E-3	-13.1450E-3	-4.13601E-12	161.935E-3	-18.2371E-3
-737.869E-6	-3.91937E-12	139.640E-3	-8.06146E-3	-4.12285E-12	155.747E-3	-15.0233E-3
-742.871E-6	-4.13072E-12	131.093E-3	-5.62075E-3	-4.15512E-12	138.199E-3	-178.563E-6
-747.874E-6	-4.32464E-12	135.003E-3	-17.4820E-3	-4.16107E-12	129.536E-3	2.97764E-3
-752.876E-6	-4.26169E-12	140.700E-3	-26.2740E-3	-4.20390E-12	124.965E-3	8.72093E-3
-757.879E-6	-4.09965E-12	148.203E-3	-25.5489E-3	-4.23128E-12	128.864E-3	20.7804E-3
-762.881E-6	-4.25585E-12	151.307E-3	-23.0522E-3	-4.22675E-12	138.424E-3	16.6709E-3
-767.884E-6	-4.47887E-12	141.825E-3	-23.3694E-3	-4.39682E-12	133.446E-3	905.971E-6
-772.886E-6	-4.43715E-12	136.005E-3	-26.9336E-3	-4.31064E-12	124.253E-3	-7.34839E-3
-777.889E-6	-4.38982E-12	141.664E-3	-31.9641E-3	-4.32387E-12	125.843E-3	-15.4792E-3
-782.891E-6	-4.45863E-12	137.761E-3	-34.0538E-3	-4.37346E-12	125.920E-3	-17.8749E-3
-787.894E-6	-4.66359E-12	130.922E-3	-26.4417E-3	-4.55801E-12	128.949E-3	-4.59819E-3
-792.896E-6	-4.69486E-12	130.885E-3	-18.5687E-3	-4.53917E-12	143.249E-3	4.06846E-3
-797.899E-6	-4.74050E-12	127.945E-3	-12.3936E-3	-4.52235E-12	140.723E-3	-8.40255E-3
-802.901E-6	-4.78739E-12	127.975E-3	-8.81838E-3	-4.65295E-12	117.724E-3	-25.8401E-3
-807.904E-6	-4.86041E-12	135.101E-3	-18.8156E-3	-4.74941E-12	106.800E-3	-29.7029E-3
-812.906E-6	-4.83842E-12	143.658E-3	-25.2635E-3	-4.85835E-12	106.015E-3	-26.7973E-3
-817.909E-6	-4.86762E-12	132.766E-3	-16.1995E-3	-4.78152E-12	106.407E-3	-18.0081E-3
-822.911E-6	-5.13216E-12	111.567E-3	-4.62914E-3	-4.80775E-12	111.110E-3	-2.74479E-3
-827.914E-6	-5.12342E-12	111.817E-3	-4.70176E-3	-4.83511E-12	107.766E-3	1.32771E-3
-832.916E-6	-4.88702E-12	116.199E-3	-14.3343E-3	-4.87444E-12	100.058E-3	-682.940E-6
-837.919E-6	-4.85319E-12	111.799E-3	-17.3051E-3	-4.70340E-12	110.205E-3	-3.31467E-3
-842.921E-6	-5.12450E-12	108.131E-3	-15.8691E-3	-4.96060E-12	114.791E-3	-14.4588E-3
-847.924E-6	-5.19236E-12	105.006E-3	-17.8506E-3	-5.15596E-12	107.019E-3	-22.0887E-3
-852.926E-6	-5.09752E-12	120.812E-3	-18.7853E-3	-5.05531E-12	115.611E-3	-30.0898E-3
-857.929E-6	-4.94972E-12	136.253E-3	-17.1125E-3	-4.94993E-12	118.128E-3	-44.4264E-3
-862.931E-6	-5.07278E-12	121.224E-3	-15.5622E-3	-5.08348E-12	99.9583E-3	-39.8558E-3
-867.934E-6	-5.26877E-12	105.615E-3	-13.3820E-3	-5.30071E-12	102.333E-3	-26.3029E-3
-872.936E-6	-5.22567E-12	105.050E-3	-15.5260E-3	-5.20340E-12	116.892E-3	-23.0621E-3
-877.939E-6	-5.25946E-12	114.518E-3	-11.6696E-3	-5.13164E-12	106.711E-3	-19.8614E-3
-882.941E-6	-5.29010E-12	122.907E-3	-1.17124E-3	-5.23252E-12	93.3417E-3	-22.9250E-3
-887.944E-6	-5.28144E-12	123.847E-3	-1.06029E-3	-5.39522E-12	94.6304E-3	-27.2034E-3
-892.946E-6	-5.32549E-12	116.027E-3	-9.68690E-3	-5.48286E-12	99.3809E-3	-23.1451E-3
-897.949E-6	-5.41152E-12	100.216E-3	-19.8980E-3	-5.36951E-12	99.7642E-3	-13.6656E-3
-902.951E-6	-5.40098E-12	88.0825E-3	-19.5245E-3	-5.47332E-12	94.2893E-3	-7.34343E-3
-907.954E-6	-5.30062E-12	88.4074E-3	-14.3282E-3	-5.44061E-12	90.5339E-3	-7.92541E-3
-912.956E-6	-5.44132E-12	96.2987E-3	-20.7352E-3	-5.52188E-12	98.2233E-3	-7.07983E-3
-917.959E-6	-5.57362E-12	97.0124E-3	-22.6453E-3	-5.49712E-12	108.327E-3	-10.1547E-3
-922.961E-6	-5.53999E-12	90.2237E-3	-20.3400E-3	-5.57256E-12	104.845E-3	-13.8382E-3
-927.964E-6	-5.40855E-12	89.3977E-3	-29.1269E-3	-5.57306E-12	99.4505E-3	-4.33417E-3
-932.966E-6	-5.52858E-12	100.410E-3	-32.8632E-3	-5.56324E-12	110.155E-3	-13.5184E-3
-937.969E-6	-5.79157E-12	111.991E-3	-25.2972E-3	-5.46398E-12	115.274E-3	-40.4565E-3
-942.971E-6	-5.71455E-12	113.436E-3	-12.6463E-3	-5.57350E-12	109.041E-3	-30.0022E-3
-947.974E-6	-5.59512E-12	116.039E-3	196.071E-6	-5.68442E-12	110.489E-3	-9.86488E-3
-952.976E-6	-5.70999E-12	121.005E-3	-4.10391E-3	-5.61559E-12	108.577E-3	-10.2427E-3
-957.979E-6	-5.93251E-12	113.216E-3	-20.6520E-3	-5.61241E-12	101.745E-3	-11.4358E-3
-962.981E-6	-5.87988E-12	107.313E-3	-27.0935E-3	-5.75441E-12	112.494E-3	-17.5374E-3
-967.984E-6	-5.81267E-12	113.934E-3	-24.7920E-3	-5.84808E-12	130.726E-3	-29.6287E-3
-972.986E-6	-5.88501E-12	117.861E-3	-22.1443E-3	-5.92115E-12	134.516E-3	-33.6478E-3
-977.989E-6	-5.96487E-12	123.554E-3	-18.9121E-3	-5.91847E-12	142.583E-3	-29.0667E-3
-982.991E-6	-5.96395E-12	130.738E-3	-14.1556E-3	-6.03640E-12	148.503E-3	-22.7636E-3
-987.994E-6	-6.01521E-12	128.351E-3	-15.8659E-3	-5.95759E-12	136.415E-3	-16.4039E-3
-992.997E-6	-5.95355E-12	130.564E-3	-25.4391E-3	-6.09540E-12	140.244E-3	-18.5427E-3
-997.999E-6	-6.01926E-12	134.932E-3	-34.6184E-3	-6.13724E-12	154.964E-3	-32.4752E-3
-1.00300E-3	-6.17088E-12	127.345E-3	-31.4405E-3	-6.19109E-12	148.653E-3	-32.4125E-3
-1.00800E-3	-6.16663E-12	127.204E-3	-16.4583E-3	-6.09611E-12	136.205E-3	-11.2160E-3
-1.01301E-3	-6.28661E-12	145.299E-3	-8.45275E-3	-6.34619E-12	138.685E-3	-4.30062E-3
-1.01801E-3	-6.40803E-12	155.396E-3	-3.71518E-3	-6.39409E-12	149.928E-3	-10.5388E-3
-1.02301E-3	-6.40888E-12	146.966E-3	-1.46051E-3	-6.36512E-12	167.060E-3	-10.0213E-3
-1.02801E-3	-6.58359E-12	145.843E-3	-14.2362E-3	-6.41395E-12	172.804E-3	-11.1343E-3
-1.03302E-3	-6.69677E-12	149.616E-3	-28.4349E-3	-6.52350E-12	164.666E-3	-14.7921E-3
-1.03802E-3	-6.61063E-12	151.297E-3	-24.2486E-3	-6.67569E-12	183.587E-3	-11.9914E-3
-1.04302E-3	-6.76255E-12	155.599E-3	-17.4045E-3	-6.58334E-12	214.091E-3	-7.35552E-3
-1.04802E-3	-6.76618E-12	162.636E-3	-20.8643E-3	-6.54087E-12	218.648E-3	-8.96163E-3
-1.05303E-3	-6.81466E-12	176.589E-3	-23.9285E-3	-6.64352E-12	215.205E-3	-5.92780E-3
-1.05803E-3	-6.87641E-12	190.946E-3	-30.2197E-3	-6.80520E-12	226.725E-3	-3.58741E-3
-1.06303E-3	-6.84428E-12	196.537E-3	-38.8575E-3	-6.82055E-12	239.064E-3	-16.3353E-3
-1.06803E-3	-7.04345E-12	189.223E-3	-34.8211E-3	-6.79136E-12	237.964E-3	-23.4638E-3
-1.07304E-3	-7.14586E-12	187.644E-3	-20.1809E-3	-7.10585E-12	240.362E-3	-21.5426E-3
-1.07804E-3	-7.08934E-12	204.043E-3	-15.0898E-3	-7.11651E-12	245.663E-3	-25.1608E-3
-1.08304E-3	-6.98263E-12	218.245E-3	-19.3571E-3	-7.20136E-12	248.137E-3	-23.4727E-3
-1.08804E-3	-7.30872E-12	223.442E-3	-13.5795E-3	-7.17212E-12	260.226E-3	-10.7896E-3
-1.09305E-3	-7.63919E-12	225.826E-3	-11.0322E-3	-7.41788E-12	284.847E-3	5.85680E-3
-1.09805E-3	-7.52823E-12	232.918E-3	-19.9449E-3	-7.59055E-12	302.016E-3	21.2456E-3
-1.10305E-3	-7.37142E-12	251.071E-3	-22.6722E-3	-7.62105E-12	309.338E-3	22.2899E-3
-1.10805E-3	-7.67006E-12	269.142E-3	-19.2691E-3	-7.72024E-12	322.136E-3	-2.14192E-3
-1.11306E-3	-7.90043E-12	276.188E-3	-22.5705E-3	-8.02001E-12	336.210E-3	-17.1073E-3
-1.11806E-3	-7.92203E-12	277.178E-3	-25.6748E-3	-8.15677E-12	358.251E-3	-4.12194E-3
-1.12306E-3	-7.86468E-12	287.401E-3	-23.8950E-3	-8.19214E-12	378.923E-3	-1.16704E-3
-1.12806E-3	-8.13714E-12	308.773E-3	-31.3525E-3	-8.42416E-12	379.210E-3	-6.99493E-3
-1.13307E-3	-8.26771E-12	321.782E-3	-35.5529E-3	-8.56678E-12	383.259E-3	-8.99408E-3
-1.13807E-3	-8.30290E-12	323.944E-3	-33.5305E-3	-8.71877E-12	395.439E-3	-16.4391E-3
-1.14307E-3	-8.20278E-12	334.683E-3	-32.7808E-3	-8.68906E-12	404.716E-3	-19.6743E-3
-1.14807E-3	-8.56272E-12	357.124E-3	-27.2348E-3	-9.02671E-12	420.012E-3	-14.2721E-3
-1.15308E-3	-8.82008E-12	373.201E-3	-23.9882E-3	-9.20893E-12	433.798E-3	-13.1283E-3
-1.15808E-3	-8.66142E-12	384.494E-3	-27.0977E-3	-9.13330E-12	443.050E-3	-25.0852E-3
-1.16308E-3	-8.69132E-12	403.306E-3	-29.3839E-3	-9.33563E-12	457.708E-3	-33.1736E-3
-1.16808E-3	-8.92330E-12	420.945E-3	-29.3921E-3	-9.48236E-12	480.257E-3	-24.7980E-3
-1.17309E-3	-9.36043E-12	427.032E-3	-27.4884E-3	-9.68237E-12	502.052E-3	-14.5868E-3
-1.17809E-3	-9.20865E-12	425.795E-3	-26.8379E-3	-9.53933E-12	517.600E-3	-8.04313E-3
-1.18309E-3	-9.35163E-12	440.470E-3	-24.1833E-3	-9.75362E-12	531.503E-3	-16.0159E-3
-1.18809E-3	-9.79080E-12	469.140E-3	-6.38369E-3	-9.97813E-12	542.947E-3	-29.7460E-3
-1.19310E-3	-10.2367E-12	490.698E-3	11.5038E-3	-10.2485E-12	563.338E-3	-23.5014E-3
-1.19810E-3	-10.1887E-12	504.466E-3	9.78464E-3	-10.2432E-12	589.918E-3	-12.4491E-3
-1.20310E-3	-10.1595E-12	521.011E-3	3.80525E-3	-10.3318E-12	594.554E-3	-9.74186E-3
-1.20810E-3	-10.5900E-12	543.766E-3	-1.89896E-3	-10.7705E-12	598.246E-3	-7.39008E-3
-1.21311E-3	-10.9566E-12	559.118E-3	-24.2287E-3	-11.0285E-12	621.472E-3	-9.21936E-3
-1.21811E-3	-11.2621E-12	572.313E-3	-42.7660E-3	-11.1704E-12	646.040E-3	-20.7458E-3
-1.22311E-3	-11.2288E-12	597.817E-3	-29.1265E-3	-11.1222E-12	666.591E-3	-10.5905E-3
-1.22811E-3	-11.4045E-12	621.685E-3	-12.1023E-3	-11.5884E-12	688.227E-3	11.3935E-3
-1.23312E-3	-11.6624E-12	632.374E-3	-17.1062E-3	-11.8479E-12	703.589E-3	3.96407E-3
-1.23812E-3	-11.8559E-12	639.517E-3	-23.3064E-3	-12.0052E-12	717.023E-3	-4.87051E-3
-1.24312E-3	-12.2203E-12	651.701E-3	-14.0914E-3	-12.1115E-12	743.663E-3	-1.98505E-3
-1.24812E-3	-12.2590E-12	671.011E-3	-2.21737E-3	-12.4891E-12	765.439E-3	-12.1713E-3
-1.25313E-3	-12.2450E-12	695.581E-3	-6.05164E-3	-12.8043E-12	764.583E-3	-20.8465E-3
-1.25813E-3	-12.5110E-12	709.570E-3	-18.1790E-3	-12.9316E-12	767.107E-3	-25.0557E-3
-1.26313E-3	-13.0774E-12	709.539E-3	-22.9492E-3	-13.0953E-12	787.296E-3	-33.3681E-3
-1.26813E-3	-13.3458E-12	724.163E-3	-19.7205E-3	-13.2401E-12	814.022E-3	-24.7096E-3
-1.27314E-3	-13.2887E-12	758.095E-3	-13.9743E-3	-13.5963E-12	835.686E-3	-13.1136E-3
-1.27814E-3	-13.3007E-12	784.779E-3	-6.40558E-3	-13.9874E-12	846.126E-3	-17.7508E-3
-1.28314E-3	-13.9009E-12	797.647E-3	-1.75100E-3	-14.4763E-12	856.670E-3	-22.2872E-3
-1.28814E-3	-14.5002E-12	807.690E-3	-5.19584E-3	-14.4404E-12	879.453E-3	-20.6626E-3
-1.29315E-3	-14.4959E-12	820.392E-3	-7.73526E-3	-14.6280E-12	900.603E-3	-21.7689E-3
-1.29815E-3	-14.4787E-12	835.149E-3	-17.3594E-3	-15.0267E-12	912.721E-3	-24.5880E-3
-1.30315E-3	-15.1397E-12	847.732E-3	-31.3093E-3	-15.5069E-12	930.443E-3	-24.0580E-3
-1.30815E-3	-15.8313E-12	865.032E-3	-26.7637E-3	-15.7124E-12	947.943E-3	-22.2450E-3
-1.31316E-3	-15.5752E-12	890.590E-3	-27.2331E-3	-15.8232E-12	955.578E-3	-24.5676E-3
-1.31816E-3	-15.7310E-12	909.047E-3	-35.5598E-3	-16.2435E-12	966.909E-3	-25.9861E-3
-1.32316E-3	-16.1216E-12	914.727E-3	-27.8265E-3	-16.6362E-12	990.005E-3	-23.0774E-3
-1.32816E-3	-16.8664E-12	917.086E-3	-19.4600E-3	-16.9062E-12	1.01064E+0	-26.4239E-3
-1.33317E-3	-16.9989E-12	927.745E-3	-20.7256E-3	-17.0178E-12	1.02585E+0	-24.3348E-3
-1.33817E-3	-17.1022E-12	954.559E-3	-24.0688E-3	-17.4161E-12	1.04015E+0	-16.4321E-3
-1.34317E-3	-17.5035E-12	985.258E-3	-23.7397E-3	-18.3102E-12	1.04667E+0	-15.3432E-3
-1.34817E-3	-17.7632E-12	998.415E-3	-9.53533E-3	-18.1388E-12	1.04979E+0	-6.79906E-3
-1.35318E-3	-18.1995E-12	1.00413E+0	8.42145E-3	-18.2275E-12	1.06749E+0	-3.28391E-3
-1.35818E-3	-18.3860E-12	1.01958E+0	2.38192E-3	-18.7034E-12	1.08172E+0	-24.7171E-3
-1.36318E-3	-19.0517E-12	1.03619E+0	-16.0307E-3	-19.5408E-12	1.08687E+0	-41.0840E-3
-1.36818E-3	-19.3809E-12	1.04608E+0	-29.4162E-3	-19.7695E-12	1.10720E+0	-36.1036E-3
-1.37319E-3	-19.7710E-12	1.05571E+0	-33.9854E-3	-19.7837E-12	1.12385E+0	-21.5135E-3
-1.37819E-3	-20.2117E-12	1.05845E+0	-25.4425E-3	-20.1000E-12	1.12677E+0	-4.21747E-3
-1.38319E-3	-20.8971E-12	1.06235E+0	-18.4291E-3	-20.6823E-12	1.12574E+0	-5.00105E-3
-1.38819E-3	-21.2225E-12	1.08740E+0	-19.3595E-3	-21.2602E-12	1.12693E+0	-28.5042E-3
-1.39320E-3	-21.3067E-12	1.11513E+0	-24.8693E-3	-21.3994E-12	1.13743E+0	-41.1548E-3
-1.39820E-3	-21.8651E-12	1.12397E+0	-32.2077E-3	-21.6964E-12	1.14804E+0	-30.1020E-3
-1.40320E-3	-22.2772E-12	1.12571E+0	-33.9823E-3	-22.1580E-12	1.15192E+0	-15.3866E-3
-1.40820E-3	-22.5894E-12	1.12720E+0	-37.1423E-3	-22.5460E-12	1.15097E+0	-4.61471E-3
-1.41321E-3	-22.8480E-12	1.12726E+0	-43.5016E-3	-22.6613E-12	1.15020E+0	-8.55423E-3
-1.41821E-3	-23.5401E-12	1.13638E+0	-39.8799E-3	-23.3585E-12	1.15573E+0	-23.8885E-3
-1.42321E-3	-24.0964E-12	1.15002E+0	-24.0859E-3	-23.7069E-12	1.17455E+0	-29.3408E-3
-1.42821E-3	-23.9167E-12	1.15809E+0	-13.9465E-3	-24.0288E-12	1.20320E+0	-23.9130E-3
-1.43322E-3	-24.2439E-12	1.16733E+0	-11.1172E-3	-24.4626E-12	1.21651E+0	-20.5645E-3
-1.43822E-3	-24.8910E-12	1.18177E+0	-7.72244E-3	-24.9374E-12	1.21482E+0	-22.5776E-3
-1.44322E-3	-25.5321E-12	1.18558E+0	-13.7978E-3	-25.2642E-12	1.21139E+0	-18.9918E-3
-1.44822E-3	-25.5720E-12	1.17495E+0	-21.7965E-3	-25.3792E-12	1.20784E+0	-9.59789E-3
-1.45323E-3	-25.7028E-12	1.17383E+0	-15.6614E-3	-26.0281E-12	1.20776E+0	3.24240E-3
-1.45823E-3	-26.4737E-12	1.18755E+0	-14.1569E-3	-26.8566E-12	1.20815E+0	-1.74369E-3
-1.46323E-3	-26.9428E-12	1.20496E+0	-28.1789E-3	-27.3341E-12	1.19808E+0	-30.7638E-3
-1.46823E-3	-27.2545E-12	1.21890E+0	-39.2998E-3	-27.2303E-12	1.18550E+0	-40.2632E-3
-1.47324E-3	-27.1368E-12	1.21629E+0	-36.8656E-3	-27.5448E-12	1.18856E+0	-16.3381E-3
-1.47824E-3	-27.8985E-12	1.19554E+0	-28.8619E-3	-28.0778E-12	1.18517E+0	-2.69893E-3
-1.48324E-3	-28.2571E-12	1.17570E+0	-21.8804E-3	-28.2880E-12	1.16855E+0	-18.5506E-3
-1.48824E-3	-28.1422E-12	1.17488E+0	-14.9419E-3	-28.2973E-12	1.16963E+0	-28.6551E-3
-1.49325E-3	-28.1025E-12	1.17427E+0	-19.6683E-3	-28.6072E-12	1.18524E+0	-21.6540E-3
-1.49825E-3	-28.8640E-12	1.16064E+0	-24.9960E-3	-29.4841E-12	1.18555E+0	-13.4198E-3
-1.50325E-3	-29.6328E-12	1.15007E+0	-9.63182E-3	-29.7015E-12	1.17151E+0	-2.92112E-3
-1.50825E-3	-29.3016E-12	1.16230E+0	3.75221E-3	-29.5532E-12	1.16579E+0	-2.09223E-3
-1.51326E-3	-29.5631E-12	1.18777E+0	-4.50887E-3	-30.0086E-12	1.16409E+0	-18.3355E-3
-1.51826E-3	-30.1914E-12	1.18104E+0	-16.7516E-3	-30.7848E-12	1.16563E+0	-31.5177E-3
-1.52326E-3	-31.1917E-12	1.15490E+0	-20.6670E-3	-31.1685E-12	1.16978E+0	-29.6006E-3
-1.52826E-3	-31.2141E-12	1.14718E+0	-14.3316E-3	-31.2447E-12	1.16419E+0	-25.9509E-3
-1.53327E-3	-31.5915E-12	1.15713E+0	471.697E-6	-31.7407E-12	1.15513E+0	-27.1442E-3
-1.53827E-3	-32.3639E-12	1.16836E+0	-732.361E-6	-32.4742E-12	1.15891E+0	-31.8039E-3
-1.54327E-3	-32.8396E-12	1.17059E+0	-17.2188E-3	-32.9661E-12	1.17072E+0	-38.8138E-3
-1.54827E-3	-33.3182E-12	1.16909E+0	-21.2188E-3	-32.9552E-12	1.17559E+0	-35.8345E-3
-1.55328E-3	-33.9684E-12	1.16906E+0	-18.1312E-3	-33.4373E-12	1.17571E+0	-19.4936E-3
-1.55828E-3	-34.5279E-12	1.17700E+0	-22.0186E-3	-34.1956E-12	1.16642E+0	-11.3244E-3
-1.56328E-3	-34.5849E-12	1.19015E+0	-24.7347E-3	-34.5267E-12	1.14688E+0	-20.8143E-3
-1.56828E-3	-35.0794E-12	1.18894E+0	-23.9474E-3	-34.8528E-12	1.14075E+0	-35.6716E-3
-1.57329E-3	-35.7154E-12	1.17941E+0	-29.2002E-3	-35.4831E-12	1.14628E+0	-42.4879E-3
-1.57829E-3	-35.9666E-12	1.17900E+0	-32.3695E-3	-35.9554E-12	1.13526E+0	-39.2180E-3
-1.58329E-3	-35.8915E-12	1.17860E+0	-22.8485E-3	-35.8170E-12	1.11436E+0	-20.2571E-3
-1.58829E-3	-35.9279E-12	1.17786E+0	-16.4781E-3	-36.2537E-12	1.09848E+0	-4.85211E-3
-1.59330E-3	-36.7577E-12	1.16828E+0	-23.4207E-3	-36.8700E-12	1.08699E+0	-15.4012E-3
-1.59830E-3	-37.0867E-12	1.14748E+0	-34.4797E-3	-37.4522E-12	1.09523E+0	-16.6695E-3
-1.60330E-3	-37.1525E-12	1.13446E+0	-41.2688E-3	-37.3284E-12	1.11398E+0	-14.1540E-3
-1.60830E-3	-37.2434E-12	1.12933E+0	-37.2488E-3	-37.7628E-12	1.11353E+0	-26.8605E-3
-1.61331E-3	-38.2274E-12	1.12123E+0	-28.3605E-3	-38.5504E-12	1.10506E+0	-28.2912E-3
-1.61831E-3	-38.8646E-12	1.10750E+0	-20.7658E-3	-38.7407E-12	1.10826E+0	-18.5165E-3
-1.62331E-3	-39.0637E-12	1.10335E+0	-15.8683E-3	-39.0218E-12	1.10851E+0	-15.6271E-3
-1.62831E-3	-39.3426E-12	1.10375E+0	-12.0067E-3	-39.6417E-12	1.09508E+0	-17.4193E-3
-1.63332E-3	-39.7736E-12	1.10663E+0	-9.78703E-3	-40.5101E-12	1.08587E+0	-12.4747E-3
-1.63832E-3	-40.7348E-12	1.11122E+0	-11.0455E-3	-40.2938E-12	1.08248E+0	-7.68805E-3
-1.64332E-3	-41.3124E-12	1.09481E+0	-9.65468E-3	-40.4169E-12	1.07124E+0	-14.7529E-3
-1.64832E-3	-41.6802E-12	1.08135E+0	-12.1916E-3	-41.2710E-12	1.05566E+0	-15.6766E-3
-1.65333E-3	-41.6495E-12	1.09416E+0	-23.2250E-3	-42.1223E-12	1.04570E+0	-17.0864E-3
-1.65833E-3	-41.9745E-12	1.10647E+0	-25.9197E-3	-42.0736E-12	1.03478E+0	-28.1635E-3
-1.66333E-3	-42.6849E-12	1.09364E+0	-17.7051E-3	-41.7610E-12	1.03127E+0	-31.4495E-3
-1.66833E-3	-43.0474E-12	1.06989E+0	-15.8623E-3	-42.5652E-12	1.03865E+0	-35.5178E-3
-1.67334E-3	-43.1114E-12	1.05922E+0	-22.2653E-3	-43.2125E-12	1.03527E+0	-35.7616E-3
-1.67834E-3	-42.7235E-12	1.05153E+0	-28.9021E-3	-43.1476E-12	1.02748E+0	-19.7067E-3
-1.68334E-3	-43.2781E-12	1.04368E+0	-27.2387E-3	-43.1707E-12	1.02238E+0	-11.3327E-3
-1.68834E-3	-43.8493E-12	1.03978E+0	-19.1245E-3	-43.4952E-12	1.00869E+0	-21.2845E-3
-1.69335E-3	-44.1752E-12	1.03187E+0	-13.5780E-3	-44.3111E-12	990.426E-3	-25.7093E-3
-1.69835E-3	-43.8547E-12	1.02369E+0	-7.22698E-3	-44.6628E-12	985.384E-3	-17.4637E-3
-1.70335E-3	-44.3050E-12	1.01263E+0	-88.2662E-6	-44.2628E-12	989.718E-3	-13.3447E-3
-1.70835E-3	-45.4145E-12	1.00886E+0	1.46984E-3	-44.4671E-12	989.616E-3	-12.4968E-3
-1.71336E-3	-45.7414E-12	1.02071E+0	-3.92827E-3	-45.1211E-12	983.306E-3	-17.7712E-3
-1.71836E-3	-45.6649E-12	1.02792E+0	-7.55089E-3	-45.3055E-12	972.091E-3	-23.1641E-3
-1.72336E-3	-45.5006E-12	1.01177E+0	-5.79777E-3	-45.4624E-12	960.378E-3	-8.16221E-3
-1.72836E-3	-46.5169E-12	987.317E-3	-5.22880E-3	-45.8330E-12	960.822E-3	-3.12524E-3
-1.73337E-3	-47.2405E-12	980.464E-3	-8.70856E-3	-46.2518E-12	966.007E-3	-21.5815E-3
-1.73837E-3	-47.6758E-12	985.654E-3	-7.99173E-3	-46.4234E-12	961.890E-3	-35.7799E-3
-1.74337E-3	-47.4105E-12	991.114E-3	-6.94973E-3	-46.9364E-12	968.171E-3	-40.9946E-3
-1.74837E-3	-47.7438E-12	990.372E-3	-7.17768E-3	-47.7661E-12	983.715E-3	-33.0038E-3
-1.75338E-3	-48.5898E-12	979.605E-3	-3.85282E-3	-47.9951E-12	982.342E-3	-5.02088E-3
-1.75838E-3	-48.4125E-12	971.363E-3	-7.60873E-3	-48.1523E-12	963.838E-3	16.4027E-3
-1.76338E-3	-48.8749E-12	973.843E-3	-6.50160E-3	-48.7366E-12	941.982E-3	6.70532E-3
-1.76838E-3	-49.1241E-12	974.028E-3	-2.52515E-3	-49.3825E-12	934.686E-3	-13.7735E-3
-1.77339E-3	-50.1053E-12	967.495E-3	-13.6959E-3	-49.5472E-12	946.503E-3	-24.0732E-3
-1.77839E-3	-49.6134E-12	958.480E-3	-30.2659E-3	-49.8514E-12	947.845E-3	-31.0990E-3
-1.78339E-3	-49.8196E-12	941.802E-3	-31.7343E-3	-50.1956E-12	916.473E-3	-31.4835E-3
-1.78839E-3	-50.4636E-12	927.310E-3	-22.5129E-3	-50.6878E-12	895.813E-3	-14.3009E-3
-1.79340E-3	-50.9963E-12	934.101E-3	-17.3767E-3	-50.9176E-12	909.779E-3	-2.44593E-3
-1.79840E-3	-51.7256E-12	940.940E-3	-18.1123E-3	-50.8770E-12	914.482E-3	3.22339E-3
-1.80340E-3	-51.7101E-12	929.408E-3	-20.0543E-3	-51.3107E-12	902.932E-3	18.3917E-3
-1.80840E-3	-52.9502E-12	916.186E-3	-15.4181E-3	-51.5360E-12	893.438E-3	8.03509E-3
-1.81341E-3	-52.4844E-12	911.821E-3	-7.92154E-3	-51.7307E-12	880.281E-3	-19.6525E-3
-1.81841E-3	-53.2192E-12	912.937E-3	-18.3412E-3	-51.4419E-12	877.208E-3	-13.3835E-3
-1.82341E-3	-53.2667E-12	915.798E-3	-42.2506E-3	-51.7551E-12	899.819E-3	7.88180E-3
-1.82841E-3	-54.1043E-12	917.355E-3	-41.2026E-3	-52.7919E-12	911.313E-3	8.03379E-3
-1.83342E-3	-54.1007E-12	916.278E-3	-19.8622E-3	-52.9124E-12	904.129E-3	-5.39838E-3
-1.83842E-3	-54.0640E-12	913.238E-3	-17.4304E-3	-53.2842E-12	902.246E-3	-21.3166E-3
-1.84342E-3	-54.2474E-12	909.274E-3	-25.0406E-3	-53.1352E-12	888.937E-3	-28.3030E-3
-1.84842E-3	-54.1292E-12	895.915E-3	-19.5911E-3	-54.3084E-12	878.635E-3	-18.9063E-3
-1.85343E-3	-54.2879E-12	882.122E-3	-15.1597E-3	-54.2618E-12	880.046E-3	-12.5607E-3
-1.85843E-3	-54.6554E-12	872.837E-3	-13.3369E-3	-54.6513E-12	862.258E-3	-26.1219E-3
-1.86343E-3	-55.6031E-12	861.413E-3	-16.9417E-3	-55.2999E-12	838.544E-3	-30.6518E-3
-1.86843E-3	-55.3471E-12	869.046E-3	-39.2283E-3	-56.0007E-12	845.733E-3	-19.9993E-3
-1.87344E-3	-55.0470E-12	888.382E-3	-54.5067E-3	-55.6593E-12	865.413E-3	-24.5207E-3
-1.87844E-3	-55.6908E-12	882.457E-3	-33.5487E-3	-55.7518E-12	863.446E-3	-34.0519E-3
-1.88344E-3	-56.8938E-12	867.341E-3	-12.3041E-3	-56.7840E-12	845.501E-3	-28.9425E-3
-1.88844E-3	-57.2969E-12	876.581E-3	-21.0171E-3	-56.9418E-12	822.531E-3	-23.4153E-3
-1.89345E-3	-56.5817E-12	887.984E-3	-27.6193E-3	-56.8777E-12	819.774E-3	-24.1570E-3
-1.89845E-3	-57.0224E-12	884.298E-3	-22.6274E-3	-56.7002E-12	842.451E-3	-19.0397E-3
-1.90345E-3	-57.5739E-12	882.042E-3	-21.2116E-3	-57.2290E-12	845.478E-3	-9.88566E-3
-1.90845E-3	-58.4969E-12	879.623E-3	-26.7371E-3	-57.4263E-12	831.436E-3	-10.5014E-3
-1.91346E-3	-57.3853E-12	872.698E-3	-28.1559E-3	-57.2003E-12	835.721E-3	-23.3909E-3
-1.91846E-3	-57.4749E-12	864.617E-3	-28.3322E-3	-57.4035E-12	845.178E-3	-35.4099E-3
-1.92346E-3	-57.3480E-12	850.506E-3	-35.5496E-3	-57.2546E-12	835.865E-3	-25.8448E-3
-1.92846E-3	-58.1659E-12	826.702E-3	-46.7440E-3	-57.7937E-12	826.880E-3	-3.47882E-3
-1.93347E-3	-57.8973E-12	803.965E-3	-49.2672E-3	-57.2781E-12	832.998E-3	1.19305E-3
-1.93847E-3	-58.2932E-12	802.494E-3	-27.2098E-3	-57.7411E-12	829.404E-3	-10.6330E-3
-1.94347E-3	-58.4882E-12	811.514E-3	-6.23249E-3	-58.1924E-12	812.255E-3	-21.6026E-3
-1.94847E-3	-58.4903E-12	809.686E-3	-8.14144E-3	-58.8462E-12	804.339E-3	-22.5338E-3
-1.95348E-3	-59.3537E-12	805.917E-3	-17.9485E-3	-58.8228E-12	808.448E-3	-23.3275E-3
-1.95848E-3	-59.4102E-12	807.201E-3	-14.1506E-3	-59.4513E-12	812.693E-3	-15.3187E-3
-1.96348E-3	-60.8186E-12	819.759E-3	-6.83622E-3	-60.3044E-12	817.129E-3	-5.49001E-3
-1.96848E-3	-61.0096E-12	838.140E-3	-15.7086E-3	-60.0823E-12	812.681E-3	-10.5210E-3
-1.97349E-3	-61.1041E-12	835.550E-3	-23.3437E-3	-60.6173E-12	812.400E-3	-12.7590E-3
-1.97849E-3	-61.8985E-12	822.503E-3	-14.9651E-3	-61.1100E-12	828.950E-3	-14.3811E-3
-1.98349E-3	-62.2596E-12	827.737E-3	671.701E-6	-61.8033E-12	824.612E-3	-17.7089E-3
-1.98849E-3	-63.1988E-12	836.130E-3	7.39211E-3	-62.1602E-12	816.006E-3	-2.98762E-3
-1.99350E-3	-63.0329E-12	826.387E-3	-274.885E-6	-62.6195E-12	833.709E-3	6.09202E-3
-1.99850E-3	-63.3234E-12	821.863E-3	-16.9554E-3	-62.8205E-12	836.680E-3	-1.72976E-3
-2.00350E-3	-63.5725E-12	831.443E-3	-32.3385E-3	-62.7361E-12	819.372E-3	3.34947E-3
-2.00850E-3	-63.6459E-12	825.070E-3	-26.3525E-3	-63.1801E-12	805.366E-3	5.16010E-3
-2.01351E-3	-63.5986E-12	815.797E-3	-9.12115E-3	-63.5722E-12	793.398E-3	-15.2883E-3
-2.01851E-3	-63.3871E-12	820.442E-3	-14.6881E-3	-63.9939E-12	783.236E-3	-36.4425E-3
-2.02351E-3	-63.8764E-12	827.537E-3	-25.6619E-3	-63.5556E-12	778.803E-3	-22.2571E-3
-2.02851E-3	-63.8411E-12	826.010E-3	-12.5088E-3	-63.3708E-12	780.742E-3	6.84617E-3
-2.03352E-3	-63.9734E-12	818.173E-3	-3.85170E-3	-63.6260E-12	780.061E-3	8.95018E-3
-2.03852E-3	-63.8965E-12	815.267E-3	-16.6023E-3	-64.7496E-12	774.905E-3	-1.40980E-3
-2.04352E-3	-64.1723E-12	807.945E-3	-15.3722E-3	-64.4248E-12	771.751E-3	-22.7325E-3
-2.04852E-3	-64.6398E-12	793.365E-3	-1.22922E-3	-64.1464E-12	765.167E-3	-34.6849E-3
-2.05353E-3	-65.3705E-12	777.459E-3	-10.5220E-3	-64.6706E-12	760.235E-3	-23.6710E-3
-2.05853E-3	-65.8258E-12	765.804E-3	-21.8262E-3	-65.3472E-12	758.204E-3	-20.8538E-3
-2.06353E-3	-65.8910E-12	763.159E-3	-12.7499E-3	-65.8909E-12	761.996E-3	-18.1089E-3
-2.06853E-3	-66.3824E-12	781.595E-3	-10.1526E-3	-65.3211E-12	786.181E-3	-13.6794E-3
-2.07354E-3	-67.1540E-12	806.029E-3	-8.42582E-3	-65.8896E-12	806.376E-3	-7.03312E-3
-2.07854E-3	-67.8278E-12	803.278E-3	2.89280E-3	-66.6173E-12	802.305E-3	16.1455E-3
-2.08354E-3	-67.6494E-12	784.406E-3	-1.40118E-3	-67.0980E-12	784.632E-3	30.1891E-3
-2.08854E-3	-67.3105E-12	771.687E-3	-17.9285E-3	-67.0862E-12	768.574E-3	16.4963E-3
-2.09355E-3	-67.6647E-12	778.351E-3	-15.6564E-3	-66.9884E-12	760.915E-3	-4.85871E-3
-2.09855E-3	-68.0071E-12	789.446E-3	-12.1818E-3	-67.4616E-12	771.967E-3	-12.8372E-3
-2.10355E-3	-67.7091E-12	781.280E-3	-27.7902E-3	-67.5592E-12	788.287E-3	-15.1116E-3
-2.10855E-3	-67.3416E-12	776.162E-3	-33.5211E-3	-67.8974E-12	775.600E-3	-8.69110E-3
-2.11356E-3	-68.1068E-12	780.792E-3	-21.6639E-3	-68.3410E-12	752.610E-3	486.738E-6
-2.11856E-3	-68.4327E-12	774.905E-3	-11.6999E-3	-68.6153E-12	749.687E-3	-13.6405E-3
-2.12356E-3	-68.2460E-12	767.180E-3	-17.9305E-3	-68.0774E-12	763.821E-3	-21.4563E-3
-2.12856E-3	-68.3041E-12	766.181E-3	-33.6305E-3	-68.6105E-12	787.732E-3	-10.4048E-3
-2.13357E-3	-68.4540E-12	760.665E-3	-37.1636E-3	-69.2771E-12	788.278E-3	-1.98540E-3
-2.13857E-3	-69.1300E-12	750.952E-3	-35.4916E-3	-69.1764E-12	755.021E-3	-6.63241E-3
-2.14357E-3	-68.8374E-12	756.114E-3	-36.4394E-3	-68.6516E-12	743.185E-3	-17.6273E-3
-2.14857E-3	-68.3995E-12	769.412E-3	-33.5703E-3	-68.7772E-12	762.151E-3	-19.6225E-3
-2.15358E-3	-69.4665E-12	769.141E-3	-31.3637E-3	-69.9616E-12	759.852E-3	-12.2998E-3
-2.15858E-3	-70.4783E-12	760.348E-3	-19.4870E-3	-70.7609E-12	741.371E-3	-7.61936E-3
-2.16358E-3	-71.0625E-12	753.166E-3	-5.75332E-3	-70.5551E-12	743.014E-3	-26.0390E-3
-2.16858E-3	-70.5830E-12	750.258E-3	-14.0804E-3	-70.5274E-12	753.026E-3	-44.9191E-3
-2.17359E-3	-70.6518E-12	753.703E-3	-25.1909E-3	-72.0738E-12	755.328E-3	-32.9325E-3
-2.17859E-3	-71.2346E-12	764.359E-3	-24.6758E-3	-73.0035E-12	765.417E-3	-12.0256E-3
-2.18359E-3	-71.7463E-12	770.757E-3	-9.52998E-3	-72.8681E-12	775.311E-3	-9.10359E-3
-2.18859E-3	-71.8881E-12	772.988E-3	20.2555E-3	-72.7759E-12	756.569E-3	-24.0024E-3
-2.19360E-3	-71.6784E-12	766.620E-3	22.9428E-3	-73.6611E-12	738.862E-3	-39.8406E-3
-2.19860E-3	-72.0630E-12	751.874E-3	5.03127E-3	-74.2084E-12	750.126E-3	-41.0923E-3
-2.20360E-3	-72.3564E-12	750.021E-3	-8.47909E-3	-74.0490E-12	763.393E-3	-32.0142E-3
-2.20860E-3	-72.9712E-12	747.173E-3	-26.3142E-3	-73.8837E-12	762.314E-3	-33.9306E-3
-2.21361E-3	-72.3001E-12	729.027E-3	-26.5504E-3	-74.2904E-12	750.127E-3	-37.8783E-3
-2.21861E-3	-72.3553E-12	723.164E-3	-12.3995E-3	-74.0842E-12	731.551E-3	-30.4216E-3
-2.22361E-3	-72.9235E-12	727.869E-3	-14.8235E-3	-73.9085E-12	727.782E-3	-17.5567E-3
-2.22861E-3	-73.2319E-12	730.156E-3	-21.3807E-3	-73.8747E-12	738.039E-3	845.363E-6
-2.23362E-3	-73.2545E-12	741.670E-3	-13.6139E-3	-74.1082E-12	738.886E-3	4.40097E-3
-2.23862E-3	-72.7989E-12	746.831E-3	-14.1685E-3	-73.9984E-12	736.625E-3	-12.3399E-3
-2.24362E-3	-74.1986E-12	732.054E-3	-25.2503E-3	-74.5256E-12	745.176E-3	-29.1992E-3
-2.24862E-3	-75.1517E-12	722.653E-3	-18.1695E-3	-74.8765E-12	753.621E-3	-31.0205E-3
-2.25363E-3	-75.0468E-12	730.957E-3	210.982E-6	-74.6588E-12	751.236E-3	-15.8845E-3
-2.25863E-3	-74.5058E-12	735.517E-3	4.43260E-3	-74.9868E-12	737.917E-3	-5.76617E-3
-2.26363E-3	-75.4065E-12	727.384E-3	-625.148E-6	-75.2591E-12	725.352E-3	-3.92894E-3
-2.26863E-3	-76.3784E-12	723.698E-3	-11.1510E-3	-75.5173E-12	720.420E-3	-5.54867E-3
-2.27364E-3	-76.5658E-12	722.957E-3	-17.9064E-3	-76.1345E-12	725.349E-3	-23.4038E-3
-2.27864E-3	-76.5676E-12	722.745E-3	-7.11819E-3	-76.9820E-12	732.484E-3	-32.8272E-3
-2.28364E-3	-76.5434E-12	730.599E-3	-1.58583E-3	-77.6044E-12	735.525E-3	-11.2677E-3
-2.28864E-3	-77.7693E-12	739.727E-3	-5.34444E-3	-77.8720E-12	744.770E-3	3.86847E-3
-2.29365E-3	-78.3939E-12	745.344E-3	-13.5150E-3	-78.5893E-12	745.897E-3	-5.57622E-3
-2.29865E-3	-78.3727E-12	746.441E-3	-17.8895E-3	-79.6495E-12	731.762E-3	-4.16045E-3
-2.30365E-3	-77.7026E-12	747.864E-3	-8.51143E-3	-79.2870E-12	748.127E-3	8.97628E-3
-2.30865E-3	-78.1457E-12	755.154E-3	-16.3074E-3	-78.8346E-12	772.599E-3	6.15660E-3
-2.31366E-3	-78.6334E-12	764.926E-3	-38.6977E-3	-79.1778E-12	763.454E-3	502.206E-6
-2.31866E-3	-79.0650E-12	757.010E-3	-42.5854E-3	-80.6303E-12	747.403E-3	-4.91248E-3
-2.32366E-3	-78.8065E-12	731.415E-3	-40.8585E-3	-81.6740E-12	737.132E-3	-25.4154E-3
-2.32866E-3	-77.9934E-12	717.774E-3	-45.4038E-3	-80.4631E-12	740.189E-3	-39.4603E-3
-2.33367E-3	-78.4792E-12	714.915E-3	-41.1209E-3	-79.6597E-12	739.482E-3	-28.5134E-3
-2.33867E-3	-78.9130E-12	698.461E-3	-32.7464E-3	-80.0311E-12	723.033E-3	-14.9871E-3
-2.34367E-3	-78.9494E-12	686.777E-3	-29.8366E-3	-81.0695E-12	719.538E-3	-23.1663E-3
-2.34867E-3	-78.2856E-12	691.569E-3	-24.8929E-3	-80.7348E-12	733.792E-3	-28.6211E-3
-2.35368E-3	-79.3738E-12	704.100E-3	-30.7031E-3	-79.5322E-12	752.225E-3	-21.8425E-3
-2.35868E-3	-80.6975E-12	720.492E-3	-42.7550E-3	-80.0689E-12	746.935E-3	-12.1327E-3
-2.36368E-3	-81.0841E-12	725.969E-3	-45.3542E-3	-81.5285E-12	720.405E-3	-2.39039E-3
-2.36868E-3	-80.4285E-12	733.603E-3	-52.6688E-3	-81.8257E-12	714.258E-3	-26.9842E-3
-2.37369E-3	-80.1707E-12	747.061E-3	-41.1559E-3	-79.9889E-12	710.870E-3	-51.3209E-3
-2.37869E-3	-81.8638E-12	746.278E-3	-17.7814E-3	-80.5910E-12	700.669E-3	-27.4931E-3
-2.38369E-3	-83.2436E-12	739.446E-3	-14.5414E-3	-81.7984E-12	710.995E-3	-461.661E-6
-2.38869E-3	-83.1519E-12	737.565E-3	-12.0675E-3	-82.1920E-12	712.516E-3	7.19892E-3
-2.39370E-3	-82.6682E-12	730.575E-3	-13.0348E-3	-81.3842E-12	711.181E-3	12.0516E-3
-2.39870E-3	-83.0526E-12	723.039E-3	-26.4667E-3	-81.4850E-12	728.404E-3	8.95751E-3
-2.40370E-3	-84.2322E-12	721.218E-3	-29.7311E-3	-82.9178E-12	727.625E-3	-5.86952E-3
-2.40870E-3	-85.2589E-12	715.833E-3	-35.0597E-3	-83.8348E-12	713.961E-3	-10.8264E-3
-2.41371E-3	-85.0472E-12	723.654E-3	-51.5203E-3	-84.5994E-12	707.762E-3	-508.998E-6
-2.41871E-3	-84.1711E-12	741.605E-3	-35.0261E-3	-83.5005E-12	710.456E-3	-5.03895E-3
-2.42371E-3	-85.0972E-12	736.639E-3	987.793E-6	-83.7880E-12	715.740E-3	-7.53419E-3
-2.42871E-3	-86.2298E-12	726.833E-3	4.39573E-3	-84.5648E-12	722.280E-3	6.80566E-3
-2.43372E-3	-85.7547E-12	738.311E-3	-12.5488E-3	-85.4664E-12	728.495E-3	-8.86218E-3
-2.43872E-3	-84.8941E-12	731.897E-3	-25.2859E-3	-85.4408E-12	712.918E-3	-26.7363E-3
-2.44372E-3	-84.5205E-12	711.093E-3	-39.2735E-3	-84.6005E-12	708.777E-3	-23.5907E-3
-2.44872E-3	-85.3269E-12	726.152E-3	-37.6239E-3	-85.0827E-12	716.332E-3	-38.1131E-3
-2.45373E-3	-85.6924E-12	741.738E-3	-15.6787E-3	-85.6418E-12	710.285E-3	-34.1434E-3
-2.45873E-3	-85.3106E-12	723.693E-3	-6.64262E-3	-85.5591E-12	717.098E-3	-10.9348E-3
-2.46373E-3	-85.3662E-12	700.887E-3	-9.30814E-3	-84.6960E-12	720.376E-3	-13.5217E-3
-2.46873E-3	-85.7953E-12	686.591E-3	-11.6140E-3	-85.0576E-12	714.566E-3	-17.5734E-3
-2.47374E-3	-87.4142E-12	677.034E-3	-21.3752E-3	-86.7140E-12	726.900E-3	-4.34079E-3
-2.47874E-3	-86.7789E-12	678.015E-3	-31.5740E-3	-87.6850E-12	739.802E-3	-4.95799E-3
-2.48374E-3	-86.8917E-12	696.643E-3	-36.6225E-3	-86.9761E-12	736.417E-3	-16.0718E-3
-2.48874E-3	-87.5998E-12	713.661E-3	-32.0087E-3	-86.8356E-12	720.424E-3	-16.7304E-3
-2.49375E-3	-89.1338E-12	713.596E-3	-16.8375E-3	-88.1164E-12	700.068E-3	-18.4876E-3
-2.49875E-3	-89.3790E-12	710.239E-3	-2.40695E-3	-89.4656E-12	687.521E-3	-15.1387E-3
-2.50375E-3	-88.4397E-12	714.689E-3	1.46606E-3	-88.7076E-12	675.894E-3	-2.04620E-3
-2.50875E-3	-88.3917E-12	715.622E-3	-5.82960E-3	-87.8287E-12	670.551E-3	-256.932E-6
-2.51376E-3	-90.0870E-12	711.736E-3	-15.3223E-3	-88.6747E-12	671.900E-3	-12.6717E-3
-2.51876E-3	-90.1578E-12	713.597E-3	-29.9580E-3	-90.6629E-12	671.722E-3	-6.64707E-3
-2.52376E-3	-89.0648E-12	710.400E-3	-50.1707E-3	-90.4268E-12	682.308E-3	-4.26113E-3
-2.52876E-3	-87.9506E-12	704.542E-3	-42.6664E-3	-89.2608E-12	691.588E-3	-15.6742E-3
-2.53377E-3	-89.0120E-12	701.631E-3	-13.8443E-3	-89.0082E-12	686.001E-3	-4.76898E-3
-2.53877E-3	-89.3467E-12	701.449E-3	-17.5409E-3	-90.5196E-12	686.804E-3	-3.59712E-3
-2.54377E-3	-88.4647E-12	716.072E-3	-36.7094E-3	-90.2288E-12	700.124E-3	-21.8049E-3
-2.54877E-3	-87.3147E-12	723.274E-3	-26.9697E-3	-88.8974E-12	700.945E-3	-25.0211E-3
-2.55378E-3	-88.1723E-12	702.307E-3	-12.0267E-3	-88.6272E-12	690.850E-3	-20.9042E-3
-2.55878E-3	-89.1888E-12	679.894E-3	-12.4448E-3	-90.4789E-12	677.628E-3	-39.8628E-3
-2.56378E-3	-89.4577E-12	674.428E-3	-12.9452E-3	-91.2574E-12	676.709E-3	-54.3506E-3
-2.56878E-3	-89.3210E-12	679.678E-3	-8.80950E-3	-90.3685E-12	699.878E-3	-48.2485E-3
-2.57379E-3	-89.9737E-12	681.239E-3	-5.25231E-3	-89.9724E-12	701.813E-3	-42.0938E-3
-2.57879E-3	-90.3857E-12	678.344E-3	-9.50548E-3	-91.0946E-12	684.595E-3	-24.5875E-3
-2.58379E-3	-91.1568E-12	682.363E-3	-8.73765E-3	-92.7943E-12	693.828E-3	-1.03172E-3
-2.58879E-3	-90.9198E-12	700.679E-3	-4.00345E-3	-92.3820E-12	706.290E-3	8.58762E-3
-2.59380E-3	-91.0391E-12	715.313E-3	-4.94989E-3	-92.3517E-12	705.559E-3	6.19257E-3
-2.59880E-3	-91.2394E-12	697.843E-3	1.37501E-3	-93.0009E-12	706.299E-3	680.351E-6
-2.60380E-3	-92.2227E-12	677.302E-3	7.67736E-3	-94.5506E-12	704.887E-3	-16.1652E-3
-2.60880E-3	-92.9233E-12	674.104E-3	12.8844E-3	-95.3318E-12	711.289E-3	-35.1623E-3
-2.61381E-3	-92.7655E-12	674.319E-3	17.4571E-3	-96.0094E-12	717.553E-3	-25.6680E-3
-2.61881E-3	-92.9934E-12	688.612E-3	-848.833E-6	-94.9897E-12	706.980E-3	-18.0869E-3
-2.62381E-3	-92.6270E-12	701.025E-3	-21.9265E-3	-94.9541E-12	704.017E-3	-15.8107E-3
-2.62881E-3	-92.9052E-12	687.989E-3	-26.7056E-3	-96.2354E-12	712.494E-3	-4.22039E-3
-2.63382E-3	-93.0011E-12	667.265E-3	-27.6970E-3	-95.8360E-12	709.546E-3	-15.9814E-3
-2.63882E-3	-92.9446E-12	664.777E-3	-33.4185E-3	-94.6263E-12	702.287E-3	-29.7104E-3
-2.64382E-3	-93.4418E-12	673.161E-3	-50.1517E-3	-94.6456E-12	698.510E-3	-23.6552E-3
-2.64882E-3	-93.4871E-12	669.012E-3	-55.9541E-3	-95.4454E-12	692.348E-3	-31.0404E-3
-2.65383E-3	-93.6395E-12	671.904E-3	-31.7162E-3	-95.7466E-12	688.570E-3	-40.6161E-3
-2.65883E-3	-93.1350E-12	694.757E-3	-12.7976E-3	-94.6255E-12	682.176E-3	-23.6280E-3
-2.66383E-3	-93.8608E-12	706.131E-3	-16.7909E-3	-93.8299E-12	678.988E-3	-591.526E-6
-2.66883E-3	-94.7829E-12	695.961E-3	-31.7187E-3	-94.9938E-12	670.399E-3	12.6259E-3
-2.67384E-3	-95.5686E-12	694.854E-3	-48.8575E-3	-95.3131E-12	658.191E-3	15.7672E-3
-2.67884E-3	-95.5065E-12	693.523E-3	-47.4725E-3	-94.2636E-12	681.404E-3	1.67181E-3
-2.68384E-3	-95.9143E-12	686.462E-3	-28.1300E-3	-93.9161E-12	702.414E-3	-16.9327E-3
-2.68884E-3	-96.7357E-12	688.189E-3	-5.41774E-3	-94.5826E-12	695.895E-3	-768.581E-6
-2.69385E-3	-97.2946E-12	683.967E-3	-5.93834E-3	-95.6581E-12	698.403E-3	27.1541E-3
-2.69885E-3	-97.6285E-12	684.149E-3	-21.1908E-3	-95.7149E-12	693.436E-3	20.4244E-3
-2.70385E-3	-98.0188E-12	700.376E-3	-7.62768E-3	-95.4657E-12	679.704E-3	15.6914E-3
-2.70885E-3	-98.1465E-12	709.602E-3	-2.28093E-3	-95.9492E-12	687.370E-3	23.8866E-3
-2.71386E-3	-98.3582E-12	716.037E-3	-18.1535E-3	-97.6077E-12	695.809E-3	11.5420E-3
-2.71886E-3	-98.7247E-12	722.484E-3	-11.5425E-3	-98.2789E-12	678.205E-3	3.61950E-3
-2.72386E-3	-98.2659E-12	708.143E-3	-6.72318E-3	-97.7973E-12	667.584E-3	4.21306E-3
-2.72886E-3	-98.2617E-12	700.502E-3	-4.33404E-3	-97.4776E-12	682.049E-3	-3.05878E-3
-2.73387E-3	-97.9706E-12	704.522E-3	2.12381E-3	-97.7508E-12	694.441E-3	-7.35666E-3
-2.73887E-3	-98.5065E-12	686.656E-3	-9.70133E-3	-98.9263E-12	696.807E-3	-4.90380E-3
-2.74387E-3	-98.7985E-12	665.413E-3	-29.2294E-3	-98.4011E-12	677.317E-3	1.26990E-3
-2.74887E-3	-98.8393E-12	668.902E-3	-41.8375E-3	-97.7952E-12	649.569E-3	8.56185E-3
-2.75388E-3	-97.6031E-12	688.691E-3	-39.6399E-3	-97.5935E-12	657.465E-3	2.22477E-3
-2.75888E-3	-97.5836E-12	696.891E-3	-30.6604E-3	-98.4199E-12	674.574E-3	-18.4433E-3
-2.76388E-3	-98.6035E-12	691.706E-3	-21.2723E-3	-99.0594E-12	662.275E-3	-23.9648E-3
-2.76888E-3	-98.7710E-12	682.292E-3	-9.56533E-3	-98.3678E-12	669.805E-3	-13.0915E-3
-2.77389E-3	-98.7342E-12	665.356E-3	-13.5511E-3	-98.5142E-12	690.071E-3	-13.7365E-3
-2.77889E-3	-98.1284E-12	665.181E-3	-26.5343E-3	-98.5453E-12	675.177E-3	-20.2872E-3
-2.78389E-3	-98.5517E-12	671.240E-3	-19.6639E-3	-99.6843E-12	673.854E-3	-16.9492E-3
-2.78889E-3	-99.8090E-12	668.802E-3	-19.4356E-3	-99.9089E-12	684.718E-3	-21.1819E-3
-2.79390E-3	-100.201E-12	683.334E-3	-35.1556E-3	-99.9282E-12	672.353E-3	-42.1674E-3
-2.79890E-3	-99.7707E-12	694.515E-3	-29.0102E-3	-99.8604E-12	676.014E-3	-46.2658E-3
-2.80390E-3	-100.057E-12	689.212E-3	-12.7183E-3	-100.809E-12	690.920E-3	-36.0398E-3
-2.80890E-3	-100.716E-12	686.794E-3	-5.92024E-3	-102.020E-12	680.716E-3	-42.9373E-3
-2.81391E-3	-101.859E-12	681.935E-3	-7.91776E-3	-101.119E-12	667.606E-3	-48.5360E-3
-2.81891E-3	-102.650E-12	668.919E-3	-20.2651E-3	-101.028E-12	660.500E-3	-44.9187E-3
-2.82391E-3	-101.581E-12	667.165E-3	-35.8064E-3	-101.530E-12	646.673E-3	-45.0624E-3
-2.82891E-3	-102.106E-12	670.280E-3	-34.5740E-3	-102.032E-12	642.999E-3	-34.1639E-3
-2.83392E-3	-102.536E-12	661.243E-3	-27.7004E-3	-101.571E-12	663.630E-3	-12.3768E-3
-2.83892E-3	-102.885E-12	654.412E-3	-34.0155E-3	-101.556E-12	675.171E-3	-1.74928E-3
-2.84392E-3	-102.975E-12	665.081E-3	-32.3884E-3	-102.261E-12	671.962E-3	-2.41009E-3
-2.84892E-3	-102.255E-12	689.351E-3	-22.4103E-3	-102.748E-12	686.370E-3	-1.49554E-3
-2.85393E-3	-101.715E-12	698.110E-3	-13.9444E-3	-102.554E-12	698.436E-3	-5.93494E-3
-2.85893E-3	-102.385E-12	689.951E-3	74.2444E-6	-102.056E-12	682.255E-3	-14.7515E-3
-2.86393E-3	-102.878E-12	681.606E-3	17.1899E-3	-102.274E-12	652.659E-3	-6.49268E-3
-2.86893E-3	-102.374E-12	687.338E-3	30.2353E-3	-101.981E-12	640.984E-3	-7.38766E-3
-2.87394E-3	-102.519E-12	691.230E-3	32.3085E-3	-102.946E-12	650.116E-3	-13.5257E-3
-2.87894E-3	-102.796E-12	682.477E-3	16.0043E-3	-102.852E-12	661.411E-3	2.07526E-3
-2.88394E-3	-104.126E-12	683.425E-3	169.111E-6	-102.823E-12	664.322E-3	3.42290E-3
-2.88894E-3	-104.316E-12	689.125E-3	-8.13379E-3	-103.469E-12	659.540E-3	-14.7944E-3
-2.89395E-3	-103.726E-12	685.479E-3	-8.89703E-3	-103.843E-12	659.918E-3	-19.8085E-3
-2.89895E-3	-104.598E-12	672.029E-3	6.29899E-3	-104.527E-12	671.600E-3	-9.47745E-3
-2.90395E-3	-105.094E-12	682.285E-3	5.69428E-3	-104.785E-12	677.785E-3	-13.0818E-3
-2.90895E-3	-107.017E-12	708.905E-3	-15.6126E-3	-105.410E-12	670.653E-3	-36.7738E-3
-2.91396E-3	-105.930E-12	712.383E-3	-14.6313E-3	-105.874E-12	679.390E-3	-48.0702E-3
-2.91896E-3	-105.605E-12	703.364E-3	1.21064E-3	-106.450E-12	688.881E-3	-28.2940E-3
-2.92396E-3	-106.105E-12	698.379E-3	3.07312E-3	-106.516E-12	677.030E-3	-1.69645E-3
-2.92896E-3	-107.854E-12	699.420E-3	2.62934E-3	-106.478E-12	668.676E-3	7.97693E-3
-2.93397E-3	-108.226E-12	676.883E-3	-775.408E-6	-106.471E-12	664.999E-3	10.8729E-3
-2.93897E-3	-106.786E-12	653.084E-3	-15.3320E-3	-106.628E-12	659.765E-3	9.32608E-3
-2.94397E-3	-107.101E-12	661.683E-3	-38.8413E-3	-108.077E-12	661.325E-3	-14.0943E-3
-2.94897E-3	-107.895E-12	656.002E-3	-59.2913E-3	-107.146E-12	665.284E-3	-34.5480E-3
-2.95398E-3	-109.143E-12	647.993E-3	-40.5975E-3	-107.109E-12	674.985E-3	-21.8838E-3
-2.95898E-3	-108.087E-12	651.889E-3	-9.53534E-3	-107.159E-12	689.186E-3	-8.62333E-3
-2.96398E-3	-106.958E-12	663.183E-3	-17.3102E-3	-107.804E-12	677.066E-3	-11.6584E-3
-2.96898E-3	-106.605E-12	678.719E-3	-33.1917E-3	-108.279E-12	657.951E-3	-12.7652E-3
-2.97399E-3	-107.662E-12	667.752E-3	-19.6095E-3	-108.106E-12	663.198E-3	-16.3679E-3
-2.97899E-3	-108.445E-12	654.505E-3	-3.37081E-3	-109.005E-12	661.760E-3	-23.6386E-3
-2.98399E-3	-108.545E-12	665.240E-3	3.21487E-3	-109.243E-12	651.479E-3	-10.9514E-3
-2.98899E-3	-107.753E-12	690.057E-3	-383.388E-6	-109.372E-12	656.182E-3	5.41974E-3
-2.99400E-3	-108.955E-12	706.770E-3	-22.7586E-3	-109.405E-12	655.087E-3	-12.5117E-3
-2.99900E-3	-111.105E-12	699.678E-3	-20.1330E-3	-110.216E-12	653.346E-3	-25.1324E-3
-3.00400E-3	-110.793E-12	678.328E-3	-2.88999E-3	-109.791E-12	673.613E-3	-12.0541E-3
-3.00900E-3	-110.332E-12	668.712E-3	-2.18099E-3	-110.009E-12	666.582E-3	-24.6326E-3
-3.01401E-3	-110.496E-12	677.091E-3	-318.839E-6	-110.176E-12	630.709E-3	-42.1015E-3
-3.01901E-3	-112.352E-12	677.933E-3	-3.03052E-3	-111.060E-12	641.748E-3	-25.5568E-3
-3.02401E-3	-112.698E-12	668.695E-3	-11.6665E-3	-111.651E-12	679.528E-3	-19.9127E-3
-3.02901E-3	-112.849E-12	654.990E-3	-11.1290E-3	-112.353E-12	689.227E-3	-29.4336E-3
-3.03402E-3	-113.379E-12	639.737E-3	-9.85524E-3	-112.980E-12	687.435E-3	-28.0780E-3
-3.03902E-3	-113.675E-12	654.656E-3	-18.0846E-3	-113.143E-12	695.786E-3	-37.8054E-3
-3.04402E-3	-113.924E-12	681.591E-3	-24.5849E-3	-113.077E-12	696.007E-3	-26.3547E-3
-3.04902E-3	-112.297E-12	685.090E-3	-22.0736E-3	-113.901E-12	682.001E-3	9.49220E-3
-3.05403E-3	-113.282E-12	684.257E-3	-13.5359E-3	-114.851E-12	680.237E-3	2.05983E-3
-3.05903E-3	-112.667E-12	681.522E-3	2.14262E-3	-115.152E-12	671.279E-3	-30.1763E-3
-3.06403E-3	-113.011E-12	682.326E-3	1.04240E-3	-115.032E-12	657.255E-3	-36.8290E-3
-3.06903E-3	-112.694E-12	685.877E-3	-24.9407E-3	-114.412E-12	659.340E-3	-35.0468E-3
-3.07404E-3	-113.287E-12	681.995E-3	-27.1374E-3	-113.571E-12	653.952E-3	-23.1535E-3
-3.07904E-3	-113.150E-12	671.422E-3	-11.9700E-3	-114.204E-12	658.972E-3	5.50700E-3
-3.08404E-3	-113.631E-12	659.691E-3	-6.42193E-3	-114.042E-12	671.931E-3	16.2964E-3
-3.08904E-3	-113.969E-12	665.737E-3	1.57786E-3	-113.158E-12	667.954E-3	-4.21457E-3
-3.09405E-3	-113.894E-12	675.964E-3	1.94304E-3	-112.447E-12	679.814E-3	-20.5824E-3
-3.09905E-3	-114.447E-12	667.616E-3	-21.4249E-3	-113.734E-12	698.163E-3	-17.5641E-3
-3.10405E-3	-114.514E-12	653.096E-3	-31.4700E-3	-113.223E-12	679.817E-3	-20.1149E-3
-3.10905E-3	-114.650E-12	639.244E-3	-15.1409E-3	-113.478E-12	661.791E-3	-22.6017E-3
-3.11406E-3	-114.910E-12	615.731E-3	-11.3422E-3	-113.729E-12	664.614E-3	-16.1539E-3
-3.11906E-3	-114.854E-12	614.294E-3	-17.0306E-3	-114.541E-12	651.638E-3	-2.82683E-3
-3.12406E-3	-115.704E-12	637.880E-3	-23.9462E-3	-114.855E-12	633.320E-3	-2.19434E-3
-3.12906E-3	-115.815E-12	638.910E-3	-20.5568E-3	-115.195E-12	634.045E-3	-24.9382E-3
-3.13407E-3	-116.250E-12	628.476E-3	-7.26566E-3	-115.652E-12	653.285E-3	-40.2362E-3
-3.13907E-3	-115.332E-12	632.708E-3	-3.93018E-3	-115.331E-12	676.271E-3	-34.1436E-3
-3.14407E-3	-116.835E-12	641.156E-3	-5.49046E-3	-116.508E-12	683.384E-3	-24.1140E-3
-3.14907E-3	-117.486E-12	658.556E-3	-6.20508E-3	-117.379E-12	688.557E-3	-26.4399E-3
-3.15408E-3	-116.837E-12	666.896E-3	-2.99827E-3	-117.797E-12	695.195E-3	-32.6297E-3
-3.15908E-3	-116.432E-12	660.388E-3	4.67941E-3	-116.777E-12	681.227E-3	-13.2486E-3
-3.16408E-3	-117.436E-12	675.061E-3	11.7139E-3	-116.603E-12	653.100E-3	6.46535E-3
-3.16908E-3	-118.428E-12	688.345E-3	17.9149E-3	-116.618E-12	647.371E-3	-2.14337E-3
-3.17409E-3	-116.750E-12	668.041E-3	6.72961E-3	-116.752E-12	667.863E-3	-16.2739E-3
-3.17909E-3	-116.614E-12	652.406E-3	-21.3894E-3	-115.437E-12	671.891E-3	-23.5066E-3
-3.18409E-3	-116.685E-12	654.783E-3	-21.4205E-3	-115.596E-12	667.666E-3	-18.0633E-3
-3.18909E-3	-117.927E-12	644.193E-3	5.87909E-3	-116.409E-12	671.003E-3	-19.3945E-3
-3.19410E-3	-116.985E-12	642.208E-3	4.76602E-3	-116.463E-12	656.428E-3	-34.1255E-3
-3.19910E-3	-116.437E-12	654.910E-3	-23.6961E-3	-116.811E-12	644.900E-3	-29.6833E-3
-3.20410E-3	-117.220E-12	635.545E-3	-30.2178E-3	-116.424E-12	656.908E-3	-2.77150E-3
-3.20910E-3	-118.242E-12	610.669E-3	-27.3342E-3	-117.521E-12	660.071E-3	10.1222E-3
-3.21411E-3	-119.154E-12	636.351E-3	-30.3067E-3	-117.878E-12	644.509E-3	-4.18324E-3
-3.21911E-3	-118.482E-12	663.100E-3	-23.7236E-3	-118.133E-12	628.181E-3	-20.2929E-3
-3.22411E-3	-118.242E-12	643.162E-3	-24.4945E-3	-118.478E-12	629.539E-3	-24.2655E-3
-3.22911E-3	-119.499E-12	631.703E-3	-24.7642E-3	-119.404E-12	645.599E-3	-20.6666E-3
-3.23412E-3	-120.916E-12	638.029E-3	-4.67765E-3	-120.281E-12	657.787E-3	-21.6200E-3
-3.23912E-3	-121.400E-12	640.513E-3	6.40148E-3	-120.064E-12	675.096E-3	-23.1993E-3
-3.24412E-3	-121.287E-12	662.364E-3	-6.62313E-3	-119.912E-12	673.257E-3	-19.0585E-3
-3.24912E-3	-122.790E-12	685.053E-3	-26.0522E-3	-120.608E-12	662.795E-3	-11.1196E-3
-3.25413E-3	-123.153E-12	680.591E-3	-40.5919E-3	-122.234E-12	679.006E-3	-16.2561E-3
-3.25913E-3	-123.546E-12	684.487E-3	-32.2450E-3	-120.932E-12	663.913E-3	-28.9695E-3
-3.26413E-3	-122.498E-12	680.709E-3	2.12695E-3	-119.622E-12	629.597E-3	-14.6496E-3
-3.26913E-3	-122.744E-12	654.319E-3	1.71159E-3	-119.727E-12	635.377E-3	7.54084E-3
-3.27414E-3	-122.923E-12	649.831E-3	-40.9973E-3	-121.148E-12	645.504E-3	11.6061E-3
-3.27914E-3	-122.752E-12	649.144E-3	-49.6261E-3	-121.055E-12	631.573E-3	9.72101E-3
-3.28414E-3	-121.976E-12	650.010E-3	-36.0610E-3	-120.308E-12	636.523E-3	4.98768E-3
-3.28914E-3	-121.953E-12	667.544E-3	-21.9563E-3	-120.713E-12	657.967E-3	-14.4059E-3
-3.29415E-3	-121.934E-12	667.423E-3	3.49135E-3	-121.837E-12	656.786E-3	-29.1174E-3
-3.29915E-3	-122.440E-12	652.210E-3	-5.57527E-3	-122.778E-12	661.807E-3	-19.0428E-3
-3.30415E-3	-123.692E-12	641.214E-3	-39.3230E-3	-121.822E-12	668.108E-3	-3.27931E-3
-3.30915E-3	-123.279E-12	625.857E-3	-27.8460E-3	-121.792E-12	656.238E-3	1.23028E-3
-3.31416E-3	-123.276E-12	625.371E-3	11.6694E-3	-123.088E-12	657.962E-3	3.34901E-3
-3.31916E-3	-124.167E-12	645.445E-3	8.21841E-3	-124.156E-12	663.528E-3	-3.65036E-3
-3.32416E-3	-125.845E-12	659.479E-3	-27.5100E-3	-123.683E-12	665.866E-3	-27.8349E-3
-3.32916E-3	-125.594E-12	642.804E-3	-53.3144E-3	-123.047E-12	685.302E-3	-30.3810E-3
-3.33417E-3	-125.581E-12	619.197E-3	-56.8059E-3	-124.145E-12	703.170E-3	-21.4818E-3
-3.33917E-3	-125.794E-12	637.577E-3	-42.0371E-3	-124.436E-12	688.716E-3	-17.8603E-3
-3.34417E-3	-126.621E-12	675.724E-3	-30.9363E-3	-124.541E-12	665.354E-3	-227.914E-6
-3.34917E-3	-126.459E-12	697.098E-3	-20.9734E-3	-124.626E-12	659.586E-3	8.86090E-3
-3.35418E-3	-125.823E-12	690.088E-3	-3.91482E-3	-124.601E-12	656.644E-3	-618.295E-6
-3.35918E-3	-125.989E-12	668.933E-3	256.610E-6	-126.208E-12	655.170E-3	1.13812E-3
-3.36418E-3	-126.439E-12	653.796E-3	-21.0330E-3	-126.071E-12	653.006E-3	23.7911E-3
-3.36918E-3	-126.514E-12	653.876E-3	-36.9918E-3	-127.079E-12	640.321E-3	33.8291E-3
-3.37419E-3	-124.987E-12	666.265E-3	-30.5411E-3	-126.439E-12	631.697E-3	25.9376E-3
-3.37919E-3	-124.624E-12	658.495E-3	-26.2947E-3	-126.454E-12	639.490E-3	6.46898E-3
-3.38419E-3	-125.149E-12	643.331E-3	-13.6722E-3	-126.782E-12	642.744E-3	-19.1062E-3
-3.38919E-3	-125.384E-12	628.603E-3	-6.92215E-3	-127.457E-12	647.043E-3	-20.4687E-3
-3.39420E-3	-125.902E-12	621.523E-3	-28.4427E-3	-127.070E-12	656.134E-3	-16.8250E-3
-3.39920E-3	-125.693E-12	651.711E-3	-41.7567E-3	-126.195E-12	652.767E-3	-19.5569E-3
-3.40420E-3	-125.164E-12	677.383E-3	-25.4246E-3	-126.444E-12	650.458E-3	2.70864E-3
-3.40920E-3	-125.782E-12	663.726E-3	-1.30907E-3	-126.541E-12	652.676E-3	8.39194E-3
-3.41421E-3	-126.689E-12	640.499E-3	2.73740E-3	-127.477E-12	646.733E-3	-14.5165E-3
-3.41921E-3	-127.369E-12	655.550E-3	-5.30796E-3	-126.312E-12	644.151E-3	-9.95998E-3
-3.42421E-3	-126.897E-12	679.615E-3	-18.4276E-3	-126.062E-12	661.069E-3	-6.46047E-3
-3.42921E-3	-128.204E-12	672.622E-3	-33.0566E-3	-126.710E-12	680.259E-3	-18.4994E-3
-3.43422E-3	-128.566E-12	665.524E-3	-22.4327E-3	-127.022E-12	671.848E-3	-11.1607E-3
-3.43922E-3	-129.519E-12	657.431E-3	-10.7148E-3	-126.889E-12	640.977E-3	2.56748E-3
-3.44422E-3	-129.123E-12	656.703E-3	-19.3332E-3	-128.423E-12	614.281E-3	-8.55735E-3
-3.44922E-3	-129.269E-12	666.250E-3	-15.2104E-3	-128.942E-12	610.308E-3	-26.1123E-3
-3.45423E-3	-130.064E-12	664.792E-3	-4.90915E-3	-129.832E-12	635.537E-3	-13.4834E-3
-3.45923E-3	-129.143E-12	673.207E-3	-10.2072E-3	-130.737E-12	657.775E-3	12.7718E-3
-3.46423E-3	-129.654E-12	668.206E-3	-12.1815E-3	-131.375E-12	650.693E-3	26.6022E-3
-3.46923E-3	-129.068E-12	641.888E-3	341.727E-6	-131.850E-12	655.910E-3	17.6885E-3
-3.47424E-3	-130.038E-12	640.691E-3	-11.7282E-3	-132.199E-12	683.320E-3	-5.21034E-3
-3.47924E-3	-129.835E-12	652.361E-3	-37.0576E-3	-132.799E-12	694.631E-3	-29.1718E-3
-3.48424E-3	-129.907E-12	639.858E-3	-34.8182E-3	-132.430E-12	691.376E-3	-46.5327E-3
-3.48924E-3	-129.819E-12	619.511E-3	-45.2691E-3	-132.931E-12	673.366E-3	-46.8572E-3
-3.49425E-3	-130.837E-12	649.665E-3	-70.9536E-3	-132.685E-12	638.664E-3	-32.9010E-3
-3.49925E-3	-131.187E-12	683.156E-3	-67.0861E-3	-132.368E-12	622.675E-3	721.803E-6
-3.50425E-3	-130.314E-12	658.792E-3	-47.0640E-3	-131.292E-12	644.577E-3	25.3637E-3
-3.50925E-3	-130.885E-12	647.267E-3	-33.9900E-3	-130.983E-12	655.145E-3	13.3825E-3
-3.51426E-3	-131.484E-12	651.007E-3	-18.0541E-3	-132.166E-12	623.051E-3	-9.26037E-3
-3.51926E-3	-131.690E-12	638.708E-3	-5.11506E-3	-131.735E-12	596.776E-3	-35.0554E-3
-3.52426E-3	-129.981E-12	647.472E-3	-18.3903E-3	-130.228E-12	611.669E-3	-53.6672E-3
-3.52926E-3	-130.815E-12	660.125E-3	-31.9467E-3	-130.644E-12	644.656E-3	-41.5013E-3
-3.53427E-3	-131.557E-12	634.270E-3	-36.9145E-3	-132.073E-12	658.597E-3	-44.6755E-3
-3.53927E-3	-132.116E-12	630.970E-3	-39.6173E-3	-132.791E-12	646.957E-3	-55.3730E-3
-3.54427E-3	-132.206E-12	667.188E-3	-25.6909E-3	-132.500E-12	639.756E-3	-39.6785E-3
-3.54927E-3	-133.507E-12	672.302E-3	-34.9639E-3	-132.691E-12	636.083E-3	-30.7015E-3
-3.55428E-3	-134.499E-12	659.330E-3	-55.3995E-3	-134.303E-12	622.561E-3	-19.2574E-3
-3.55928E-3	-134.558E-12	660.875E-3	-34.7454E-3	-135.263E-12	634.552E-3	-21.6137E-3
-3.56428E-3	-134.488E-12	663.047E-3	-24.0599E-3	-136.025E-12	674.289E-3	-43.6925E-3
-3.56928E-3	-135.956E-12	674.442E-3	-37.4139E-3	-135.146E-12	688.185E-3	-41.1389E-3
-3.57429E-3	-137.076E-12	690.427E-3	-34.6775E-3	-136.398E-12	668.205E-3	-12.5605E-3
-3.57929E-3	-136.714E-12	668.682E-3	-28.8453E-3	-135.874E-12	653.481E-3	11.9608E-3
-3.58429E-3	-136.432E-12	637.664E-3	-22.9734E-3	-135.872E-12	659.674E-3	13.1069E-3
-3.58929E-3	-136.729E-12	636.148E-3	-14.2858E-3	-135.952E-12	665.187E-3	5.59422E-3
-3.59430E-3	-137.206E-12	642.678E-3	-12.7873E-3	-136.624E-12	660.255E-3	747.969E-6
-3.59930E-3	-136.578E-12	659.496E-3	-21.0628E-3	-136.206E-12	651.651E-3	-7.19264E-3
-3.60430E-3	-135.282E-12	679.403E-3	-32.7058E-3	-135.313E-12	633.309E-3	2.39633E-3
-3.60930E-3	-134.945E-12	654.439E-3	-21.6067E-3	-137.552E-12	631.128E-3	23.6031E-3
-3.61431E-3	-136.019E-12	623.244E-3	-9.17126E-3	-137.488E-12	642.824E-3	14.0887E-3
-3.61931E-3	-134.970E-12	642.990E-3	-18.7275E-3	-136.251E-12	637.627E-3	-6.96506E-3
-3.62431E-3	-134.485E-12	666.854E-3	-9.14898E-3	-135.043E-12	648.334E-3	-7.50084E-3
-3.62931E-3	-134.004E-12	654.037E-3	-9.82495E-3	-136.592E-12	661.901E-3	-27.3398E-3
-3.63432E-3	-135.456E-12	650.057E-3	-27.3414E-3	-139.107E-12	638.826E-3	-47.6307E-3
-3.63932E-3	-135.465E-12	648.271E-3	-12.9731E-3	-139.498E-12	624.518E-3	-36.2348E-3
-3.64432E-3	-135.574E-12	622.420E-3	-456.508E-6	-138.945E-12	643.865E-3	-18.2017E-3
-3.64932E-3	-135.402E-12	629.328E-3	-1.73916E-3	-138.781E-12	653.775E-3	-16.8643E-3
-3.65433E-3	-137.938E-12	652.157E-3	-8.86080E-3	-141.374E-12	635.491E-3	-27.5592E-3
-3.65933E-3	-139.252E-12	637.321E-3	-25.0093E-3	-141.787E-12	638.341E-3	-33.1972E-3
-3.66433E-3	-139.465E-12	620.095E-3	-27.2845E-3	-140.772E-12	666.897E-3	-37.2345E-3
-3.66933E-3	-139.684E-12	625.537E-3	-24.1296E-3	-140.183E-12	680.486E-3	-30.1593E-3
-3.67434E-3	-140.548E-12	641.619E-3	-34.0902E-3	-140.723E-12	674.944E-3	-19.9757E-3
-3.67934E-3	-141.516E-12	645.910E-3	-44.1383E-3	-141.159E-12	645.043E-3	-20.5595E-3
-3.68434E-3	-140.809E-12	628.872E-3	-43.9821E-3	-139.876E-12	636.757E-3	-9.04202E-3
-3.68934E-3	-141.039E-12	616.177E-3	-40.0278E-3	-139.395E-12	656.960E-3	6.17273E-3
-3.69435E-3	-141.400E-12	618.592E-3	-38.5003E-3	-138.586E-12	652.458E-3	-2.70489E-3
-3.69935E-3	-141.594E-12	627.531E-3	-20.8197E-3	-139.938E-12	648.631E-3	-14.1268E-3
-3.70435E-3	-141.790E-12	630.280E-3	-15.2181E-3	-139.673E-12	653.286E-3	-12.1694E-3
-3.70935E-3	-140.022E-12	644.079E-3	-38.1230E-3	-139.897E-12	644.623E-3	1.60846E-3
-3.71436E-3	-139.839E-12	669.139E-3	-28.4706E-3	-139.136E-12	646.575E-3	3.23292E-3
-3.71936E-3	-140.212E-12	660.818E-3	-7.98232E-3	-139.143E-12	656.180E-3	-1.70141E-3
-3.72436E-3	-141.593E-12	653.280E-3	-19.7226E-3	-139.543E-12	664.623E-3	11.4272E-3
-3.72936E-3	-141.314E-12	677.080E-3	-20.4790E-3	-140.218E-12	672.351E-3	18.2132E-3
-3.73437E-3	-140.571E-12	688.262E-3	-8.47307E-3	-140.441E-12	671.413E-3	-3.82910E-3
-3.73937E-3	-140.947E-12	687.449E-3	-13.1653E-3	-140.410E-12	655.028E-3	-26.2280E-3
-3.74437E-3	-142.407E-12	669.425E-3	-10.9741E-3	-141.112E-12	626.555E-3	-32.7628E-3
-3.74937E-3	-145.272E-12	632.320E-3	-10.4060E-3	-141.118E-12	633.068E-3	-40.9983E-3
-3.75438E-3	-144.967E-12	630.497E-3	-27.5011E-3	-141.692E-12	654.265E-3	-38.4191E-3
-3.75938E-3	-144.308E-12	653.393E-3	-23.0705E-3	-140.903E-12	638.795E-3	-29.6811E-3
-3.76438E-3	-145.174E-12	656.037E-3	-6.17391E-3	-141.512E-12	632.349E-3	-32.8935E-3
-3.76938E-3	-147.317E-12	655.966E-3	-2.83127E-3	-141.733E-12	651.738E-3	-51.5965E-3
-3.77439E-3	-147.272E-12	671.124E-3	-2.89893E-3	-143.168E-12	641.128E-3	-65.7493E-3
-3.77939E-3	-146.053E-12	668.541E-3	-5.68793E-3	-142.882E-12	624.116E-3	-31.8082E-3
-3.78439E-3	-146.848E-12	647.181E-3	-9.50413E-3	-142.722E-12	625.187E-3	29.0952E-3
-3.78939E-3	-147.509E-12	644.943E-3	-3.89730E-3	-143.031E-12	610.740E-3	54.5677E-3
-3.79440E-3	-148.506E-12	646.563E-3	7.57454E-3	-143.199E-12	599.290E-3	34.4437E-3
-3.79940E-3	-145.664E-12	661.846E-3	-5.20635E-3	-143.375E-12	616.440E-3	9.56958E-3
-3.80440E-3	-145.031E-12	702.739E-3	-25.7584E-3	-143.936E-12	631.211E-3	1.07416E-3
-3.80940E-3	-144.933E-12	713.891E-3	-11.8289E-3	-144.787E-12	633.003E-3	1.65564E-3
-3.81441E-3	-145.103E-12	677.766E-3	8.06049E-3	-144.508E-12	644.241E-3	-2.22508E-3
-3.81941E-3	-145.738E-12	657.774E-3	7.88582E-3	-144.714E-12	653.227E-3	-24.2848E-3
-3.82441E-3	-143.786E-12	663.165E-3	-471.496E-6	-146.132E-12	649.859E-3	-33.0325E-3
-3.82941E-3	-144.052E-12	648.292E-3	-36.2781E-3	-146.748E-12	653.548E-3	-18.1224E-3
-3.83442E-3	-145.046E-12	632.225E-3	-77.6231E-3	-145.211E-12	662.684E-3	-3.22706E-3
-3.83942E-3	-147.230E-12	617.657E-3	-66.0149E-3	-144.423E-12	653.509E-3	17.1179E-3
-3.84442E-3	-145.876E-12	614.729E-3	-38.8413E-3	-146.540E-12	639.881E-3	31.3502E-3
-3.84942E-3	-145.349E-12	652.178E-3	-38.6159E-3	-147.145E-12	644.850E-3	9.56220E-3
-3.85443E-3	-146.720E-12	687.810E-3	-37.8848E-3	-146.098E-12	640.024E-3	-13.8417E-3
-3.85943E-3	-147.731E-12	689.665E-3	-29.5857E-3	-145.899E-12	628.291E-3	-15.2448E-3
-3.86443E-3	-147.979E-12	677.308E-3	-28.9998E-3	-146.981E-12	620.665E-3	-36.8582E-3
-3.86943E-3	-147.863E-12	682.489E-3	-16.2115E-3	-148.595E-12	616.494E-3	-40.7690E-3
-3.87444E-3	-149.410E-12	674.311E-3	-2.01643E-3	-147.787E-12	634.759E-3	-4.22198E-3
-3.87944E-3	-148.847E-12	654.163E-3	-29.6654E-3	-147.018E-12	662.176E-3	-529.514E-6
-3.88444E-3	-149.364E-12	653.967E-3	-52.8976E-3	-148.701E-12	680.248E-3	-23.0862E-3
-3.88944E-3	-148.227E-12	645.240E-3	-10.6795E-3	-150.944E-12	678.199E-3	-23.0786E-3
-3.89445E-3	-148.444E-12	647.822E-3	22.7035E-3	-149.765E-12	666.673E-3	-13.0180E-3
-3.89945E-3	-148.066E-12	669.206E-3	4.13136E-3	-149.325E-12	677.623E-3	-6.16717E-3
-3.90445E-3	-148.040E-12	658.635E-3	-3.90523E-3	-150.611E-12	681.838E-3	-4.91450E-3
-3.90945E-3	-147.777E-12	616.603E-3	-3.50598E-3	-151.177E-12	649.525E-3	-9.49343E-3
-3.91446E-3	-147.790E-12	610.930E-3	-4.49834E-3	-151.397E-12	639.853E-3	-7.01727E-3
-3.91946E-3	-148.959E-12	645.143E-3	-7.85772E-3	-150.621E-12	660.536E-3	-5.96720E-3
-3.92446E-3	-149.139E-12	659.384E-3	-22.8894E-3	-150.488E-12	668.280E-3	-13.4283E-3
-3.92946E-3	-148.750E-12	663.883E-3	-9.52522E-3	-150.947E-12	672.341E-3	5.07793E-3
-3.93447E-3	-148.094E-12	662.933E-3	-2.28322E-3	-151.038E-12	666.040E-3	12.1686E-3
-3.93947E-3	-148.936E-12	628.852E-3	-36.3735E-3	-151.364E-12	650.990E-3	-8.20219E-3
-3.94447E-3	-149.718E-12	610.076E-3	-40.2654E-3	-150.171E-12	646.012E-3	-10.9038E-3
-3.94947E-3	-148.855E-12	620.397E-3	2.55402E-3	-150.388E-12	632.889E-3	-10.1293E-3
-3.95448E-3	-149.225E-12	629.152E-3	11.7376E-3	-151.114E-12	615.741E-3	-29.2110E-3
-3.95948E-3	-149.922E-12	629.063E-3	-9.20940E-3	-152.053E-12	615.645E-3	-51.3695E-3
-3.96448E-3	-150.967E-12	615.629E-3	-16.2419E-3	-151.738E-12	627.140E-3	-41.6192E-3
-3.96948E-3	-150.215E-12	612.678E-3	-25.2429E-3	-152.608E-12	659.175E-3	-34.3332E-3
-3.97449E-3	-151.009E-12	647.607E-3	-35.1194E-3	-152.270E-12	683.768E-3	-53.9383E-3
-3.97949E-3	-151.531E-12	674.762E-3	-42.6095E-3	-153.626E-12	680.068E-3	-60.1472E-3
-3.98449E-3	-153.255E-12	657.744E-3	-53.8575E-3	-153.745E-12	659.430E-3	-43.6732E-3
-3.98949E-3	-152.621E-12	643.688E-3	-64.4408E-3	-153.075E-12	633.518E-3	-13.4134E-3
-3.99450E-3	-153.151E-12	645.141E-3	-44.5287E-3	-153.441E-12	652.061E-3	16.4862E-3
-3.99950E-3	-154.030E-12	650.275E-3	-18.5964E-3	-154.259E-12	682.541E-3	8.02795E-3
-4.00450E-3	-154.149E-12	674.790E-3	-42.5749E-3	-154.955E-12	661.651E-3	-10.7127E-3
-4.00950E-3	-153.649E-12	682.740E-3	-31.0091E-3	-153.616E-12	646.048E-3	-1.05811E-3
-4.01451E-3	-153.208E-12	635.041E-3	25.7632E-3	-153.188E-12	649.938E-3	-1.30471E-3
-4.01951E-3	-154.062E-12	607.776E-3	25.3162E-3	-153.342E-12	645.129E-3	-30.5592E-3
-4.02451E-3	-154.304E-12	636.630E-3	12.9333E-3	-153.741E-12	641.156E-3	-39.1572E-3
-4.02951E-3	-153.540E-12	645.401E-3	10.6696E-3	-152.216E-12	634.985E-3	-21.8651E-3
-4.03452E-3	-152.275E-12	628.098E-3	-22.2375E-3	-150.859E-12	639.114E-3	-14.4196E-3
-4.03952E-3	-152.957E-12	614.698E-3	-24.9101E-3	-151.947E-12	647.359E-3	-17.4492E-3
-4.04452E-3	-152.774E-12	597.805E-3	12.1389E-3	-153.450E-12	636.195E-3	-17.3363E-3
-4.04952E-3	-152.223E-12	596.892E-3	14.1229E-3	-154.972E-12	620.765E-3	-4.99583E-3
-4.05453E-3	-151.866E-12	621.875E-3	-8.20154E-3	-153.243E-12	621.808E-3	3.23497E-3
-4.05953E-3	-153.198E-12	655.825E-3	-14.8940E-3	-153.549E-12	638.183E-3	-332.136E-6
-4.06453E-3	-152.688E-12	669.613E-3	-31.2286E-3	-155.809E-12	650.552E-3	-927.385E-6
-4.06953E-3	-153.170E-12	655.655E-3	-46.9184E-3	-157.461E-12	657.750E-3	-4.85344E-3
-4.07454E-3	-154.972E-12	646.201E-3	-41.7011E-3	-157.887E-12	665.767E-3	-21.7736E-3
-4.07954E-3	-156.318E-12	644.856E-3	-56.1788E-3	-157.794E-12	664.719E-3	-19.1783E-3
-4.08454E-3	-157.021E-12	647.625E-3	-65.9698E-3	-157.681E-12	658.977E-3	1.88984E-3
-4.08954E-3	-157.849E-12	656.494E-3	-27.6305E-3	-158.221E-12	652.065E-3	18.4355E-3
-4.09455E-3	-159.208E-12	668.297E-3	5.77627E-3	-160.316E-12	658.237E-3	18.4941E-3
-4.09955E-3	-160.972E-12	685.975E-3	1.67645E-3	-159.702E-12	667.262E-3	322.788E-6
-4.10455E-3	-160.990E-12	687.580E-3	4.57091E-3	-157.909E-12	664.364E-3	-3.76915E-3
-4.10955E-3	-160.523E-12	669.011E-3	9.64382E-3	-156.715E-12	652.405E-3	-2.13136E-3
-4.11456E-3	-160.757E-12	671.207E-3	2.12717E-3	-158.505E-12	632.123E-3	-16.6326E-3
-4.11956E-3	-160.203E-12	680.560E-3	14.7363E-3	-158.855E-12	630.916E-3	-35.2153E-3
-4.12456E-3	-159.469E-12	663.064E-3	10.9148E-3	-156.608E-12	653.704E-3	-57.4023E-3
-4.12956E-3	-158.697E-12	654.432E-3	-17.9227E-3	-154.942E-12	653.233E-3	-67.1062E-3
-4.13457E-3	-159.979E-12	638.669E-3	-20.5844E-3	-155.551E-12	625.785E-3	-37.5011E-3
-4.13957E-3	-158.796E-12	608.757E-3	-24.2219E-3	-156.620E-12	622.940E-3	-13.4004E-3
-4.14457E-3	-158.030E-12	620.712E-3	-26.0287E-3	-157.304E-12	632.922E-3	-15.7998E-3
-4.14957E-3	-157.863E-12	645.435E-3	14.6358E-3	-155.713E-12	630.724E-3	-23.1034E-3
-4.15458E-3	-157.549E-12	637.210E-3	37.6593E-3	-157.026E-12	637.040E-3	-25.5395E-3
-4.15958E-3	-158.393E-12	636.699E-3	8.54804E-3	-158.732E-12	651.761E-3	10.7928E-3
-4.16458E-3	-158.585E-12	639.486E-3	917.088E-6	-159.248E-12	653.111E-3	40.7568E-3
-4.16958E-3	-160.357E-12	609.776E-3	18.7355E-3	-159.085E-12	655.082E-3	10.0277E-3
-4.17459E-3	-161.073E-12	599.897E-3	3.14661E-3	-160.324E-12	657.444E-3	-31.7708E-3
-4.17959E-3	-161.619E-12	624.485E-3	2.53310E-3	-163.196E-12	645.743E-3	-37.4372E-3
-4.18459E-3	-161.963E-12	629.487E-3	25.3545E-3	-163.910E-12	655.627E-3	-12.8419E-3
-4.18959E-3	-164.122E-12	613.484E-3	-11.7108E-3	-163.139E-12	673.399E-3	-2.56513E-3
-4.19460E-3	-165.329E-12	611.847E-3	-31.6287E-3	-162.835E-12	664.620E-3	-11.2727E-3
-4.19960E-3	-165.464E-12	621.467E-3	13.4371E-3	-164.757E-12	648.456E-3	-9.87602E-3
-4.20460E-3	-165.107E-12	648.627E-3	14.8527E-3	-163.383E-12	636.797E-3	-12.0921E-3
-4.20960E-3	-165.125E-12	675.968E-3	-4.63041E-3	-162.430E-12	624.540E-3	-32.7703E-3
-4.21461E-3	-166.551E-12	653.721E-3	9.49701E-3	-163.747E-12	626.167E-3	-51.0755E-3
-4.21961E-3	-166.162E-12	620.114E-3	9.87135E-3	-163.639E-12	634.521E-3	-26.8258E-3
-4.22461E-3	-164.309E-12	635.010E-3	-5.11411E-3	-163.966E-12	634.169E-3	11.9539E-3
-4.22961E-3	-161.969E-12	663.322E-3	4.11512E-3	-162.680E-12	648.656E-3	21.2640E-3
-4.23462E-3	-162.223E-12	672.153E-3	1.80203E-3	-163.750E-12	653.531E-3	3.80124E-3
-4.23962E-3	-163.666E-12	682.363E-3	-17.1678E-3	-163.498E-12	645.187E-3	-25.6750E-3
-4.24462E-3	-163.156E-12	680.572E-3	-20.9780E-3	-163.193E-12	650.306E-3	-32.9998E-3
-4.24962E-3	-161.252E-12	654.665E-3	-58.5517E-3	-163.326E-12	657.491E-3	-24.6859E-3
-4.25463E-3	-161.650E-12	638.488E-3	-97.3977E-3	-163.993E-12	672.940E-3	-7.66098E-3
-4.25963E-3	-163.519E-12	644.026E-3	-69.2963E-3	-163.867E-12	683.535E-3	11.7788E-3
-4.26463E-3	-163.607E-12	647.990E-3	-26.4755E-3	-163.600E-12	658.412E-3	14.7180E-3
-4.26963E-3	-163.479E-12	637.107E-3	-20.1959E-3	-163.916E-12	618.374E-3	18.6233E-3
-4.27464E-3	-163.734E-12	611.230E-3	-12.7155E-3	-162.590E-12	608.909E-3	9.92471E-3
-4.27964E-3	-165.832E-12	598.113E-3	7.28902E-3	-162.878E-12	627.681E-3	-10.6490E-3
-4.28464E-3	-167.119E-12	620.897E-3	-6.70112E-3	-162.815E-12	641.407E-3	-15.4947E-3
-4.28964E-3	-166.845E-12	635.589E-3	-36.2399E-3	-163.337E-12	628.263E-3	-22.7477E-3
-4.29465E-3	-167.319E-12	636.821E-3	-49.0477E-3	-162.959E-12	619.962E-3	-28.4156E-3
-4.29965E-3	-167.218E-12	646.080E-3	-54.0156E-3	-163.319E-12	625.783E-3	-33.4029E-3
-4.30465E-3	-168.267E-12	649.985E-3	-55.4423E-3	-164.238E-12	624.309E-3	-47.0886E-3
-4.30965E-3	-169.046E-12	644.897E-3	-55.8552E-3	-165.639E-12	637.954E-3	-54.5801E-3
-4.31466E-3	-167.223E-12	640.165E-3	-49.4740E-3	-165.735E-12	658.417E-3	-44.1311E-3
-4.31966E-3	-167.124E-12	637.521E-3	-11.8429E-3	-165.669E-12	668.549E-3	-36.3979E-3
-4.32466E-3	-167.229E-12	630.382E-3	22.0438E-3	-166.784E-12	658.559E-3	-50.4650E-3
-4.32966E-3	-168.167E-12	626.492E-3	8.75921E-3	-167.905E-12	638.390E-3	-56.4827E-3
-4.33467E-3	-167.275E-12	634.872E-3	4.34714E-3	-169.388E-12	643.328E-3	-57.9792E-3
-4.33967E-3	-167.125E-12	660.114E-3	22.2998E-3	-167.561E-12	666.150E-3	-45.8573E-3
-4.34467E-3	-167.096E-12	679.656E-3	13.4707E-3	-167.888E-12	669.641E-3	-9.75991E-3
-4.34967E-3	-168.507E-12	663.860E-3	-6.44301E-3	-169.029E-12	636.461E-3	3.16921E-3
-4.35468E-3	-167.738E-12	614.552E-3	-22.2007E-3	-166.888E-12	612.333E-3	-7.68591E-3
-4.35968E-3	-166.821E-12	587.887E-3	-32.7657E-3	-166.704E-12	607.170E-3	-1.48749E-3
-4.36468E-3	-168.865E-12	617.417E-3	-32.3358E-3	-165.963E-12	594.761E-3	16.9961E-3
-4.36968E-3	-167.997E-12	646.956E-3	-47.4379E-3	-167.203E-12	602.761E-3	1.54474E-3
-4.37469E-3	-167.559E-12	636.795E-3	-65.9088E-3	-166.363E-12	633.850E-3	-42.4987E-3
-4.37969E-3	-168.050E-12	635.388E-3	-48.4064E-3	-165.612E-12	650.249E-3	-50.6615E-3
-4.38469E-3	-170.852E-12	640.005E-3	-12.3427E-3	-166.253E-12	645.911E-3	-21.7853E-3
-4.38969E-3	-169.976E-12	610.306E-3	3.47568E-3	-168.601E-12	672.040E-3	-12.4896E-3
-4.39470E-3	-169.705E-12	616.549E-3	-2.12456E-3	-169.073E-12	687.350E-3	-20.4842E-3
-4.39970E-3	-169.896E-12	655.505E-3	-3.45919E-3	-167.836E-12	654.823E-3	-23.5378E-3
-4.40470E-3	-172.788E-12	670.085E-3	-6.09273E-3	-170.265E-12	647.400E-3	-34.2027E-3
-4.40970E-3	-174.578E-12	668.708E-3	-15.9691E-3	-171.019E-12	650.116E-3	-49.2140E-3
-4.41471E-3	-173.105E-12	659.412E-3	-11.8773E-3	-173.235E-12	624.350E-3	-22.1560E-3
-4.41971E-3	-172.177E-12	635.799E-3	-5.39698E-3	-172.683E-12	619.428E-3	19.9173E-3
-4.42471E-3	-174.995E-12	613.278E-3	-6.43323E-3	-174.403E-12	657.602E-3	6.67719E-3
-4.42971E-3	-177.978E-12	622.958E-3	-2.61056E-3	-174.136E-12	674.266E-3	-13.9895E-3
-4.43472E-3	-177.213E-12	648.700E-3	-16.1776E-3	-173.256E-12	665.376E-3	-16.5276E-3
-4.43972E-3	-175.225E-12	669.154E-3	-46.2718E-3	-173.053E-12	667.157E-3	-18.2449E-3
-4.44472E-3	-175.915E-12	658.950E-3	-34.0766E-3	-171.354E-12	662.285E-3	-1.17058E-3
-4.44972E-3	-177.201E-12	632.292E-3	-15.3398E-3	-171.478E-12	642.671E-3	-1.48376E-3
-4.45473E-3	-177.098E-12	628.865E-3	-44.7990E-3	-170.713E-12	608.295E-3	-36.2271E-3
-4.45973E-3	-175.211E-12	633.960E-3	-61.1218E-3	-171.409E-12	581.908E-3	-40.3167E-3
-4.46473E-3	-173.746E-12	634.363E-3	-37.8984E-3	-169.872E-12	594.202E-3	-21.7866E-3
-4.46973E-3	-174.043E-12	634.562E-3	-40.3428E-3	-169.383E-12	622.696E-3	-33.2348E-3
-4.47474E-3	-173.545E-12	641.162E-3	-51.4817E-3	-169.912E-12	635.724E-3	-40.1005E-3
-4.47974E-3	-172.084E-12	637.604E-3	-31.9203E-3	-171.474E-12	646.961E-3	-33.8182E-3
-4.48474E-3	-170.642E-12	640.710E-3	-17.2536E-3	-172.808E-12	668.238E-3	-41.6611E-3
-4.48974E-3	-172.165E-12	654.730E-3	-2.10109E-3	-172.771E-12	653.046E-3	-32.6433E-3
-4.49475E-3	-174.191E-12	639.793E-3	5.66020E-3	-174.651E-12	623.885E-3	-10.2728E-3
-4.49975E-3	-175.217E-12	642.412E-3	-11.0362E-3	-175.967E-12	622.438E-3	-17.5819E-3
-4.50475E-3	-172.776E-12	679.632E-3	-21.0932E-3	-177.638E-12	625.341E-3	-30.5967E-3
-4.50975E-3	-174.398E-12	692.969E-3	-44.0868E-3	-178.532E-12	636.244E-3	-19.5511E-3
-4.51476E-3	-177.922E-12	674.623E-3	-63.3714E-3	-180.442E-12	648.458E-3	-31.0096E-3
-4.51976E-3	-180.302E-12	665.067E-3	-23.6934E-3	-180.877E-12	650.000E-3	-62.0295E-3
-4.52476E-3	-177.578E-12	651.072E-3	14.4078E-3	-179.862E-12	659.305E-3	-45.6267E-3
-4.52976E-3	-178.032E-12	616.985E-3	5.19182E-3	-179.511E-12	666.650E-3	-24.3248E-3
-4.53477E-3	-180.729E-12	605.261E-3	-21.2328E-3	-177.435E-12	631.007E-3	-22.1414E-3
-4.53977E-3	-184.093E-12	616.951E-3	-27.8994E-3	-178.566E-12	594.385E-3	-10.5832E-3
-4.54477E-3	-182.100E-12	623.079E-3	-2.59501E-3	-176.877E-12	602.705E-3	71.9601E-6
-4.54977E-3	-179.875E-12	639.592E-3	18.9496E-3	-175.391E-12	605.967E-3	8.30762E-3
-4.55478E-3	-178.295E-12	668.158E-3	20.9339E-3	-174.230E-12	584.444E-3	-3.30490E-3
-4.55978E-3	-180.741E-12	677.647E-3	8.89866E-3	-174.627E-12	585.744E-3	-20.4853E-3
-4.56478E-3	-179.674E-12	659.740E-3	-1.10833E-3	-174.404E-12	615.431E-3	-28.2767E-3
-4.56978E-3	-175.232E-12	641.002E-3	42.1867E-3	-174.339E-12	611.068E-3	-37.0530E-3
-4.57479E-3	-173.530E-12	652.864E-3	76.5587E-3	-174.814E-12	573.808E-3	-33.7397E-3
-4.57979E-3	-174.861E-12	660.081E-3	33.0561E-3	-175.637E-12	573.449E-3	-40.8911E-3
-4.58479E-3	-176.744E-12	648.888E-3	-5.55817E-3	-176.241E-12	604.995E-3	-48.5277E-3
-4.58979E-3	-176.498E-12	649.766E-3	-13.2015E-3	-175.982E-12	633.850E-3	-41.8750E-3
-4.59480E-3	-176.540E-12	645.619E-3	-15.1753E-3	-179.722E-12	637.875E-3	-16.0037E-3
-4.59980E-3	-176.595E-12	655.936E-3	-5.83844E-3	-179.805E-12	635.717E-3	25.7683E-3
-4.60480E-3	-179.434E-12	658.381E-3	-3.70265E-3	-180.324E-12	665.286E-3	6.57731E-3
-4.60980E-3	-181.596E-12	630.649E-3	-16.5000E-3	-179.480E-12	679.576E-3	-40.4986E-3
-4.61481E-3	-181.468E-12	622.137E-3	-10.6526E-3	-180.877E-12	670.122E-3	-8.60684E-3
-4.61981E-3	-182.303E-12	633.276E-3	632.123E-6	-182.617E-12	669.644E-3	20.1951E-3
-4.62481E-3	-183.225E-12	654.834E-3	-17.8131E-3	-181.846E-12	656.091E-3	-4.70374E-3
-4.62981E-3	-185.080E-12	663.687E-3	-27.8882E-3	-180.984E-12	623.624E-3	-8.63731E-3
-4.63482E-3	-183.728E-12	665.057E-3	-22.3778E-3	-180.344E-12	601.440E-3	-20.0790E-3
-4.63982E-3	-183.146E-12	668.419E-3	-30.1492E-3	-183.169E-12	612.941E-3	-53.5412E-3
-4.64482E-3	-182.702E-12	662.351E-3	-31.8042E-3	-183.669E-12	632.534E-3	-53.6443E-3
-4.64982E-3	-183.388E-12	663.509E-3	-17.9117E-3	-181.662E-12	622.448E-3	-19.7644E-3
-4.65483E-3	-181.689E-12	652.403E-3	-1.51495E-3	-181.770E-12	619.825E-3	5.08014E-3
-4.65983E-3	-179.602E-12	626.493E-3	11.9075E-3	-182.473E-12	627.616E-3	-4.36030E-3
-4.66483E-3	-180.317E-12	604.058E-3	23.4985E-3	-185.164E-12	617.879E-3	-2.12829E-3
-4.66983E-3	-180.609E-12	593.028E-3	13.6468E-3	-184.345E-12	624.851E-3	31.2021E-3
-4.67484E-3	-179.701E-12	608.362E-3	-18.7775E-3	-183.815E-12	630.284E-3	37.2506E-3
-4.67984E-3	-178.450E-12	639.269E-3	-19.0188E-3	-182.046E-12	616.684E-3	5.67030E-3
-4.68484E-3	-181.384E-12	650.043E-3	2.07524E-3	-183.540E-12	636.637E-3	-47.9431E-3
-4.68984E-3	-181.994E-12	640.088E-3	7.12745E-3	-183.380E-12	672.864E-3	-68.2597E-3
-4.69485E-3	-182.095E-12	638.843E-3	3.75142E-3	-183.396E-12	677.352E-3	-2.97631E-3
-4.69985E-3	-181.943E-12	641.767E-3	-12.5331E-3	-182.367E-12	669.458E-3	27.1785E-3
-4.70485E-3	-183.915E-12	651.367E-3	-37.2574E-3	-183.046E-12	651.730E-3	-13.3941E-3
-4.70985E-3	-187.357E-12	663.769E-3	-48.4714E-3	-185.465E-12	625.453E-3	-29.3695E-3
-4.71486E-3	-187.773E-12	649.185E-3	-40.9782E-3	-184.770E-12	633.209E-3	-30.7438E-3
-4.71986E-3	-188.297E-12	644.775E-3	-17.5901E-3	-184.361E-12	676.297E-3	-32.2154E-3
-4.72486E-3	-187.135E-12	670.012E-3	9.77840E-3	-182.580E-12	697.820E-3	-23.2035E-3
-4.72986E-3	-189.800E-12	675.192E-3	-2.76581E-3	-185.532E-12	662.506E-3	-16.1334E-3
-4.73487E-3	-189.937E-12	673.649E-3	-53.1852E-3	-186.084E-12	594.051E-3	-27.2266E-3
-4.73987E-3	-187.216E-12	694.193E-3	-69.9572E-3	-186.604E-12	557.058E-3	-42.7751E-3
-4.74487E-3	-186.326E-12	681.459E-3	-44.7563E-3	-186.193E-12	591.345E-3	-38.7410E-3
-4.74988E-3	-186.603E-12	641.840E-3	-28.7333E-3	-187.730E-12	637.383E-3	-16.0540E-3
-4.75488E-3	-187.218E-12	621.792E-3	-17.1312E-3	-190.621E-12	642.350E-3	-1.40844E-3
-4.75988E-3	-186.329E-12	614.325E-3	-274.684E-6	-190.374E-12	661.867E-3	-1.03573E-3
-4.76488E-3	-186.991E-12	612.375E-3	3.48741E-3	-190.001E-12	702.188E-3	6.46634E-3
-4.76988E-3	-186.316E-12	625.985E-3	14.9550E-3	-188.829E-12	687.391E-3	23.0001E-3
-4.77489E-3	-187.363E-12	660.019E-3	35.5570E-3	-189.779E-12	645.737E-3	37.1112E-3
-4.77989E-3	-187.955E-12	680.821E-3	4.25731E-3	-189.328E-12	641.267E-3	21.6092E-3
-4.78489E-3	-187.461E-12	677.331E-3	-36.5759E-3	-190.062E-12	653.901E-3	-885.228E-6
-4.78989E-3	-187.818E-12	649.240E-3	-33.5771E-3	-189.306E-12	671.071E-3	7.70064E-3
-4.79490E-3	-188.085E-12	619.144E-3	-42.5716E-3	-188.484E-12	678.525E-3	-11.5823E-3
-4.79990E-3	-188.139E-12	620.341E-3	-60.1438E-3	-188.523E-12	666.791E-3	-40.9983E-3
-4.80490E-3	-187.981E-12	637.074E-3	-46.3947E-3	-188.210E-12	648.267E-3	-21.5899E-3
-4.80990E-3	-188.574E-12	661.112E-3	1.31769E-3	-187.729E-12	623.858E-3	-2.33221E-3
-4.81491E-3	-186.789E-12	682.842E-3	38.0564E-3	-187.980E-12	619.384E-3	8.80169E-3
-4.81991E-3	-187.449E-12	665.705E-3	17.9890E-3	-188.967E-12	631.379E-3	30.3391E-3
-4.82491E-3	-188.010E-12	627.836E-3	-21.5572E-3	-190.510E-12	611.311E-3	43.4543E-3
-4.82991E-3	-188.005E-12	629.032E-3	-36.7835E-3	-189.795E-12	603.151E-3	25.9076E-3
-4.83492E-3	-187.358E-12	650.758E-3	-45.6092E-3	-189.078E-12	627.368E-3	-513.324E-6
-4.83992E-3	-187.691E-12	632.676E-3	-45.5271E-3	-191.423E-12	638.313E-3	-2.22070E-3
-4.84492E-3	-189.791E-12	594.086E-3	-16.8178E-3	-194.098E-12	663.165E-3	-12.7832E-3
-4.84992E-3	-190.498E-12	608.253E-3	8.52056E-3	-193.455E-12	676.410E-3	-19.3551E-3
-4.85493E-3	-190.685E-12	642.778E-3	8.94991E-3	-191.205E-12	649.769E-3	-15.6537E-3
-4.85993E-3	-191.410E-12	634.615E-3	-5.62401E-3	-191.682E-12	614.269E-3	-27.4889E-3
-4.86493E-3	-192.717E-12	632.941E-3	-16.1425E-3	-193.751E-12	600.613E-3	2.47738E-3
-4.86993E-3	-192.648E-12	628.745E-3	-17.6929E-3	-192.336E-12	629.703E-3	41.3942E-3
-4.87494E-3	-193.061E-12	610.578E-3	-18.3985E-3	-191.282E-12	627.959E-3	32.1245E-3
-4.87994E-3	-193.113E-12	632.202E-3	-16.0655E-3	-190.668E-12	598.540E-3	31.9092E-3
-4.88494E-3	-193.289E-12	657.606E-3	-19.6750E-3	-189.800E-12	635.388E-3	21.6514E-3
-4.88995E-3	-193.077E-12	661.155E-3	-30.6166E-3	-188.473E-12	671.081E-3	-20.0765E-3
-4.89495E-3	-192.455E-12	670.996E-3	-35.4279E-3	-187.979E-12	653.586E-3	-38.5770E-3
-4.89995E-3	-191.969E-12	687.013E-3	-36.8930E-3	-187.652E-12	638.897E-3	-20.4586E-3
-4.90495E-3	-192.517E-12	695.264E-3	-31.6371E-3	-186.786E-12	621.246E-3	-19.8904E-3
-4.90995E-3	-192.605E-12	698.943E-3	-17.2193E-3	-188.009E-12	610.491E-3	-29.4942E-3
-4.91496E-3	-192.028E-12	696.060E-3	-10.9876E-3	-189.563E-12	629.659E-3	-7.81801E-3
-4.91996E-3	-191.520E-12	696.484E-3	-32.8947E-3	-190.276E-12	646.552E-3	-8.48597E-3
-4.92496E-3	-192.586E-12	683.983E-3	-53.2961E-3	-191.080E-12	646.046E-3	-25.8023E-3
-4.92996E-3	-193.438E-12	654.898E-3	-32.5146E-3	-191.098E-12	645.561E-3	-13.9261E-3
-4.93497E-3	-193.354E-12	660.312E-3	-514.186E-6	-192.600E-12	642.221E-3	-17.0723E-3
-4.93997E-3	-193.897E-12	692.954E-3	20.0862E-3	-194.542E-12	652.753E-3	-30.5253E-3
-4.94497E-3	-195.618E-12	703.852E-3	5.13382E-3	-194.892E-12	702.686E-3	-19.9793E-3
-4.94997E-3	-196.650E-12	701.136E-3	-48.3201E-3	-194.171E-12	725.637E-3	-7.80073E-3
-4.95498E-3	-197.189E-12	693.393E-3	-67.4949E-3	-194.925E-12	681.851E-3	-27.1011E-3
-4.95998E-3	-197.580E-12	667.159E-3	-54.9320E-3	-196.439E-12	636.801E-3	-58.3105E-3
-4.96498E-3	-196.783E-12	641.366E-3	-62.8087E-3	-194.671E-12	632.650E-3	-53.3783E-3
-4.96998E-3	-198.008E-12	631.361E-3	-33.1206E-3	-193.226E-12	651.800E-3	-32.4392E-3
-4.97499E-3	-198.422E-12	662.614E-3	24.4271E-3	-191.544E-12	650.097E-3	-8.91015E-3
-4.97999E-3	-196.488E-12	685.463E-3	27.2393E-3	-193.727E-12	625.240E-3	15.7057E-3
-4.98499E-3	-193.553E-12	661.912E-3	10.8207E-3	-193.571E-12	614.825E-3	5.62952E-3
-4.98999E-3	-194.172E-12	649.225E-3	25.7218E-3	-192.438E-12	612.824E-3	-13.4534E-3
-4.99500E-3	-195.820E-12	642.365E-3	50.3686E-3	-190.191E-12	622.806E-3	-22.4906E-3
-5.00000E-3	-194.198E-12	636.133E-3	22.0499E-3	-191.656E-12	637.655E-3	-21.3736E-3
