Experiment	bias spectroscopy	
Date	19.01.2016 18:28:30	
User		
X (m)	51.2902E-9	
Y (m)	256.779E-9	
Z (m)	-132.714E-9	
Z offset (m)	0E+0	
Settling time (s)	200E-6	
Integration time (s)	5E-3	
Z-Ctrl hold	TRUE	
Final Z (m)	N/A	
Filter type	None	
Order		
Cutoff frq		
Comment01	MnPc/Pb(111)	
Comment02	dz =00pm	
Comment03	7 Sweeps	
Comment04	MagField =0.T	
Comment05	Divider 1:10	
Comment06	Setpoint:5mV,200 pA	
Comment07	Lockin: 50uVrms,5ms,5mV	
Comment08	Gain:9; 912Hz modulation	
Comment09	T=1.06K	
Bias>Bias (V)	5E-3	
Bias>Calibration (V/V)	81.475E-3	
Bias>Offset (V)	1.046E-3	
Bias Spectroscopy>Sweep Start (V)	5E-3	
Bias Spectroscopy>Sweep End (V)	-5E-3	
Bias Spectroscopy>Num Pixel	2000	
Bias Spectroscopy>Z Avg time (s)	500E-3	
Bias Spectroscopy>Z offset (m)	0E+0	
Bias Spectroscopy>1st Settling time (s)	500E-3	
Bias Spectroscopy>Settling time (s)	200E-6	
Bias Spectroscopy>Integration time (s)	5E-3	
Bias Spectroscopy>End Settling time (s)	500E-3	
Bias Spectroscopy>Z control time (s)	500E-3	
Bias Spectroscopy>Max Slew rate (V/s)	Inf	
Bias Spectroscopy>backward sweep	TRUE	
Bias Spectroscopy>Z-controller hold	TRUE	
Bias Spectroscopy>Number of sweeps	7	
Bias Spectroscopy>Channels	Current (A);X% LockIn (V);Y% LockIn (V)	
Bias Spectroscopy>Reset Bias	TRUE	
Bias Spectroscopy>Record final Z	FALSE	
Bias Spectroscopy>Lock-In run	FALSE	
Bias Spectroscopy>Sweep mode	Linear	
Bias Spectroscopy>MultiLine Settings : Segment Start (V), Segment End (V), Settling (s), Integration (s), Steps (xn)	100E-3,3.3E-3,100E-6,10E-3,2500;3.3E-3,-3.3E-3,100E-6,10E-3,10;-3.3E-3,-100E-3,100E-6,10E-3,2500	
Current>Current (A)	200.139E-12	
Current>Calibration (A/V)	999.99900E-12	
Current>Offset (A)	-455.429E-15	
Current>Gain	LN 10^9	
Z-Controller>Z (m)	-132.716E-9	
Z-Controller>Controller name	log Current	
Z-Controller>Controller status	ON	
Z-Controller>Setpoint	200E-12	
Z-Controller>Setpoint unit	A	
Z-Controller>P gain	2.96994E-12	
Z-Controller>I gain	67.0321E-9	
Z-Controller>Time const (s)	44.3062E-6	
Z-Controller>TipLift (m)	0E+0	
Z-Controller>Switch off delay (s)	50E-3	
Current (A)	199.917E-12	
Z (m)	-132.716E-9	

[DATA]
Bias calc (V)	Current (A)	X% LockIn (V)	Y% LockIn (V)	Current [bwd] (A)	X% LockIn [bwd] (V)	Y% LockIn [bwd] (V)
5.00000E-3	203.986E-12	664.913E-3	-73.6364E-3	198.280E-12	651.040E-3	2.77277E-3
4.99500E-3	205.471E-12	673.635E-3	-50.9724E-3	197.949E-12	646.408E-3	1.40809E-3
4.98999E-3	205.206E-12	680.712E-3	-10.6344E-3	196.633E-12	656.477E-3	-10.9502E-3
4.98499E-3	204.569E-12	656.958E-3	2.19424E-3	197.723E-12	662.549E-3	-2.11461E-3
4.97999E-3	202.522E-12	641.120E-3	-1.64759E-3	200.610E-12	653.621E-3	9.81290E-3
4.97499E-3	203.232E-12	654.476E-3	-4.05587E-3	199.575E-12	658.681E-3	-23.9963E-3
4.96998E-3	201.476E-12	673.914E-3	-2.53984E-3	197.620E-12	672.049E-3	-80.4076E-3
4.96498E-3	200.059E-12	677.716E-3	-13.7231E-3	199.151E-12	676.872E-3	-74.5781E-3
4.95998E-3	197.881E-12	663.506E-3	-32.0385E-3	201.736E-12	678.146E-3	-18.0250E-3
4.95498E-3	196.445E-12	678.956E-3	-32.4389E-3	199.896E-12	654.495E-3	8.67657E-3
4.94997E-3	195.638E-12	691.682E-3	-20.8248E-3	199.780E-12	623.867E-3	14.5941E-3
4.94497E-3	194.807E-12	658.828E-3	-3.88848E-3	200.640E-12	625.210E-3	18.3365E-3
4.93997E-3	194.220E-12	641.856E-3	19.5195E-3	201.161E-12	646.347E-3	-2.99478E-3
4.93497E-3	193.460E-12	671.417E-3	19.8889E-3	200.469E-12	649.535E-3	-11.8694E-3
4.92996E-3	194.953E-12	687.035E-3	9.95737E-3	200.510E-12	631.108E-3	8.58163E-3
4.92496E-3	195.137E-12	669.383E-3	-19.5879E-3	198.765E-12	618.381E-3	-2.33201E-3
4.91996E-3	194.867E-12	643.186E-3	-57.0675E-3	197.906E-12	626.582E-3	-45.8215E-3
4.91496E-3	194.900E-12	627.219E-3	-57.2664E-3	198.546E-12	658.788E-3	-42.7920E-3
4.90995E-3	196.182E-12	623.131E-3	-19.7325E-3	196.916E-12	685.926E-3	-4.61526E-3
4.90495E-3	196.915E-12	643.517E-3	-3.62569E-3	193.863E-12	672.744E-3	836.897E-6
4.89995E-3	197.141E-12	672.446E-3	-38.5335E-3	194.760E-12	650.144E-3	-29.6966E-3
4.89495E-3	196.134E-12	681.830E-3	-59.4428E-3	194.535E-12	670.093E-3	-63.3534E-3
4.88995E-3	197.961E-12	678.109E-3	-48.7712E-3	192.609E-12	701.364E-3	-72.6689E-3
4.88494E-3	197.506E-12	655.270E-3	-4.25834E-3	192.502E-12	687.532E-3	-52.3601E-3
4.87994E-3	196.790E-12	633.905E-3	37.2817E-3	193.806E-12	653.306E-3	-30.3830E-3
4.87494E-3	194.260E-12	643.947E-3	6.63978E-3	194.205E-12	639.550E-3	-31.1168E-3
4.86993E-3	196.039E-12	670.693E-3	-42.7884E-3	193.317E-12	656.549E-3	-37.8375E-3
4.86493E-3	195.109E-12	669.009E-3	-42.4254E-3	194.575E-12	693.935E-3	-39.5966E-3
4.85993E-3	193.685E-12	665.945E-3	-20.2689E-3	193.914E-12	709.836E-3	-21.4677E-3
4.85493E-3	191.523E-12	677.019E-3	-3.92875E-3	195.674E-12	698.883E-3	-2.12774E-3
4.84992E-3	191.179E-12	659.489E-3	4.61114E-3	197.130E-12	678.919E-3	-5.32098E-3
4.84492E-3	192.247E-12	638.067E-3	3.12780E-3	196.257E-12	659.575E-3	-38.8488E-3
4.83992E-3	191.044E-12	645.188E-3	15.6730E-3	196.278E-12	661.600E-3	-79.7430E-3
4.83492E-3	190.298E-12	672.092E-3	25.2123E-3	195.427E-12	666.446E-3	-68.7086E-3
4.82991E-3	189.744E-12	692.039E-3	-4.45690E-3	196.009E-12	638.259E-3	-28.8019E-3
4.82491E-3	189.369E-12	688.504E-3	-36.4893E-3	194.365E-12	614.610E-3	-18.8807E-3
4.81991E-3	191.184E-12	658.530E-3	-34.2648E-3	194.092E-12	636.558E-3	-35.3639E-3
4.81491E-3	189.373E-12	613.621E-3	-17.4488E-3	191.902E-12	674.817E-3	-30.6030E-3
4.80990E-3	189.335E-12	602.236E-3	-11.0599E-3	191.081E-12	699.722E-3	28.0764E-3
4.80490E-3	187.561E-12	634.306E-3	-7.57644E-3	190.324E-12	697.289E-3	70.6954E-3
4.79990E-3	189.564E-12	646.288E-3	-13.6684E-3	190.073E-12	662.813E-3	34.4662E-3
4.79490E-3	191.601E-12	632.529E-3	-27.5813E-3	187.089E-12	637.285E-3	-25.2398E-3
4.78989E-3	190.350E-12	625.200E-3	-27.0980E-3	186.395E-12	648.035E-3	-39.9811E-3
4.78489E-3	189.345E-12	612.197E-3	-3.37566E-3	188.601E-12	651.980E-3	-13.6243E-3
4.77989E-3	190.428E-12	613.865E-3	12.7190E-3	186.438E-12	633.199E-3	-3.30341E-3
4.77489E-3	193.211E-12	636.209E-3	-3.53307E-3	187.540E-12	636.326E-3	-20.4692E-3
4.76988E-3	191.743E-12	642.366E-3	-13.4813E-3	186.821E-12	651.242E-3	-49.7811E-3
4.76488E-3	192.085E-12	632.637E-3	-1.01684E-3	188.139E-12	644.405E-3	-62.4480E-3
4.75988E-3	190.504E-12	616.594E-3	14.7440E-3	189.372E-12	639.070E-3	-30.4040E-3
4.75488E-3	191.146E-12	625.680E-3	21.8415E-3	191.689E-12	661.290E-3	4.46388E-3
4.74988E-3	189.586E-12	668.880E-3	12.7794E-3	190.717E-12	683.667E-3	2.64972E-3
4.74487E-3	189.400E-12	683.129E-3	-8.23579E-3	190.037E-12	664.992E-3	-16.6776E-3
4.73987E-3	187.839E-12	670.751E-3	-20.6965E-3	193.025E-12	642.088E-3	-35.0963E-3
4.73487E-3	185.718E-12	658.217E-3	-21.1081E-3	192.106E-12	654.435E-3	-48.8205E-3
4.72986E-3	185.692E-12	650.853E-3	-13.2640E-3	189.778E-12	666.422E-3	-30.5284E-3
4.72486E-3	184.376E-12	660.786E-3	6.36699E-3	190.523E-12	658.829E-3	-12.5856E-3
4.71986E-3	183.861E-12	669.095E-3	15.3290E-3	189.697E-12	635.631E-3	-31.4553E-3
4.71486E-3	182.118E-12	637.480E-3	-9.71512E-3	187.947E-12	613.616E-3	-46.3874E-3
4.70985E-3	182.574E-12	599.343E-3	-31.8428E-3	186.371E-12	644.663E-3	-19.3844E-3
4.70485E-3	181.940E-12	629.434E-3	-26.1604E-3	186.221E-12	686.360E-3	26.7476E-3
4.69985E-3	182.863E-12	676.293E-3	-1.98218E-3	184.204E-12	639.941E-3	29.0192E-3
4.69485E-3	183.565E-12	670.337E-3	-5.43413E-3	184.338E-12	601.258E-3	-10.8915E-3
4.68984E-3	184.581E-12	652.528E-3	-34.5822E-3	182.752E-12	652.627E-3	-57.2967E-3
4.68484E-3	187.264E-12	647.542E-3	-31.0312E-3	181.767E-12	671.647E-3	-62.9419E-3
4.67984E-3	187.359E-12	649.188E-3	-27.6440E-3	181.937E-12	641.471E-3	-12.6331E-3
4.67484E-3	189.903E-12	687.307E-3	-48.5740E-3	182.825E-12	635.820E-3	3.20584E-3
4.66983E-3	189.347E-12	720.942E-3	-44.3177E-3	183.034E-12	629.652E-3	-38.5250E-3
4.66483E-3	191.055E-12	697.152E-3	-16.8011E-3	183.162E-12	624.911E-3	-54.3870E-3
4.65983E-3	192.247E-12	655.410E-3	-4.18923E-3	184.750E-12	648.646E-3	-41.7984E-3
4.65483E-3	190.892E-12	658.386E-3	11.0506E-3	186.178E-12	688.477E-3	-33.8383E-3
4.64982E-3	188.863E-12	681.318E-3	16.6110E-3	186.565E-12	695.461E-3	-11.9779E-3
4.64482E-3	187.382E-12	685.276E-3	-4.72185E-3	185.735E-12	661.422E-3	-3.53959E-3
4.63982E-3	187.769E-12	676.063E-3	-38.7996E-3	187.679E-12	642.020E-3	-25.2404E-3
4.63482E-3	184.525E-12	662.167E-3	-36.8195E-3	189.082E-12	668.547E-3	-22.1050E-3
4.62981E-3	181.903E-12	678.771E-3	-9.08060E-3	188.671E-12	703.830E-3	15.6351E-3
4.62481E-3	180.552E-12	676.336E-3	-13.6546E-3	185.325E-12	694.277E-3	46.8437E-3
4.61981E-3	179.356E-12	642.770E-3	-14.5090E-3	185.328E-12	664.881E-3	23.0944E-3
4.61481E-3	178.732E-12	634.391E-3	-2.35412E-3	185.917E-12	647.027E-3	-26.7159E-3
4.60980E-3	177.799E-12	637.082E-3	-5.55294E-3	184.752E-12	630.430E-3	-22.2034E-3
4.60480E-3	177.877E-12	631.887E-3	-4.11241E-3	182.285E-12	642.283E-3	25.3935E-3
4.59980E-3	177.845E-12	633.219E-3	3.18831E-3	180.918E-12	679.338E-3	55.9819E-3
4.59480E-3	180.752E-12	646.675E-3	-20.4381E-3	181.657E-12	668.132E-3	35.7577E-3
4.58979E-3	181.502E-12	649.782E-3	-40.2447E-3	181.370E-12	631.348E-3	-13.9721E-3
4.58479E-3	181.301E-12	637.900E-3	-28.8458E-3	180.450E-12	628.500E-3	-40.4628E-3
4.57979E-3	182.597E-12	645.832E-3	-24.5957E-3	178.705E-12	651.488E-3	-20.7029E-3
4.57479E-3	185.035E-12	663.711E-3	-21.5535E-3	179.797E-12	648.633E-3	19.0285E-3
4.56978E-3	186.641E-12	666.408E-3	-16.1327E-3	179.062E-12	618.191E-3	29.9568E-3
4.56478E-3	185.686E-12	694.721E-3	-17.5954E-3	180.205E-12	617.053E-3	-1.78347E-3
4.55978E-3	185.007E-12	698.003E-3	6.70199E-3	181.476E-12	644.127E-3	-38.3346E-3
4.55478E-3	184.853E-12	659.366E-3	24.2397E-3	180.400E-12	661.994E-3	-32.5494E-3
4.54977E-3	185.515E-12	658.153E-3	-117.074E-6	179.986E-12	665.976E-3	-460.118E-6
4.54477E-3	182.154E-12	676.813E-3	-25.0598E-3	182.252E-12	655.594E-3	-3.80964E-3
4.53977E-3	180.151E-12	660.245E-3	-36.0347E-3	182.523E-12	647.964E-3	-14.6736E-3
4.53477E-3	179.300E-12	620.203E-3	-20.0128E-3	179.922E-12	668.119E-3	-15.6501E-3
4.52976E-3	176.763E-12	617.100E-3	18.0730E-3	179.452E-12	683.164E-3	-24.1256E-3
4.52476E-3	175.172E-12	637.008E-3	18.2225E-3	181.789E-12	676.294E-3	3.77329E-3
4.51976E-3	174.218E-12	632.340E-3	-11.6403E-3	180.609E-12	666.159E-3	20.8226E-3
4.51476E-3	174.326E-12	628.431E-3	-12.3382E-3	179.162E-12	656.867E-3	-19.0539E-3
4.50975E-3	174.596E-12	628.232E-3	7.18031E-3	178.496E-12	661.857E-3	-34.6455E-3
4.50475E-3	175.093E-12	619.763E-3	-11.5708E-3	179.369E-12	681.324E-3	-19.5536E-3
4.49975E-3	174.407E-12	641.375E-3	-42.2010E-3	177.507E-12	680.617E-3	-27.0965E-3
4.49475E-3	175.325E-12	654.836E-3	-23.2920E-3	176.873E-12	648.195E-3	-39.8644E-3
4.48974E-3	177.101E-12	633.033E-3	1.59964E-3	176.291E-12	625.452E-3	-40.5468E-3
4.48474E-3	177.340E-12	627.506E-3	-3.71528E-3	174.178E-12	639.304E-3	-39.8299E-3
4.47974E-3	177.934E-12	656.345E-3	19.6461E-3	173.541E-12	652.029E-3	-25.3688E-3
4.47474E-3	177.534E-12	676.175E-3	42.0326E-3	173.659E-12	638.363E-3	10.0272E-3
4.46973E-3	179.180E-12	666.618E-3	7.19435E-3	173.693E-12	605.540E-3	13.5924E-3
4.46473E-3	178.088E-12	679.781E-3	-19.2212E-3	171.899E-12	590.008E-3	-19.7163E-3
4.45973E-3	177.855E-12	689.916E-3	-22.2574E-3	174.283E-12	628.990E-3	-42.3551E-3
4.45473E-3	176.595E-12	652.863E-3	-25.8100E-3	174.346E-12	690.579E-3	-49.4978E-3
4.44972E-3	175.913E-12	644.764E-3	-1.28669E-3	174.937E-12	699.064E-3	-32.9936E-3
4.44472E-3	174.071E-12	672.611E-3	10.3208E-3	176.541E-12	661.897E-3	10.7918E-3
4.43972E-3	174.243E-12	664.394E-3	-21.6394E-3	177.238E-12	668.235E-3	33.5958E-3
4.43472E-3	173.299E-12	644.577E-3	-37.6014E-3	176.195E-12	697.059E-3	-878.174E-6
4.42971E-3	172.235E-12	627.688E-3	-25.6279E-3	177.393E-12	684.185E-3	-42.3711E-3
4.42471E-3	172.268E-12	615.875E-3	-15.6180E-3	179.121E-12	675.146E-3	-41.6463E-3
4.41971E-3	171.739E-12	641.203E-3	-17.0842E-3	176.783E-12	695.589E-3	-35.2907E-3
4.41471E-3	171.734E-12	646.437E-3	-29.3759E-3	177.398E-12	692.450E-3	-55.4370E-3
4.40970E-3	171.686E-12	617.827E-3	-44.8826E-3	176.643E-12	676.961E-3	-54.9006E-3
4.40470E-3	171.311E-12	621.373E-3	-23.6908E-3	177.568E-12	692.444E-3	-28.2722E-3
4.39970E-3	171.096E-12	649.036E-3	21.0744E-3	175.883E-12	679.827E-3	991.778E-6
4.39470E-3	171.261E-12	668.600E-3	29.8332E-3	174.990E-12	635.057E-3	25.9344E-3
4.38969E-3	171.735E-12	679.882E-3	10.5714E-3	172.999E-12	629.161E-3	26.7215E-3
4.38469E-3	172.499E-12	673.405E-3	-10.8820E-3	172.459E-12	665.315E-3	15.2649E-3
4.37969E-3	172.338E-12	653.695E-3	-21.4629E-3	173.133E-12	701.628E-3	303.711E-6
4.37469E-3	173.097E-12	659.940E-3	-16.0031E-3	171.708E-12	692.435E-3	-15.9444E-3
4.36968E-3	173.185E-12	692.033E-3	-5.48508E-3	170.549E-12	664.807E-3	-32.4085E-3
4.36468E-3	173.076E-12	695.039E-3	-10.7434E-3	169.062E-12	652.680E-3	-33.8643E-3
4.35968E-3	173.383E-12	662.315E-3	-36.2052E-3	169.739E-12	654.078E-3	-25.5903E-3
4.35468E-3	173.100E-12	643.961E-3	-46.2887E-3	169.500E-12	672.006E-3	-31.6446E-3
4.34967E-3	173.744E-12	645.753E-3	-27.2059E-3	170.490E-12	680.637E-3	-27.1742E-3
4.34467E-3	173.726E-12	648.619E-3	-17.8928E-3	170.218E-12	672.670E-3	-6.53376E-3
4.33967E-3	173.748E-12	672.924E-3	-26.1165E-3	170.877E-12	672.798E-3	-7.33993E-3
4.33467E-3	172.934E-12	697.796E-3	-32.6561E-3	172.873E-12	679.835E-3	-33.0628E-3
4.32966E-3	173.035E-12	684.470E-3	-25.4536E-3	173.015E-12	674.529E-3	-35.4825E-3
4.32466E-3	173.019E-12	674.352E-3	-17.6228E-3	173.299E-12	676.162E-3	-8.32921E-3
4.31966E-3	171.534E-12	692.439E-3	-34.1497E-3	173.069E-12	691.915E-3	17.1062E-3
4.31466E-3	171.404E-12	704.234E-3	-54.3585E-3	174.463E-12	679.854E-3	7.30765E-3
4.30965E-3	169.243E-12	694.009E-3	-58.7880E-3	174.321E-12	659.853E-3	-39.2003E-3
4.30465E-3	169.722E-12	678.515E-3	-43.0653E-3	173.110E-12	644.472E-3	-49.1726E-3
4.29965E-3	167.161E-12	662.130E-3	-10.5965E-3	172.804E-12	634.856E-3	-33.2344E-3
4.29465E-3	167.277E-12	646.328E-3	7.91182E-3	170.854E-12	648.448E-3	-31.8385E-3
4.28964E-3	166.147E-12	644.187E-3	-13.7908E-3	170.843E-12	638.566E-3	-16.7081E-3
4.28464E-3	165.794E-12	633.433E-3	-36.0803E-3	169.549E-12	633.301E-3	-16.3529E-3
4.27964E-3	165.825E-12	627.350E-3	-18.6542E-3	168.361E-12	661.975E-3	-47.5058E-3
4.27464E-3	165.616E-12	629.948E-3	18.9609E-3	165.835E-12	660.725E-3	-50.7886E-3
4.26963E-3	165.653E-12	613.579E-3	20.8913E-3	165.769E-12	639.045E-3	-24.5402E-3
4.26463E-3	166.449E-12	610.529E-3	-26.6458E-3	165.036E-12	641.022E-3	-15.6382E-3
4.25963E-3	169.082E-12	634.889E-3	-68.6713E-3	164.311E-12	636.567E-3	-11.0333E-3
4.25463E-3	168.665E-12	636.784E-3	-71.5090E-3	164.110E-12	636.955E-3	7.21666E-3
4.24962E-3	169.254E-12	623.401E-3	-39.2823E-3	164.053E-12	685.612E-3	8.09942E-3
4.24462E-3	169.161E-12	643.285E-3	-18.8039E-3	165.120E-12	721.665E-3	-13.5657E-3
4.23962E-3	170.125E-12	672.483E-3	-34.0124E-3	167.367E-12	705.738E-3	-15.1005E-3
4.23462E-3	171.261E-12	670.843E-3	-57.4928E-3	168.736E-12	700.836E-3	-11.7500E-3
4.22961E-3	169.238E-12	658.518E-3	-47.3910E-3	167.509E-12	699.556E-3	-33.6263E-3
4.22461E-3	167.954E-12	669.299E-3	488.526E-6	168.316E-12	680.656E-3	-45.5587E-3
4.21961E-3	166.419E-12	679.667E-3	33.6140E-3	170.216E-12	672.821E-3	-23.6041E-3
4.21461E-3	167.174E-12	673.233E-3	12.9370E-3	169.729E-12	650.113E-3	-9.57519E-3
4.20960E-3	164.906E-12	655.021E-3	-21.2108E-3	168.775E-12	617.764E-3	-24.2006E-3
4.20460E-3	161.059E-12	623.641E-3	-20.8566E-3	166.846E-12	632.918E-3	-15.8467E-3
4.19960E-3	160.493E-12	598.918E-3	-15.7395E-3	167.174E-12	681.240E-3	2.34193E-3
4.19460E-3	160.549E-12	609.059E-3	858.190E-6	167.295E-12	676.961E-3	728.682E-6
4.18959E-3	160.881E-12	638.678E-3	5.93688E-3	164.905E-12	634.539E-3	7.69882E-3
4.18459E-3	158.389E-12	654.523E-3	-24.1647E-3	164.463E-12	612.150E-3	1.86612E-3
4.17959E-3	158.100E-12	641.958E-3	-24.5824E-3	162.699E-12	608.612E-3	-25.7696E-3
4.17459E-3	159.323E-12	628.502E-3	9.12470E-3	162.462E-12	637.020E-3	-26.1592E-3
4.16958E-3	160.698E-12	638.597E-3	14.8761E-3	163.123E-12	673.007E-3	-13.1376E-3
4.16458E-3	162.187E-12	653.531E-3	8.63733E-3	162.254E-12	672.613E-3	-32.2237E-3
4.15958E-3	161.039E-12	652.360E-3	3.55751E-3	159.279E-12	661.547E-3	-51.8795E-3
4.15458E-3	161.611E-12	623.533E-3	224.757E-6	160.464E-12	686.113E-3	-54.5016E-3
4.14957E-3	165.271E-12	615.251E-3	13.3146E-3	162.674E-12	705.093E-3	-47.6475E-3
4.14457E-3	166.362E-12	647.946E-3	-880.084E-6	161.316E-12	679.240E-3	-25.5315E-3
4.13957E-3	164.812E-12	673.852E-3	-27.8037E-3	160.728E-12	670.137E-3	2.62571E-3
4.13457E-3	166.078E-12	668.724E-3	-30.3043E-3	162.488E-12	673.418E-3	12.5819E-3
4.12956E-3	167.592E-12	664.096E-3	-33.3638E-3	163.033E-12	645.557E-3	-6.05198E-3
4.12456E-3	164.447E-12	689.017E-3	-18.5824E-3	162.783E-12	648.419E-3	-14.8688E-3
4.11956E-3	162.594E-12	709.002E-3	6.85795E-3	162.621E-12	685.896E-3	33.0718E-6
4.11456E-3	161.516E-12	695.920E-3	6.82363E-3	161.951E-12	696.250E-3	18.6858E-3
4.10955E-3	159.882E-12	671.037E-3	8.41595E-3	162.143E-12	686.213E-3	23.8416E-3
4.10455E-3	159.136E-12	663.032E-3	-9.44292E-3	164.717E-12	670.056E-3	8.09253E-3
4.09955E-3	157.544E-12	662.011E-3	-30.5144E-3	161.266E-12	660.253E-3	-11.3204E-3
4.09455E-3	155.546E-12	642.391E-3	-6.86828E-3	159.901E-12	668.019E-3	-19.2376E-3
4.08954E-3	155.172E-12	639.831E-3	17.1603E-3	160.292E-12	660.328E-3	-19.8436E-3
4.08454E-3	156.358E-12	664.284E-3	6.37279E-3	161.940E-12	623.953E-3	-19.3002E-3
4.07954E-3	155.308E-12	659.990E-3	-15.5719E-3	159.788E-12	595.642E-3	-4.33255E-3
4.07454E-3	155.488E-12	643.224E-3	-23.7375E-3	158.036E-12	609.847E-3	9.35343E-3
4.06953E-3	156.809E-12	647.834E-3	-17.4493E-3	157.271E-12	636.626E-3	909.022E-6
4.06453E-3	158.385E-12	659.104E-3	-7.99078E-3	157.683E-12	641.508E-3	-5.13160E-3
4.05953E-3	159.422E-12	665.008E-3	-16.9432E-3	157.164E-12	656.489E-3	-7.13787E-3
4.05453E-3	159.587E-12	658.471E-3	-37.8639E-3	155.710E-12	693.264E-3	-34.2221E-3
4.04952E-3	159.842E-12	659.310E-3	-31.2037E-3	156.263E-12	704.706E-3	-50.0592E-3
4.04452E-3	160.105E-12	679.694E-3	-3.15428E-3	157.290E-12	703.618E-3	-31.7544E-3
4.03952E-3	161.888E-12	698.391E-3	8.69791E-3	158.080E-12	708.702E-3	-32.3417E-3
4.03452E-3	161.605E-12	703.428E-3	-1.55233E-3	157.185E-12	683.153E-3	-60.4467E-3
4.02951E-3	158.542E-12	695.130E-3	-21.9445E-3	158.502E-12	652.912E-3	-81.8957E-3
4.02451E-3	157.839E-12	662.532E-3	-28.4161E-3	158.262E-12	650.596E-3	-74.2180E-3
4.01951E-3	157.909E-12	632.929E-3	-7.61872E-3	158.575E-12	660.170E-3	-41.8438E-3
4.01451E-3	157.639E-12	643.273E-3	12.4856E-3	159.093E-12	656.581E-3	-7.28404E-3
4.00950E-3	154.980E-12	662.973E-3	3.56581E-3	158.999E-12	650.937E-3	-9.15961E-3
4.00450E-3	154.294E-12	661.649E-3	-30.4151E-3	159.797E-12	651.904E-3	-48.7564E-3
3.99950E-3	154.196E-12	667.321E-3	-37.0382E-3	158.422E-12	655.540E-3	-64.2992E-3
3.99450E-3	154.519E-12	670.375E-3	-6.22113E-3	158.965E-12	682.070E-3	-42.7492E-3
3.98949E-3	154.612E-12	660.873E-3	19.6531E-3	158.195E-12	692.292E-3	-14.7337E-3
3.98449E-3	152.822E-12	680.312E-3	11.7262E-3	158.947E-12	669.349E-3	-20.1332E-3
3.97949E-3	152.819E-12	715.310E-3	-24.3728E-3	157.141E-12	644.271E-3	-42.5475E-3
3.97449E-3	154.151E-12	725.902E-3	-37.9836E-3	156.589E-12	635.616E-3	-31.6813E-3
3.96948E-3	156.232E-12	701.005E-3	-22.8482E-3	154.716E-12	661.747E-3	-10.6325E-3
3.96448E-3	154.689E-12	680.325E-3	-13.6029E-3	154.647E-12	680.400E-3	-4.35506E-3
3.95948E-3	155.151E-12	688.044E-3	-10.3006E-3	154.702E-12	629.850E-3	-13.0788E-3
3.95448E-3	156.535E-12	680.917E-3	-18.9318E-3	152.116E-12	576.990E-3	-21.5828E-3
3.94947E-3	156.999E-12	648.616E-3	-35.5239E-3	151.653E-12	603.444E-3	-24.9566E-3
3.94447E-3	156.489E-12	648.642E-3	-19.9453E-3	151.950E-12	655.323E-3	-37.2566E-3
3.93947E-3	155.218E-12	691.823E-3	673.750E-6	151.848E-12	676.058E-3	-43.2463E-3
3.93447E-3	155.179E-12	706.672E-3	-26.1157E-3	151.278E-12	674.601E-3	-17.5900E-3
3.92946E-3	157.148E-12	682.009E-3	-64.7885E-3	151.204E-12	656.143E-3	10.9591E-3
3.92446E-3	155.898E-12	659.221E-3	-66.3525E-3	152.117E-12	634.996E-3	9.14655E-3
3.91946E-3	154.327E-12	657.859E-3	-42.9227E-3	153.652E-12	646.171E-3	1.19335E-3
3.91446E-3	152.891E-12	677.764E-3	-19.6123E-3	153.872E-12	675.223E-3	3.32628E-3
3.90945E-3	153.664E-12	698.170E-3	-22.4956E-3	152.125E-12	683.738E-3	2.89058E-3
3.90445E-3	154.123E-12	690.931E-3	-27.7942E-3	154.081E-12	670.490E-3	-4.87116E-3
3.89945E-3	151.864E-12	668.954E-3	-22.6903E-3	155.055E-12	661.342E-3	-19.3032E-3
3.89445E-3	150.563E-12	664.286E-3	-16.4142E-3	154.550E-12	657.482E-3	-29.3786E-3
3.88944E-3	149.919E-12	672.718E-3	11.3592E-3	152.298E-12	653.249E-3	-30.7024E-3
3.88444E-3	151.012E-12	672.266E-3	14.9528E-3	152.700E-12	659.444E-3	-25.8492E-3
3.87944E-3	148.939E-12	651.234E-3	-2.77853E-3	152.488E-12	644.251E-3	-12.9693E-3
3.87444E-3	147.188E-12	635.889E-3	-8.42904E-3	152.428E-12	633.445E-3	-17.8731E-3
3.86943E-3	147.898E-12	638.135E-3	-5.52955E-3	149.550E-12	667.464E-3	-36.7769E-3
3.86443E-3	147.070E-12	649.492E-3	2.98431E-3	148.384E-12	683.383E-3	-26.5952E-3
3.85943E-3	146.750E-12	658.174E-3	-13.3269E-3	147.946E-12	667.137E-3	3.26144E-3
3.85443E-3	147.037E-12	658.869E-3	-46.8459E-3	147.513E-12	655.546E-3	17.9174E-3
3.84942E-3	148.245E-12	655.335E-3	-61.9030E-3	147.201E-12	657.199E-3	8.23277E-3
3.84442E-3	146.204E-12	634.100E-3	-53.8673E-3	144.681E-12	669.414E-3	5.25760E-3
3.83942E-3	146.963E-12	624.809E-3	-36.1649E-3	145.324E-12	676.141E-3	5.84521E-3
3.83442E-3	148.280E-12	636.398E-3	-5.47004E-3	146.510E-12	670.193E-3	-17.3550E-3
3.82941E-3	148.577E-12	629.436E-3	18.3916E-3	147.124E-12	669.854E-3	-35.7730E-3
3.82441E-3	147.567E-12	628.412E-3	12.1982E-3	146.498E-12	674.457E-3	-32.3582E-3
3.81941E-3	148.477E-12	653.260E-3	-5.69251E-3	145.626E-12	672.961E-3	-19.0310E-3
3.81441E-3	150.159E-12	689.968E-3	-5.14616E-3	147.270E-12	668.744E-3	-5.35012E-3
3.80940E-3	148.852E-12	710.955E-3	-1.28933E-3	149.873E-12	663.961E-3	1.00074E-3
3.80440E-3	148.109E-12	692.961E-3	-23.7866E-3	149.266E-12	666.556E-3	7.66991E-3
3.79940E-3	147.402E-12	675.285E-3	-35.0891E-3	147.158E-12	664.152E-3	14.3858E-3
3.79440E-3	146.699E-12	679.276E-3	-22.1591E-3	149.146E-12	655.462E-3	7.62908E-3
3.78939E-3	146.380E-12	690.120E-3	-10.7150E-3	149.979E-12	672.477E-3	-454.765E-6
3.78439E-3	144.882E-12	680.706E-3	-21.5268E-3	149.297E-12	670.989E-3	-5.96958E-3
3.77939E-3	143.513E-12	649.673E-3	-43.6026E-3	148.697E-12	631.652E-3	-18.3243E-3
3.77439E-3	141.936E-12	633.534E-3	-48.9754E-3	146.780E-12	619.775E-3	-25.1136E-3
3.76938E-3	142.261E-12	634.457E-3	-30.3600E-3	147.367E-12	653.228E-3	-5.30116E-3
3.76438E-3	142.080E-12	645.796E-3	-5.11618E-3	146.869E-12	679.139E-3	20.3459E-3
3.75938E-3	139.607E-12	669.864E-3	-416.313E-6	146.828E-12	666.203E-3	10.8899E-3
3.75438E-3	139.882E-12	673.603E-3	-8.82014E-3	145.718E-12	655.674E-3	-10.5095E-3
3.74937E-3	140.349E-12	641.889E-3	-26.7809E-3	144.518E-12	660.215E-3	-8.70719E-3
3.74437E-3	142.519E-12	622.721E-3	-28.1441E-3	145.414E-12	664.467E-3	-2.51527E-3
3.73937E-3	142.028E-12	637.233E-3	-2.07267E-3	145.767E-12	683.695E-3	-782.209E-6
3.73437E-3	142.789E-12	653.141E-3	14.5056E-3	143.688E-12	708.934E-3	-3.42036E-3
3.72936E-3	143.908E-12	644.006E-3	3.22476E-3	142.943E-12	703.324E-3	-10.8174E-3
3.72436E-3	145.260E-12	619.962E-3	-16.8468E-3	145.223E-12	677.986E-3	-15.8850E-3
3.71936E-3	145.800E-12	607.454E-3	-14.6191E-3	143.968E-12	675.087E-3	-26.2296E-3
3.71436E-3	145.650E-12	600.045E-3	11.3363E-3	143.476E-12	681.471E-3	-32.3630E-3
3.70935E-3	145.978E-12	607.258E-3	30.7732E-3	144.513E-12	673.623E-3	-20.6186E-3
3.70435E-3	145.106E-12	641.291E-3	10.7395E-3	144.402E-12	671.165E-3	-11.6190E-3
3.69935E-3	145.027E-12	661.686E-3	-19.8342E-3	144.878E-12	674.494E-3	-35.8101E-3
3.69435E-3	143.861E-12	664.351E-3	-28.1962E-3	143.815E-12	682.418E-3	-60.3756E-3
3.68934E-3	143.229E-12	670.720E-3	-17.9065E-3	144.236E-12	705.785E-3	-41.5865E-3
3.68434E-3	142.063E-12	665.284E-3	-492.039E-6	144.242E-12	703.342E-3	-11.0610E-3
3.67934E-3	140.851E-12	666.916E-3	-11.2623E-3	145.357E-12	681.871E-3	1.71495E-3
3.67434E-3	141.175E-12	689.180E-3	-41.8875E-3	143.681E-12	674.924E-3	-15.9903E-3
3.66933E-3	139.672E-12	696.788E-3	-34.2414E-3	142.541E-12	669.987E-3	-37.3653E-3
3.66433E-3	138.694E-12	668.800E-3	3.47095E-3	142.552E-12	679.162E-3	-20.3581E-3
3.65933E-3	138.038E-12	635.509E-3	20.6751E-3	141.957E-12	673.207E-3	-1.82766E-3
3.65433E-3	139.316E-12	628.062E-3	8.00976E-3	141.314E-12	642.455E-3	-18.0405E-3
3.64932E-3	139.434E-12	636.370E-3	-13.1621E-3	139.995E-12	637.765E-3	-24.4370E-3
3.64432E-3	140.002E-12	647.412E-3	-19.2094E-3	138.864E-12	646.432E-3	-6.97346E-3
3.63932E-3	140.909E-12	645.888E-3	-83.6091E-6	137.459E-12	651.728E-3	11.4608E-3
3.63432E-3	142.030E-12	654.435E-3	14.5033E-3	137.888E-12	655.899E-3	23.7878E-3
3.62931E-3	143.150E-12	692.378E-3	7.02839E-3	137.164E-12	657.927E-3	14.6090E-3
3.62431E-3	143.227E-12	716.544E-3	-8.02491E-3	137.091E-12	655.173E-3	-1.33820E-3
3.61931E-3	143.424E-12	701.724E-3	-21.0937E-3	137.972E-12	649.343E-3	-12.9457E-3
3.61431E-3	144.071E-12	679.482E-3	-13.1865E-3	139.395E-12	668.601E-3	-28.5480E-3
3.60930E-3	144.260E-12	680.691E-3	913.784E-6	139.204E-12	689.909E-3	-17.8104E-3
3.60430E-3	142.949E-12	706.153E-3	-2.08257E-3	139.265E-12	683.852E-3	5.72856E-3
3.59930E-3	141.742E-12	732.067E-3	-20.6915E-3	139.797E-12	667.917E-3	-9.34803E-3
3.59430E-3	142.088E-12	729.510E-3	-27.1749E-3	140.432E-12	661.248E-3	-25.5281E-3
3.58929E-3	140.232E-12	690.723E-3	-340.995E-6	141.105E-12	666.597E-3	-21.5140E-3
3.58429E-3	138.363E-12	647.152E-3	19.4193E-3	140.225E-12	686.511E-3	-12.3437E-3
3.57929E-3	137.053E-12	650.935E-3	863.604E-6	140.227E-12	697.917E-3	-5.85358E-3
3.57429E-3	136.484E-12	684.441E-3	-22.6353E-3	139.849E-12	685.074E-3	-15.9599E-3
3.56928E-3	135.685E-12	687.586E-3	-25.2254E-3	139.527E-12	672.391E-3	18.7904E-6
3.56428E-3	133.357E-12	662.321E-3	-6.00587E-3	138.739E-12	659.769E-3	16.4409E-3
3.55928E-3	133.204E-12	664.796E-3	13.7471E-3	137.017E-12	639.346E-3	-8.59696E-3
3.55428E-3	133.322E-12	686.863E-3	7.92698E-3	135.708E-12	616.604E-3	-27.0147E-3
3.54927E-3	134.014E-12	678.785E-3	-19.0447E-3	135.098E-12	620.102E-3	-37.0726E-3
3.54427E-3	133.378E-12	661.423E-3	-52.8985E-3	136.029E-12	659.753E-3	-51.0877E-3
3.53927E-3	133.974E-12	657.001E-3	-50.6234E-3	133.551E-12	684.697E-3	-33.9594E-3
3.53427E-3	134.323E-12	673.469E-3	-19.8975E-3	132.577E-12	668.877E-3	-7.42370E-3
3.52926E-3	135.691E-12	699.330E-3	2.39519E-3	132.656E-12	637.000E-3	-1.03289E-3
3.52426E-3	135.490E-12	682.565E-3	1.47103E-3	134.272E-12	613.401E-3	7.58003E-3
3.51926E-3	136.294E-12	654.782E-3	-28.7228E-3	132.787E-12	632.216E-3	5.43096E-3
3.51426E-3	135.930E-12	659.664E-3	-47.4050E-3	133.125E-12	669.841E-3	-5.54463E-3
3.50925E-3	136.140E-12	664.143E-3	-31.5902E-3	133.415E-12	680.221E-3	2.10243E-3
3.50425E-3	136.302E-12	670.316E-3	-25.0016E-3	132.972E-12	681.278E-3	655.273E-6
3.49925E-3	135.372E-12	675.309E-3	-32.5799E-3	134.325E-12	672.359E-3	-9.02583E-3
3.49425E-3	134.451E-12	670.178E-3	-25.6919E-3	134.639E-12	659.176E-3	-1.36632E-3
3.48924E-3	133.974E-12	657.852E-3	-25.5317E-3	134.147E-12	673.426E-3	-13.8300E-3
3.48424E-3	133.972E-12	649.885E-3	-14.2080E-3	134.076E-12	681.962E-3	-44.9340E-3
3.47924E-3	132.081E-12	673.522E-3	9.91648E-3	135.044E-12	657.778E-3	-39.3826E-3
3.47424E-3	131.366E-12	695.460E-3	1.83699E-3	133.605E-12	653.448E-3	-16.5155E-3
3.46923E-3	130.731E-12	691.150E-3	-15.3097E-3	133.395E-12	668.383E-3	-29.9319E-3
3.46423E-3	129.937E-12	675.898E-3	7.08831E-3	133.947E-12	655.905E-3	-49.4818E-3
3.45923E-3	128.983E-12	664.674E-3	29.8033E-3	133.411E-12	653.360E-3	-29.0937E-3
3.45423E-3	128.563E-12	671.223E-3	9.09169E-3	131.323E-12	663.093E-3	-8.24915E-3
3.44922E-3	127.632E-12	676.969E-3	-9.30335E-3	131.277E-12	655.988E-3	-17.6885E-3
3.44422E-3	127.374E-12	653.355E-3	-12.3080E-3	132.358E-12	659.144E-3	-21.9661E-3
3.43922E-3	127.566E-12	632.235E-3	-11.0827E-3	131.117E-12	677.939E-3	-16.0642E-3
3.43422E-3	127.959E-12	639.754E-3	3.30826E-3	128.941E-12	682.435E-3	-16.0208E-3
3.42921E-3	127.877E-12	658.702E-3	10.0898E-3	128.712E-12	663.814E-3	-7.14794E-3
3.42421E-3	128.353E-12	676.892E-3	14.2649E-3	129.607E-12	663.484E-3	413.662E-6
3.41921E-3	128.686E-12	680.928E-3	29.7207E-3	129.897E-12	682.783E-3	-11.1273E-3
3.41421E-3	129.572E-12	674.755E-3	14.1518E-3	128.754E-12	691.868E-3	-21.0110E-3
3.40920E-3	129.638E-12	666.070E-3	-10.9449E-3	128.304E-12	698.708E-3	-7.56863E-3
3.40420E-3	129.512E-12	661.475E-3	-8.66670E-3	129.759E-12	692.118E-3	3.91691E-3
3.39920E-3	129.702E-12	653.171E-3	-16.2712E-3	130.481E-12	682.365E-3	320.146E-6
3.39420E-3	130.664E-12	639.186E-3	-16.6452E-3	128.956E-12	689.276E-3	-17.6913E-3
3.38919E-3	130.553E-12	649.061E-3	-1.45788E-3	129.966E-12	693.188E-3	-49.8421E-3
3.38419E-3	130.211E-12	669.799E-3	12.9205E-3	130.806E-12	691.920E-3	-48.3989E-3
3.37919E-3	129.732E-12	672.519E-3	29.3654E-3	130.677E-12	688.333E-3	-19.3048E-3
3.37419E-3	129.603E-12	681.915E-3	20.2424E-3	130.457E-12	683.648E-3	-11.6847E-3
3.36918E-3	128.749E-12	696.433E-3	704.974E-6	129.094E-12	683.379E-3	-19.0170E-3
3.36418E-3	127.355E-12	678.547E-3	-6.66501E-3	129.097E-12	700.023E-3	-16.8749E-3
3.35918E-3	127.371E-12	667.295E-3	-2.39096E-3	129.968E-12	705.166E-3	-15.6093E-3
3.35418E-3	126.522E-12	697.892E-3	-4.25126E-3	129.541E-12	665.429E-3	-12.0132E-3
3.34917E-3	126.138E-12	709.906E-3	-21.8360E-3	127.626E-12	627.758E-3	297.451E-6
3.34417E-3	125.524E-12	693.808E-3	-17.9390E-3	126.894E-12	633.311E-3	-13.0279E-3
3.33917E-3	125.310E-12	690.701E-3	-10.1564E-3	126.576E-12	655.498E-3	-39.3138E-3
3.33417E-3	124.630E-12	673.688E-3	-11.0643E-3	125.973E-12	670.709E-3	-43.5932E-3
3.32916E-3	126.305E-12	652.544E-3	-2.46056E-3	125.747E-12	689.604E-3	-27.6493E-3
3.32416E-3	125.864E-12	669.803E-3	-6.36012E-3	124.656E-12	699.338E-3	-2.42124E-3
3.31916E-3	125.288E-12	688.558E-3	-23.6713E-3	123.989E-12	698.648E-3	-1.75656E-3
3.31416E-3	126.180E-12	676.939E-3	-39.5401E-3	124.782E-12	691.633E-3	-18.1499E-3
3.30915E-3	127.565E-12	666.161E-3	-51.8414E-3	125.343E-12	675.055E-3	-6.28999E-3
3.30415E-3	128.365E-12	669.862E-3	-40.8718E-3	124.255E-12	675.950E-3	3.57578E-3
3.29915E-3	127.860E-12	689.898E-3	-20.6221E-3	123.616E-12	669.002E-3	-1.69621E-3
3.29415E-3	128.438E-12	709.504E-3	-26.9228E-3	125.197E-12	635.625E-3	5.02568E-3
3.28914E-3	128.408E-12	707.594E-3	-24.9436E-3	125.464E-12	635.893E-3	9.94824E-3
3.28414E-3	129.053E-12	700.843E-3	973.536E-6	124.047E-12	662.792E-3	-9.50077E-3
3.27914E-3	128.199E-12	709.972E-3	22.0463E-3	124.237E-12	666.747E-3	-32.0979E-3
3.27414E-3	127.674E-12	729.116E-3	27.5475E-3	123.758E-12	659.883E-3	-22.9697E-3
3.26913E-3	127.253E-12	729.016E-3	7.06338E-3	124.697E-12	666.640E-3	-4.07552E-3
3.26413E-3	125.960E-12	715.438E-3	-18.3807E-3	124.730E-12	685.585E-3	-2.20296E-3
3.25913E-3	124.319E-12	712.333E-3	-9.12871E-3	124.948E-12	691.566E-3	-13.2800E-3
3.25413E-3	123.157E-12	700.242E-3	13.4458E-3	122.791E-12	683.577E-3	-28.1655E-3
3.24912E-3	122.915E-12	669.519E-3	13.5457E-3	122.875E-12	671.666E-3	-37.6714E-3
3.24412E-3	121.642E-12	651.809E-3	-374.729E-6	122.488E-12	658.384E-3	-28.4069E-3
3.23912E-3	121.435E-12	645.990E-3	-10.1011E-3	123.236E-12	649.019E-3	-3.44058E-3
3.23412E-3	120.649E-12	651.653E-3	-4.53901E-3	121.687E-12	641.744E-3	9.66704E-3
3.22911E-3	119.410E-12	659.629E-3	-9.36475E-3	119.879E-12	650.083E-3	13.1096E-3
3.22411E-3	119.662E-12	657.903E-3	-27.4838E-3	119.814E-12	665.328E-3	10.7191E-3
3.21911E-3	120.984E-12	665.196E-3	-31.8893E-3	119.522E-12	663.098E-3	-19.6885E-3
3.21411E-3	121.052E-12	658.594E-3	-29.7242E-3	120.387E-12	656.486E-3	-50.0234E-3
3.20910E-3	120.555E-12	653.402E-3	-25.5826E-3	117.999E-12	657.418E-3	-47.7712E-3
3.20410E-3	121.805E-12	678.017E-3	-7.98470E-3	118.037E-12	670.706E-3	-33.9151E-3
3.19910E-3	121.940E-12	691.168E-3	8.69704E-3	118.298E-12	685.345E-3	-30.8645E-3
3.19410E-3	122.364E-12	672.385E-3	5.38765E-3	119.025E-12	680.771E-3	-29.8263E-3
3.18909E-3	122.478E-12	658.436E-3	-12.4376E-3	119.268E-12	670.033E-3	-22.2885E-3
3.18409E-3	123.420E-12	664.583E-3	-23.8358E-3	119.101E-12	673.272E-3	-21.9356E-3
3.17909E-3	122.593E-12	676.030E-3	-21.1268E-3	119.531E-12	690.379E-3	-16.8397E-3
3.17409E-3	121.611E-12	683.439E-3	-31.4163E-3	120.074E-12	704.696E-3	6.25640E-3
3.16908E-3	121.338E-12	697.675E-3	-39.0585E-3	121.154E-12	713.295E-3	12.5331E-3
3.16408E-3	119.641E-12	701.481E-3	-19.6355E-3	120.431E-12	717.942E-3	-1.51978E-3
3.15908E-3	118.302E-12	666.294E-3	1.64762E-3	119.544E-12	697.331E-3	-9.30283E-3
3.15408E-3	117.174E-12	649.820E-3	15.3348E-3	119.093E-12	673.474E-3	-20.1617E-3
3.14907E-3	116.534E-12	681.343E-3	29.9284E-3	120.620E-12	671.639E-3	-31.4994E-3
3.14407E-3	114.470E-12	688.819E-3	28.1673E-3	119.476E-12	677.758E-3	-17.9989E-3
3.13907E-3	113.745E-12	667.104E-3	3.92620E-3	116.840E-12	687.390E-3	-6.89463E-3
3.13407E-3	113.658E-12	655.300E-3	-8.40568E-3	116.913E-12	691.127E-3	-19.1780E-3
3.12906E-3	113.264E-12	653.389E-3	-4.54404E-3	116.887E-12	680.297E-3	-15.0594E-3
3.12406E-3	113.147E-12	665.982E-3	-3.85126E-3	116.146E-12	666.633E-3	-3.26515E-3
3.11906E-3	113.443E-12	682.379E-3	-17.9666E-3	115.299E-12	667.612E-3	-13.7685E-3
3.11406E-3	113.850E-12	679.771E-3	-32.6690E-3	114.167E-12	671.008E-3	-33.0383E-3
3.10905E-3	113.917E-12	672.068E-3	-33.2187E-3	114.089E-12	656.269E-3	-49.0373E-3
3.10405E-3	114.367E-12	679.359E-3	-14.6570E-3	114.155E-12	653.889E-3	-55.0687E-3
3.09905E-3	114.810E-12	678.673E-3	13.4353E-3	113.942E-12	672.770E-3	-37.7595E-3
3.09405E-3	116.094E-12	669.748E-3	11.7659E-3	114.211E-12	681.162E-3	-18.4563E-3
3.08904E-3	116.492E-12	668.694E-3	-24.4015E-3	114.592E-12	702.099E-3	-23.8915E-3
3.08404E-3	116.322E-12	685.850E-3	-39.5569E-3	115.058E-12	732.199E-3	-34.3359E-3
3.07904E-3	116.563E-12	710.395E-3	-26.0847E-3	116.620E-12	727.154E-3	-20.6206E-3
3.07404E-3	116.089E-12	716.681E-3	-28.6509E-3	116.332E-12	700.920E-3	1.72642E-3
3.06903E-3	115.347E-12	720.053E-3	-32.4856E-3	116.530E-12	683.213E-3	-19.7706E-3
3.06403E-3	115.039E-12	716.375E-3	-31.0008E-3	116.143E-12	671.370E-3	-57.3954E-3
3.05903E-3	114.763E-12	697.120E-3	-41.1392E-3	117.068E-12	677.027E-3	-39.9344E-3
3.05403E-3	113.298E-12	687.606E-3	-36.2761E-3	116.579E-12	692.726E-3	-3.94427E-3
3.04902E-3	112.087E-12	672.517E-3	-12.1340E-3	115.308E-12	686.783E-3	8.48687E-3
3.04402E-3	111.856E-12	664.727E-3	-21.3121E-3	116.030E-12	678.243E-3	-5.76399E-3
3.03902E-3	111.366E-12	693.129E-3	-51.5811E-3	115.335E-12	691.173E-3	-36.5484E-3
3.03402E-3	111.494E-12	701.244E-3	-45.7124E-3	114.969E-12	707.393E-3	-37.2713E-3
3.02901E-3	109.733E-12	684.691E-3	-25.7004E-3	113.213E-12	717.979E-3	-15.3158E-3
3.02401E-3	110.644E-12	694.041E-3	-20.3117E-3	112.150E-12	722.121E-3	-6.80171E-3
3.01901E-3	111.076E-12	709.014E-3	-15.7240E-3	111.114E-12	712.405E-3	-13.9481E-3
3.01401E-3	111.113E-12	701.696E-3	-18.5291E-3	111.636E-12	704.740E-3	-21.5954E-3
3.00900E-3	110.428E-12	685.198E-3	-11.6550E-3	110.663E-12	706.912E-3	-21.3874E-3
3.00400E-3	111.188E-12	677.662E-3	22.9439E-3	110.041E-12	693.229E-3	-16.4752E-3
2.99900E-3	111.882E-12	677.838E-3	26.1713E-3	110.469E-12	680.060E-3	-9.66682E-3
2.99400E-3	112.346E-12	682.550E-3	75.4215E-6	109.590E-12	694.685E-3	-11.0042E-3
2.98899E-3	111.780E-12	697.608E-3	-13.3274E-3	110.690E-12	703.234E-3	-13.6667E-3
2.98399E-3	111.529E-12	715.602E-3	-10.7133E-3	110.688E-12	708.164E-3	1.34999E-3
2.97899E-3	112.098E-12	716.660E-3	-3.98742E-3	110.762E-12	724.034E-3	12.8811E-3
2.97399E-3	111.626E-12	710.786E-3	-16.9220E-3	110.479E-12	715.283E-3	-10.6041E-3
2.96898E-3	111.244E-12	718.001E-3	-34.5929E-3	110.301E-12	683.128E-3	-31.1872E-3
2.96398E-3	110.672E-12	721.964E-3	-45.1368E-3	110.020E-12	678.949E-3	-20.0905E-3
2.95898E-3	110.308E-12	709.549E-3	-49.7160E-3	110.796E-12	692.743E-3	-21.4778E-3
2.95398E-3	110.201E-12	686.262E-3	-27.4922E-3	110.643E-12	699.500E-3	-26.0373E-3
2.94897E-3	109.098E-12	667.571E-3	-8.24384E-3	109.422E-12	711.654E-3	-11.0128E-3
2.94397E-3	108.464E-12	664.645E-3	-23.3370E-3	109.234E-12	716.563E-3	-9.90187E-3
2.93897E-3	107.269E-12	665.971E-3	-25.2646E-3	108.577E-12	701.000E-3	-15.9642E-3
2.93397E-3	107.637E-12	661.305E-3	-7.98153E-3	108.036E-12	696.996E-3	-2.85536E-3
2.92896E-3	106.581E-12	671.304E-3	-565.848E-6	107.876E-12	702.949E-3	3.58401E-3
2.92396E-3	106.566E-12	687.926E-3	742.318E-6	107.052E-12	675.710E-3	-13.2912E-3
2.91896E-3	105.833E-12	689.961E-3	-6.55721E-3	106.221E-12	653.558E-3	-21.4275E-3
2.91396E-3	106.158E-12	698.886E-3	-20.7009E-3	105.730E-12	654.595E-3	-15.9390E-3
2.90895E-3	105.535E-12	701.413E-3	-15.7523E-3	105.437E-12	642.013E-3	-11.4748E-3
2.90395E-3	105.454E-12	669.283E-3	-1.69912E-3	105.216E-12	643.161E-3	4.08146E-3
2.89895E-3	106.001E-12	649.170E-3	2.85277E-3	104.262E-12	675.978E-3	-828.421E-6
2.89395E-3	105.873E-12	671.081E-3	5.43388E-3	104.596E-12	690.929E-3	-33.0216E-3
2.88894E-3	106.196E-12	682.087E-3	-9.78402E-3	105.397E-12	683.418E-3	-30.6453E-3
2.88394E-3	106.058E-12	671.574E-3	-30.4382E-3	104.427E-12	687.786E-3	-5.30782E-3
2.87894E-3	106.176E-12	677.358E-3	-25.3238E-3	104.735E-12	683.099E-3	5.56100E-3
2.87394E-3	106.114E-12	684.052E-3	-10.4177E-3	105.140E-12	670.257E-3	8.68805E-3
2.86893E-3	106.019E-12	681.966E-3	-8.39036E-3	104.484E-12	690.213E-3	2.00801E-3
2.86393E-3	106.181E-12	682.108E-3	-13.1752E-3	104.371E-12	711.707E-3	-22.3954E-3
2.85893E-3	105.726E-12	680.474E-3	-25.4276E-3	104.259E-12	699.196E-3	-31.4802E-3
2.85393E-3	105.277E-12	690.518E-3	-33.7163E-3	105.107E-12	690.313E-3	-13.8524E-3
2.84892E-3	104.881E-12	709.139E-3	-20.3796E-3	105.094E-12	695.882E-3	-5.43681E-3
2.84392E-3	104.426E-12	706.266E-3	-9.47573E-3	104.249E-12	696.183E-3	-8.70027E-3
2.83892E-3	103.688E-12	692.072E-3	-17.4940E-3	104.422E-12	697.168E-3	-11.4932E-3
2.83392E-3	103.192E-12	684.150E-3	-35.2041E-3	104.538E-12	692.161E-3	-14.5830E-3
2.82891E-3	101.920E-12	681.800E-3	-28.9481E-3	104.849E-12	687.366E-3	-15.6972E-3
2.82391E-3	101.571E-12	679.232E-3	-1.97573E-3	103.729E-12	696.367E-3	-12.0828E-3
2.81891E-3	100.382E-12	679.233E-3	349.600E-6	104.115E-12	707.786E-3	-15.5991E-3
2.81391E-3	100.260E-12	689.035E-3	-23.3857E-3	103.211E-12	699.801E-3	-25.6222E-3
2.80890E-3	99.4906E-12	693.629E-3	-49.5607E-3	102.395E-12	684.812E-3	-12.9245E-3
2.80390E-3	99.5821E-12	680.716E-3	-42.6230E-3	102.640E-12	683.359E-3	-5.78216E-3
2.79890E-3	99.3592E-12	663.857E-3	5.16486E-3	102.425E-12	690.529E-3	-24.9385E-3
2.79390E-3	99.9232E-12	672.078E-3	31.8878E-3	101.828E-12	711.052E-3	-31.5685E-3
2.78889E-3	100.134E-12	686.525E-3	7.43186E-3	101.182E-12	715.112E-3	-26.7355E-3
2.78389E-3	101.084E-12	684.379E-3	-18.0339E-3	101.452E-12	693.096E-3	-23.0011E-3
2.77889E-3	101.363E-12	674.453E-3	-15.2315E-3	100.831E-12	684.520E-3	-9.70567E-3
2.77389E-3	102.206E-12	672.300E-3	-12.6471E-3	100.862E-12	700.338E-3	7.04155E-3
2.76888E-3	101.759E-12	685.682E-3	-16.5903E-3	101.223E-12	716.908E-3	2.34569E-3
2.76388E-3	102.751E-12	700.851E-3	-19.9700E-3	100.586E-12	723.402E-3	-9.46928E-3
2.75888E-3	102.499E-12	703.493E-3	-28.9326E-3	100.472E-12	729.549E-3	-9.39857E-3
2.75388E-3	102.512E-12	698.473E-3	-30.7042E-3	101.294E-12	734.801E-3	-6.97109E-3
2.74887E-3	101.845E-12	691.230E-3	-27.9448E-3	101.852E-12	744.419E-3	-8.28329E-3
2.74387E-3	101.222E-12	692.403E-3	-19.9803E-3	100.725E-12	751.941E-3	-20.9406E-3
2.73887E-3	100.189E-12	715.722E-3	-9.68293E-3	100.774E-12	732.799E-3	-26.6132E-3
2.73387E-3	99.4170E-12	733.222E-3	-12.7685E-3	101.683E-12	701.487E-3	-20.8446E-3
2.72886E-3	98.0164E-12	723.037E-3	-29.5246E-3	101.615E-12	698.540E-3	-13.6030E-3
2.72386E-3	97.3586E-12	708.894E-3	-34.6150E-3	101.231E-12	712.471E-3	3.03321E-3
2.71886E-3	96.9742E-12	703.974E-3	-15.1877E-3	100.239E-12	712.932E-3	17.2443E-3
2.71386E-3	96.0876E-12	687.225E-3	-2.21743E-3	99.5749E-12	712.555E-3	15.9282E-3
2.70885E-3	94.9500E-12	672.038E-3	-6.14187E-3	99.2525E-12	710.216E-3	4.53265E-3
2.70385E-3	95.4563E-12	680.906E-3	-10.1888E-3	98.4724E-12	702.438E-3	-7.50337E-3
2.69885E-3	95.7893E-12	696.323E-3	-12.9895E-3	96.8548E-12	704.035E-3	-15.8955E-3
2.69385E-3	96.1260E-12	705.779E-3	-10.9153E-3	96.5191E-12	706.659E-3	-22.9737E-3
2.68884E-3	96.6980E-12	710.361E-3	-3.38124E-3	96.1114E-12	704.146E-3	-26.0246E-3
2.68384E-3	97.2926E-12	699.878E-3	-7.05847E-3	95.6318E-12	687.547E-3	-26.1200E-3
2.67884E-3	98.0035E-12	684.081E-3	-15.1660E-3	95.3199E-12	677.637E-3	-38.3241E-3
2.67384E-3	99.0276E-12	672.818E-3	321.290E-6	95.1007E-12	702.188E-3	-50.8107E-3
2.66883E-3	99.1869E-12	667.086E-3	17.4353E-3	94.7623E-12	725.932E-3	-32.3089E-3
2.66383E-3	98.7716E-12	687.208E-3	6.13757E-3	94.9272E-12	722.746E-3	-676.941E-6
2.65883E-3	98.9580E-12	697.508E-3	-19.3378E-3	95.3897E-12	706.603E-3	-353.201E-6
2.65383E-3	99.4261E-12	690.042E-3	-26.7274E-3	95.9990E-12	700.839E-3	-29.6720E-3
2.64882E-3	98.5987E-12	712.008E-3	-19.6649E-3	95.0754E-12	717.343E-3	-37.1324E-3
2.64382E-3	97.0476E-12	740.304E-3	-5.79598E-3	95.4795E-12	728.305E-3	-10.2407E-3
2.63882E-3	96.5338E-12	752.129E-3	2.97989E-3	96.2716E-12	722.125E-3	703.194E-6
2.63382E-3	95.7103E-12	759.618E-3	-22.1030E-3	95.9572E-12	732.609E-3	-9.09563E-3
2.62881E-3	94.9724E-12	751.986E-3	-36.8959E-3	95.0352E-12	728.228E-3	-12.9461E-3
2.62381E-3	93.8853E-12	732.558E-3	-18.3146E-3	95.7197E-12	691.277E-3	-15.4303E-3
2.61881E-3	93.1000E-12	717.466E-3	-12.7148E-3	94.0395E-12	673.133E-3	-13.9827E-3
2.61381E-3	92.3055E-12	704.903E-3	-17.4089E-3	93.2413E-12	682.243E-3	-4.72700E-3
2.60880E-3	91.4880E-12	702.597E-3	-21.2021E-3	93.1123E-12	691.942E-3	-9.64448E-3
2.60380E-3	91.5150E-12	703.636E-3	-38.1362E-3	91.9764E-12	690.069E-3	-23.6747E-3
2.59880E-3	90.9349E-12	692.208E-3	-51.7562E-3	90.5118E-12	701.005E-3	-25.0695E-3
2.59380E-3	91.2075E-12	686.101E-3	-43.0896E-3	90.6014E-12	722.029E-3	-19.1966E-3
2.58879E-3	91.2556E-12	695.612E-3	-43.2050E-3	90.8532E-12	714.491E-3	-14.1654E-3
2.58379E-3	90.9544E-12	703.124E-3	-66.5149E-3	89.8629E-12	691.410E-3	-9.49913E-3
2.57879E-3	91.0533E-12	700.534E-3	-63.0089E-3	89.1729E-12	696.531E-3	-4.58144E-3
2.57379E-3	91.6593E-12	699.166E-3	-25.0747E-3	89.7800E-12	711.949E-3	-1.99800E-3
2.56878E-3	91.6236E-12	700.208E-3	2.99481E-3	89.7264E-12	706.027E-3	-6.85680E-3
2.56378E-3	92.1452E-12	698.692E-3	-1.95139E-3	89.6621E-12	698.207E-3	-5.32473E-3
2.55878E-3	91.7830E-12	704.694E-3	-14.5466E-3	89.3373E-12	693.014E-3	-6.61595E-3
2.55378E-3	91.7075E-12	712.596E-3	-3.67346E-3	90.5238E-12	692.767E-3	-31.5751E-3
2.54877E-3	92.1739E-12	703.853E-3	6.65214E-3	89.8356E-12	702.560E-3	-44.4826E-3
2.54377E-3	91.3428E-12	704.431E-3	-5.56901E-3	90.1341E-12	707.201E-3	-21.0683E-3
2.53877E-3	90.1132E-12	724.181E-3	-11.9371E-3	89.2534E-12	709.416E-3	11.0623E-3
2.53377E-3	89.7483E-12	730.808E-3	-1.73676E-3	89.8694E-12	716.355E-3	26.3044E-3
2.52876E-3	88.8273E-12	713.396E-3	-1.65122E-3	89.4584E-12	718.157E-3	18.7894E-3
2.52376E-3	88.1534E-12	688.641E-3	-6.88504E-3	88.9102E-12	722.307E-3	-733.983E-6
2.51876E-3	87.6078E-12	671.009E-3	-10.9580E-3	88.6497E-12	732.519E-3	-21.7497E-3
2.51376E-3	87.1844E-12	675.847E-3	-16.1172E-3	88.0322E-12	726.943E-3	-31.1000E-3
2.50875E-3	86.5667E-12	695.915E-3	-12.0412E-3	87.7622E-12	709.502E-3	-21.5486E-3
2.50375E-3	86.0566E-12	683.901E-3	-8.33188E-3	87.0276E-12	702.493E-3	-18.9710E-3
2.49875E-3	85.8915E-12	658.957E-3	-9.59696E-3	87.0874E-12	701.406E-3	-35.5063E-3
2.49375E-3	85.6218E-12	664.011E-3	-11.2895E-3	86.2680E-12	701.845E-3	-43.9477E-3
2.48874E-3	84.7650E-12	684.195E-3	-24.1759E-3	86.7095E-12	712.833E-3	-35.0694E-3
2.48374E-3	85.0765E-12	706.563E-3	-44.5035E-3	86.1031E-12	721.309E-3	-26.8483E-3
2.47874E-3	85.9036E-12	720.504E-3	-41.4410E-3	86.2801E-12	726.407E-3	-28.9216E-3
2.47374E-3	85.0397E-12	717.192E-3	-15.4460E-3	86.4865E-12	742.717E-3	-30.6413E-3
2.46873E-3	84.8393E-12	713.751E-3	1.12995E-3	85.9581E-12	755.647E-3	-18.1356E-3
2.46373E-3	85.7813E-12	716.405E-3	8.13894E-3	86.2756E-12	740.365E-3	-16.2635E-3
2.45873E-3	86.0321E-12	705.474E-3	5.82182E-3	86.5000E-12	725.715E-3	-23.9253E-3
2.45373E-3	85.5304E-12	690.591E-3	-6.34808E-3	86.6196E-12	738.581E-3	-23.1187E-3
2.44872E-3	85.7538E-12	690.621E-3	-14.0951E-3	85.6054E-12	762.287E-3	-22.2342E-3
2.44372E-3	85.7946E-12	699.693E-3	-19.3586E-3	86.3509E-12	760.272E-3	-11.3642E-3
2.43872E-3	84.9534E-12	717.235E-3	-13.5670E-3	86.7994E-12	736.668E-3	-5.85592E-3
2.43372E-3	85.2533E-12	729.190E-3	4.34228E-3	85.8117E-12	736.801E-3	-13.7335E-3
2.42871E-3	84.2695E-12	723.698E-3	-7.22489E-3	85.3103E-12	744.019E-3	-19.6034E-3
2.42371E-3	83.7975E-12	710.805E-3	-39.4521E-3	85.1646E-12	740.543E-3	-25.3352E-3
2.41871E-3	83.8808E-12	701.104E-3	-34.8712E-3	84.7208E-12	740.436E-3	-29.9949E-3
2.41371E-3	83.2426E-12	706.344E-3	-11.3121E-3	83.7364E-12	737.275E-3	-28.3003E-3
2.40870E-3	82.5073E-12	719.292E-3	-12.9567E-3	83.8696E-12	728.515E-3	-16.6095E-3
2.40370E-3	81.9337E-12	719.448E-3	-17.9477E-3	83.6363E-12	729.700E-3	-12.1878E-3
2.39870E-3	81.6665E-12	706.658E-3	-16.3700E-3	82.9955E-12	745.799E-3	-18.7121E-3
2.39370E-3	81.3621E-12	706.140E-3	-15.2861E-3	83.0137E-12	757.596E-3	-17.3997E-3
2.38869E-3	81.4124E-12	724.853E-3	-7.14491E-3	82.6994E-12	758.160E-3	-11.9219E-3
2.38369E-3	81.3285E-12	730.019E-3	-12.2220E-3	82.1924E-12	751.173E-3	-14.3843E-3
2.37869E-3	80.7385E-12	721.966E-3	-24.2376E-3	81.6098E-12	739.707E-3	-15.6194E-3
2.37369E-3	80.6056E-12	726.792E-3	-10.4718E-3	82.4257E-12	733.829E-3	-17.0118E-3
2.36868E-3	81.1154E-12	732.309E-3	12.6095E-3	81.2488E-12	736.135E-3	-22.4262E-3
2.36368E-3	81.2402E-12	737.850E-3	13.5708E-3	81.1820E-12	747.020E-3	-19.1265E-3
2.35868E-3	81.3976E-12	751.127E-3	-5.46485E-3	81.0514E-12	760.113E-3	-27.8135E-3
2.35368E-3	81.6519E-12	751.652E-3	-31.1850E-3	80.4008E-12	760.560E-3	-48.5404E-3
2.34867E-3	81.8840E-12	745.313E-3	-43.3323E-3	80.4626E-12	759.227E-3	-53.4163E-3
2.34367E-3	82.7416E-12	739.939E-3	-18.3132E-3	79.7806E-12	764.152E-3	-44.7260E-3
2.33867E-3	82.5065E-12	737.607E-3	10.1441E-3	79.9595E-12	762.947E-3	-27.5124E-3
2.33367E-3	81.6987E-12	746.264E-3	3.06885E-3	79.8159E-12	758.320E-3	-10.6692E-3
2.32866E-3	81.8206E-12	750.453E-3	-15.0383E-3	79.5870E-12	753.306E-3	-18.6923E-3
2.32366E-3	81.3412E-12	750.029E-3	-11.9659E-3	79.4848E-12	741.240E-3	-42.1442E-3
2.31866E-3	80.4933E-12	753.222E-3	-4.28406E-3	79.3294E-12	734.599E-3	-40.1631E-3
2.31366E-3	80.1093E-12	763.914E-3	-4.84371E-3	79.2235E-12	737.625E-3	-30.9196E-3
2.30865E-3	79.1117E-12	770.994E-3	-14.2178E-3	78.8731E-12	733.952E-3	-24.7909E-3
2.30365E-3	77.5511E-12	760.493E-3	-31.2775E-3	79.2632E-12	731.216E-3	523.524E-6
2.29865E-3	76.8786E-12	747.716E-3	-34.4945E-3	78.2146E-12	740.986E-3	15.6161E-3
2.29365E-3	76.9694E-12	738.490E-3	-12.7491E-3	77.6290E-12	745.858E-3	3.54063E-3
2.28864E-3	75.8656E-12	730.996E-3	5.95041E-3	77.5570E-12	743.265E-3	-10.3769E-3
2.28364E-3	75.2718E-12	731.557E-3	2.89967E-3	77.0716E-12	749.561E-3	-11.5957E-3
2.27864E-3	75.3586E-12	740.756E-3	-12.1240E-3	76.3263E-12	747.496E-3	-18.9555E-3
2.27364E-3	75.4720E-12	744.927E-3	-31.3373E-3	75.6315E-12	741.612E-3	-27.9363E-3
2.26863E-3	76.1274E-12	746.477E-3	-38.2775E-3	75.3323E-12	740.894E-3	-19.0315E-3
2.26363E-3	75.1716E-12	753.751E-3	-38.1361E-3	75.1678E-12	728.273E-3	-19.3074E-3
2.25863E-3	75.6904E-12	755.621E-3	-36.8432E-3	74.2362E-12	710.650E-3	-22.7680E-3
2.25363E-3	76.1787E-12	752.833E-3	-21.4489E-3	74.1709E-12	718.048E-3	-13.6868E-3
2.24862E-3	76.7678E-12	758.273E-3	-452.087E-6	73.9817E-12	747.762E-3	-15.6834E-3
2.24362E-3	76.3242E-12	766.802E-3	-4.46417E-3	74.0134E-12	753.954E-3	-26.7855E-3
2.23862E-3	76.0604E-12	773.491E-3	-19.3612E-3	73.9103E-12	742.853E-3	-26.2750E-3
2.23362E-3	76.4008E-12	777.768E-3	-15.7365E-3	73.8307E-12	740.101E-3	-18.5021E-3
2.22861E-3	76.2532E-12	770.385E-3	-11.3015E-3	74.2038E-12	737.363E-3	-19.6912E-3
2.22361E-3	75.8157E-12	763.713E-3	-22.0315E-3	74.9803E-12	746.022E-3	-33.9336E-3
2.21861E-3	74.7840E-12	767.812E-3	-25.7412E-3	74.6419E-12	778.069E-3	-37.1394E-3
2.21361E-3	74.8619E-12	774.910E-3	-8.64490E-3	73.7989E-12	800.867E-3	-14.6286E-3
2.20860E-3	73.5706E-12	783.199E-3	-5.26776E-3	74.0734E-12	786.337E-3	10.2594E-3
2.20360E-3	73.2109E-12	790.210E-3	-16.4631E-3	74.4552E-12	765.702E-3	9.00286E-3
2.19860E-3	72.6110E-12	784.923E-3	-10.9287E-3	74.2380E-12	762.798E-3	-16.8402E-3
2.19360E-3	71.7927E-12	770.348E-3	-13.9972E-3	72.7814E-12	769.174E-3	-34.7174E-3
2.18859E-3	71.2802E-12	762.055E-3	-27.9148E-3	72.5751E-12	777.641E-3	-22.0015E-3
2.18359E-3	70.6194E-12	763.444E-3	-28.4790E-3	73.0850E-12	780.742E-3	-6.07175E-3
2.17859E-3	70.6480E-12	755.460E-3	-32.1841E-3	72.5931E-12	784.484E-3	-15.2275E-3
2.17359E-3	70.5471E-12	748.096E-3	-28.1578E-3	71.5119E-12	786.048E-3	-32.9206E-3
2.16858E-3	70.3896E-12	755.320E-3	-11.8263E-3	70.2675E-12	760.847E-3	-43.0243E-3
2.16358E-3	70.0184E-12	756.633E-3	-11.7249E-3	70.4623E-12	730.719E-3	-34.4935E-3
2.15858E-3	70.4904E-12	755.125E-3	-22.7582E-3	70.6313E-12	737.062E-3	-15.5329E-3
2.15358E-3	70.8976E-12	764.142E-3	-19.9300E-3	70.0542E-12	771.172E-3	-15.9422E-3
2.14857E-3	70.4854E-12	775.191E-3	-7.18525E-3	69.0780E-12	799.515E-3	-25.2584E-3
2.14357E-3	70.0742E-12	783.929E-3	-4.00634E-3	69.5861E-12	805.485E-3	-24.7779E-3
2.13857E-3	70.4406E-12	782.269E-3	1.05954E-3	70.3657E-12	803.462E-3	-29.7034E-3
2.13357E-3	70.4024E-12	773.929E-3	8.31203E-3	70.3347E-12	796.494E-3	-28.5158E-3
2.12856E-3	69.9428E-12	780.479E-3	-6.19174E-3	69.8112E-12	791.321E-3	-24.3948E-3
2.12356E-3	69.3374E-12	787.248E-3	-20.9343E-3	69.8206E-12	803.714E-3	-44.3995E-3
2.11856E-3	69.2255E-12	782.489E-3	-15.8331E-3	70.2421E-12	813.942E-3	-60.3544E-3
2.11356E-3	68.3562E-12	784.602E-3	-17.5448E-3	70.6692E-12	815.163E-3	-46.1799E-3
2.10855E-3	68.5313E-12	797.788E-3	-16.7444E-3	70.7896E-12	823.741E-3	-23.0922E-3
2.10355E-3	67.7708E-12	790.594E-3	5.67280E-3	69.1216E-12	824.491E-3	-5.30402E-3
2.09855E-3	67.5217E-12	786.868E-3	9.47796E-3	68.7255E-12	812.543E-3	4.47029E-3
2.09355E-3	67.3740E-12	800.294E-3	-10.8612E-3	69.4542E-12	811.391E-3	6.31413E-3
2.08854E-3	66.3272E-12	795.224E-3	-12.4227E-3	68.8617E-12	810.284E-3	1.30623E-3
2.08354E-3	65.8902E-12	788.437E-3	-4.41734E-3	67.3794E-12	797.298E-3	-10.9881E-3
2.07854E-3	65.6373E-12	785.823E-3	-7.87964E-3	66.5765E-12	786.390E-3	-20.3479E-3
2.07354E-3	65.8377E-12	775.026E-3	-6.30348E-3	66.4170E-12	779.762E-3	-23.2452E-3
2.06853E-3	65.4872E-12	774.979E-3	-993.155E-6	66.3873E-12	780.374E-3	-18.4821E-3
2.06353E-3	65.2917E-12	794.721E-3	-7.36662E-3	65.5551E-12	795.623E-3	-21.8590E-3
2.05853E-3	65.4266E-12	802.678E-3	-12.5590E-3	64.6282E-12	808.199E-3	-31.9666E-3
2.05353E-3	64.8408E-12	797.328E-3	-21.4482E-3	64.3386E-12	804.605E-3	-22.7649E-3
2.04852E-3	65.1519E-12	806.354E-3	-27.9694E-3	64.5757E-12	798.054E-3	-9.31805E-3
2.04352E-3	64.7350E-12	812.534E-3	-16.5197E-3	64.7938E-12	807.171E-3	-11.7838E-3
2.03852E-3	65.4156E-12	799.980E-3	-18.4187E-3	64.1506E-12	822.261E-3	-21.4324E-3
2.03352E-3	64.6883E-12	795.669E-3	-23.7753E-3	64.0600E-12	824.417E-3	-26.7844E-3
2.02851E-3	64.4830E-12	807.940E-3	-14.0698E-3	63.8952E-12	818.920E-3	-25.9950E-3
2.02351E-3	64.5825E-12	807.697E-3	-7.86170E-3	64.4271E-12	814.785E-3	-17.2776E-3
2.01851E-3	64.5528E-12	800.100E-3	243.923E-6	63.9273E-12	815.726E-3	-7.66091E-3
2.01351E-3	63.8538E-12	792.670E-3	11.0174E-3	63.6659E-12	828.064E-3	2.00594E-3
2.00850E-3	63.4302E-12	777.520E-3	7.55566E-3	63.3709E-12	829.039E-3	12.1624E-3
2.00350E-3	63.0360E-12	783.316E-3	-9.19902E-3	62.9846E-12	804.425E-3	10.7611E-3
1.99850E-3	62.3519E-12	809.211E-3	-21.7038E-3	62.7964E-12	787.498E-3	-708.488E-6
1.99350E-3	62.1138E-12	810.866E-3	-27.0435E-3	62.3765E-12	787.545E-3	-16.8356E-3
1.98849E-3	61.5133E-12	800.839E-3	-24.5089E-3	61.4779E-12	793.545E-3	-20.0618E-3
1.98349E-3	61.0078E-12	810.648E-3	-15.3647E-3	60.8264E-12	805.102E-3	-11.4163E-3
1.97849E-3	60.5943E-12	814.248E-3	-13.1357E-3	60.7082E-12	810.094E-3	-4.56196E-3
1.97349E-3	60.3858E-12	808.618E-3	-16.5086E-3	60.8157E-12	805.327E-3	5.19264E-3
1.96848E-3	59.7609E-12	805.906E-3	-14.4394E-3	60.3272E-12	814.139E-3	9.61108E-3
1.96348E-3	59.1544E-12	805.922E-3	1.17221E-3	59.4118E-12	836.733E-3	8.70994E-3
1.95848E-3	58.9638E-12	817.372E-3	14.4552E-3	59.4277E-12	848.670E-3	5.99076E-3
1.95348E-3	58.8567E-12	818.871E-3	6.01505E-3	59.4766E-12	845.937E-3	1.63231E-3
1.94847E-3	59.1351E-12	805.817E-3	-16.7901E-3	58.8004E-12	839.528E-3	-3.02306E-3
1.94347E-3	59.1515E-12	808.132E-3	-39.3982E-3	58.7347E-12	842.263E-3	-18.9690E-3
1.93847E-3	59.0392E-12	826.232E-3	-42.8566E-3	58.6203E-12	853.823E-3	-35.7484E-3
1.93347E-3	59.1757E-12	835.619E-3	-33.5505E-3	58.5741E-12	855.855E-3	-28.1582E-3
1.92846E-3	59.4574E-12	831.021E-3	-32.5727E-3	58.2710E-12	845.595E-3	-3.72323E-3
1.92346E-3	58.9631E-12	828.230E-3	-22.1260E-3	57.9774E-12	837.068E-3	6.88482E-3
1.91846E-3	58.9876E-12	835.749E-3	-5.17561E-3	57.7304E-12	833.365E-3	-13.6746E-3
1.91346E-3	58.9676E-12	842.001E-3	-5.45908E-3	57.9654E-12	843.058E-3	-31.8353E-3
1.90845E-3	58.5734E-12	850.404E-3	-7.97581E-3	57.1615E-12	864.299E-3	-19.0137E-3
1.90345E-3	58.0758E-12	858.688E-3	-13.6280E-3	57.0209E-12	866.641E-3	-6.97470E-3
1.89845E-3	57.7132E-12	860.781E-3	-29.6392E-3	57.2592E-12	852.669E-3	-10.2859E-3
1.89345E-3	56.8397E-12	867.986E-3	-34.4801E-3	57.4534E-12	851.297E-3	-16.0733E-3
1.88844E-3	56.5790E-12	864.246E-3	-28.7937E-3	56.9794E-12	867.054E-3	-10.6541E-3
1.88344E-3	56.0271E-12	849.322E-3	-22.6398E-3	56.0878E-12	887.545E-3	4.70530E-3
1.87844E-3	55.4618E-12	854.443E-3	-7.95442E-3	56.5412E-12	888.364E-3	7.97023E-3
1.87344E-3	54.5650E-12	860.415E-3	5.30021E-3	56.6356E-12	869.510E-3	3.71447E-3
1.86843E-3	54.1811E-12	862.495E-3	1.19102E-3	56.1286E-12	875.195E-3	771.093E-6
1.86343E-3	53.8869E-12	880.806E-3	-9.00262E-3	55.1507E-12	898.997E-3	-466.239E-6
1.85843E-3	53.4833E-12	882.406E-3	-11.5519E-3	55.1102E-12	903.224E-3	4.39775E-3
1.85343E-3	53.3860E-12	861.095E-3	-8.16072E-3	54.9959E-12	893.938E-3	13.8404E-3
1.84842E-3	53.3657E-12	854.812E-3	-7.34769E-3	53.9629E-12	875.664E-3	17.6955E-3
1.84342E-3	53.2428E-12	860.816E-3	-9.15224E-3	53.5417E-12	862.670E-3	9.68096E-3
1.83842E-3	52.8921E-12	860.283E-3	-17.6640E-3	53.0327E-12	864.493E-3	5.87012E-3
1.83342E-3	53.0350E-12	858.542E-3	-31.0756E-3	53.1533E-12	874.152E-3	5.96296E-3
1.82841E-3	53.2265E-12	864.078E-3	-34.2816E-3	52.5126E-12	882.756E-3	5.73134E-3
1.82341E-3	52.8433E-12	869.928E-3	-24.7419E-3	52.1122E-12	875.064E-3	16.6244E-3
1.81841E-3	52.5539E-12	882.779E-3	-20.9210E-3	51.3701E-12	865.708E-3	18.5641E-3
1.81341E-3	52.3513E-12	901.172E-3	-29.0252E-3	51.3110E-12	870.661E-3	3.99711E-3
1.80840E-3	52.4487E-12	889.818E-3	-33.2631E-3	51.2555E-12	885.517E-3	-731.846E-6
1.80340E-3	52.1179E-12	876.641E-3	-29.8043E-3	51.2263E-12	901.743E-3	5.99254E-3
1.79840E-3	51.5117E-12	892.807E-3	-20.9056E-3	50.9543E-12	905.330E-3	2.67644E-3
1.79340E-3	50.9338E-12	904.876E-3	-10.8691E-3	51.0806E-12	915.935E-3	-3.19748E-3
1.78839E-3	50.5872E-12	908.854E-3	-7.19371E-3	51.3946E-12	942.316E-3	-11.7634E-3
1.78339E-3	50.0228E-12	915.671E-3	-5.04248E-3	51.2838E-12	949.789E-3	-32.0265E-3
1.77839E-3	49.3808E-12	915.798E-3	1.56883E-3	50.7956E-12	936.272E-3	-30.4484E-3
1.77339E-3	49.2634E-12	918.919E-3	6.88962E-3	50.3934E-12	925.955E-3	-15.7316E-3
1.76838E-3	48.6117E-12	929.462E-3	3.85393E-3	49.9610E-12	923.309E-3	-18.8602E-3
1.76338E-3	48.1512E-12	920.493E-3	-7.77370E-3	49.4268E-12	913.389E-3	-21.8864E-3
1.75838E-3	47.7941E-12	901.478E-3	-25.1027E-3	48.4884E-12	901.062E-3	-15.5190E-3
1.75338E-3	47.7590E-12	894.048E-3	-34.5616E-3	48.1188E-12	905.070E-3	-16.2782E-3
1.74837E-3	47.6350E-12	891.199E-3	-30.9429E-3	47.7177E-12	910.435E-3	-16.1716E-3
1.74337E-3	47.2489E-12	899.727E-3	-32.3803E-3	47.0782E-12	913.963E-3	-17.5885E-3
1.73837E-3	46.9310E-12	918.773E-3	-38.2131E-3	46.2520E-12	936.246E-3	-22.6383E-3
1.73337E-3	47.0528E-12	927.655E-3	-34.8315E-3	45.7470E-12	948.597E-3	-18.9252E-3
1.72836E-3	47.5803E-12	931.760E-3	-30.8988E-3	45.6680E-12	937.551E-3	-14.8958E-3
1.72336E-3	46.6537E-12	955.148E-3	-33.0369E-3	45.2392E-12	938.353E-3	-19.1537E-3
1.71836E-3	46.1812E-12	977.268E-3	-31.2356E-3	44.8741E-12	945.711E-3	-17.5329E-3
1.71336E-3	46.3055E-12	970.152E-3	-21.1654E-3	44.8632E-12	959.302E-3	-2.66076E-3
1.70835E-3	46.2021E-12	959.388E-3	-16.7908E-3	44.6404E-12	986.079E-3	1.60221E-3
1.70335E-3	45.6867E-12	957.127E-3	-16.3665E-3	44.6447E-12	1.00189E+0	-8.95137E-3
1.69835E-3	45.2304E-12	957.746E-3	-15.0097E-3	44.8482E-12	995.594E-3	-19.0064E-3
1.69335E-3	44.9342E-12	977.609E-3	-3.26980E-3	44.6298E-12	981.430E-3	-26.9373E-3
1.68834E-3	44.3210E-12	996.937E-3	5.21607E-3	44.4409E-12	976.324E-3	-31.4781E-3
1.68334E-3	44.0506E-12	992.869E-3	-9.64182E-3	44.2636E-12	987.509E-3	-25.3804E-3
1.67834E-3	43.4443E-12	977.837E-3	-19.1388E-3	44.0303E-12	1.00562E+0	-13.5704E-3
1.67334E-3	42.9266E-12	962.006E-3	-15.7304E-3	43.3934E-12	1.00354E+0	-7.16856E-3
1.66833E-3	42.7186E-12	960.067E-3	-16.2805E-3	42.8531E-12	983.429E-3	-5.67719E-3
1.66333E-3	42.3859E-12	969.956E-3	-24.1751E-3	42.2472E-12	979.169E-3	-1.65150E-3
1.65833E-3	42.3312E-12	975.693E-3	-24.6733E-3	41.7734E-12	985.016E-3	4.53627E-3
1.65333E-3	41.6736E-12	980.042E-3	-16.6836E-3	41.0240E-12	983.124E-3	4.92582E-3
1.64832E-3	41.4534E-12	984.833E-3	-13.6400E-3	40.6150E-12	980.300E-3	-4.60546E-3
1.64332E-3	40.9428E-12	994.695E-3	-19.6050E-3	40.1772E-12	982.800E-3	-15.8562E-3
1.63832E-3	40.6384E-12	1.00401E+0	-25.1525E-3	39.6211E-12	989.896E-3	-16.1393E-3
1.63332E-3	40.4697E-12	1.01268E+0	-23.9667E-3	39.1161E-12	1.00511E+0	1.54704E-3
1.62831E-3	40.2324E-12	1.02330E+0	-15.7085E-3	39.0749E-12	1.02638E+0	20.6416E-3
1.62331E-3	39.8485E-12	1.02748E+0	-9.61927E-3	39.0568E-12	1.03531E+0	14.3636E-3
1.61831E-3	39.7300E-12	1.03361E+0	-19.1433E-3	38.8113E-12	1.03552E+0	-6.08153E-3
1.61331E-3	39.7632E-12	1.03512E+0	-23.1620E-3	38.6493E-12	1.03793E+0	-17.8277E-3
1.60830E-3	39.1335E-12	1.03237E+0	-21.3112E-3	38.7683E-12	1.04378E+0	-14.7888E-3
1.60330E-3	38.8331E-12	1.04816E+0	-30.7444E-3	38.5860E-12	1.06192E+0	-6.12995E-3
1.59830E-3	39.0443E-12	1.06890E+0	-35.2367E-3	38.5599E-12	1.08646E+0	-8.42158E-3
1.59330E-3	38.5257E-12	1.07344E+0	-22.7412E-3	38.0240E-12	1.09170E+0	-13.0563E-3
1.58829E-3	37.9818E-12	1.07414E+0	-13.9312E-3	37.8015E-12	1.08390E+0	-12.2731E-3
1.58329E-3	37.5147E-12	1.08305E+0	-16.0095E-3	37.9259E-12	1.08959E+0	-18.0475E-3
1.57829E-3	37.1897E-12	1.09300E+0	-11.8532E-3	37.5229E-12	1.10087E+0	-18.4432E-3
1.57329E-3	36.8711E-12	1.09786E+0	-9.84074E-3	36.6980E-12	1.09989E+0	-8.30370E-3
1.56828E-3	36.2875E-12	1.10168E+0	-11.5028E-3	36.4691E-12	1.10104E+0	-7.33282E-3
1.56328E-3	35.5034E-12	1.10304E+0	-8.96409E-3	36.3048E-12	1.11386E+0	-5.31811E-3
1.55828E-3	34.8348E-12	1.10056E+0	-8.38698E-3	35.4185E-12	1.12278E+0	-4.61618E-3
1.55328E-3	34.8362E-12	1.09776E+0	-17.2587E-3	34.7178E-12	1.13072E+0	-12.4229E-3
1.54827E-3	34.0961E-12	1.09868E+0	-32.1649E-3	34.3327E-12	1.13552E+0	-7.21399E-3
1.54327E-3	33.4884E-12	1.09534E+0	-36.4466E-3	34.0843E-12	1.12356E+0	4.60870E-3
1.53827E-3	33.0721E-12	1.09407E+0	-33.9041E-3	33.7883E-12	1.11499E+0	8.15275E-3
1.53327E-3	32.9746E-12	1.10339E+0	-29.1524E-3	33.5050E-12	1.12669E+0	-1.48744E-3
1.52826E-3	32.8326E-12	1.11375E+0	-25.9551E-3	33.0837E-12	1.14503E+0	-16.8911E-3
1.52326E-3	32.6210E-12	1.11484E+0	-30.7566E-3	32.5104E-12	1.16027E+0	-21.1814E-3
1.51826E-3	32.1951E-12	1.10935E+0	-25.4214E-3	32.3368E-12	1.16862E+0	-22.5014E-3
1.51326E-3	31.8342E-12	1.12169E+0	-8.94534E-3	31.9084E-12	1.17714E+0	-19.9949E-3
1.50825E-3	31.7837E-12	1.14062E+0	2.51154E-3	31.6708E-12	1.19028E+0	-13.6860E-3
1.50325E-3	31.4409E-12	1.14950E+0	270.081E-6	31.4802E-12	1.19179E+0	-13.3975E-3
1.49825E-3	31.2995E-12	1.17256E+0	-13.9148E-3	31.1322E-12	1.17692E+0	-8.01357E-3
1.49325E-3	30.8057E-12	1.20416E+0	-28.9008E-3	30.6457E-12	1.16151E+0	-7.60387E-3
1.48824E-3	30.4986E-12	1.21455E+0	-36.9149E-3	30.3674E-12	1.16929E+0	-23.4494E-3
1.48324E-3	30.1889E-12	1.20868E+0	-31.8516E-3	29.8803E-12	1.19751E+0	-32.8944E-3
1.47824E-3	29.7000E-12	1.20043E+0	-25.9932E-3	29.3479E-12	1.21315E+0	-29.0612E-3
1.47324E-3	29.0087E-12	1.19738E+0	-16.2605E-3	29.2154E-12	1.20797E+0	-16.7695E-3
1.46823E-3	28.5244E-12	1.20089E+0	-5.12564E-3	28.8871E-12	1.20015E+0	-5.81871E-3
1.46323E-3	28.1706E-12	1.20135E+0	-5.77784E-3	28.2906E-12	1.20160E+0	-13.0606E-3
1.45823E-3	27.4552E-12	1.20330E+0	-2.58708E-3	27.6287E-12	1.20978E+0	-19.9246E-3
1.45323E-3	26.7297E-12	1.20942E+0	-4.60549E-3	27.3244E-12	1.21551E+0	-4.55181E-3
1.44822E-3	26.2037E-12	1.20685E+0	-22.8795E-3	27.0811E-12	1.22226E+0	5.65120E-3
1.44322E-3	25.8577E-12	1.19302E+0	-31.8361E-3	26.3993E-12	1.22613E+0	-9.20100E-3
1.43822E-3	25.5230E-12	1.18174E+0	-30.0733E-3	25.9236E-12	1.22272E+0	-19.2643E-3
1.43322E-3	24.9433E-12	1.18171E+0	-32.5074E-3	25.7597E-12	1.22293E+0	-13.3379E-3
1.42821E-3	24.6289E-12	1.18665E+0	-28.3796E-3	25.4911E-12	1.22586E+0	-6.47890E-3
1.42321E-3	24.3786E-12	1.18792E+0	-20.7145E-3	24.8901E-12	1.22149E+0	-1.90904E-3
1.41821E-3	24.2025E-12	1.19541E+0	-24.9304E-3	24.1063E-12	1.20520E+0	-2.23140E-3
1.41321E-3	23.7595E-12	1.20223E+0	-32.0398E-3	23.7394E-12	1.18620E+0	-13.7801E-3
1.40820E-3	23.5353E-12	1.18934E+0	-23.0650E-3	23.5448E-12	1.17853E+0	-34.9956E-3
1.40320E-3	23.4319E-12	1.17765E+0	-13.7047E-3	23.0465E-12	1.19033E+0	-40.6843E-3
1.39820E-3	23.1668E-12	1.19282E+0	-18.2421E-3	22.3981E-12	1.20249E+0	-13.6153E-3
1.39320E-3	22.3895E-12	1.21189E+0	-16.9333E-3	22.1577E-12	1.19851E+0	11.5650E-3
1.38819E-3	21.9559E-12	1.20956E+0	-15.4398E-3	22.0149E-12	1.20203E+0	-833.722E-6
1.38319E-3	21.9320E-12	1.20346E+0	-27.3220E-3	21.3285E-12	1.21051E+0	-21.6538E-3
1.37819E-3	21.6357E-12	1.20691E+0	-32.7663E-3	20.8865E-12	1.20356E+0	-23.1076E-3
1.37319E-3	20.9003E-12	1.21978E+0	-30.0883E-3	20.7314E-12	1.19315E+0	-9.81255E-3
1.36818E-3	20.2854E-12	1.22991E+0	-33.4994E-3	20.5980E-12	1.19870E+0	12.6270E-3
1.36318E-3	19.9163E-12	1.22038E+0	-27.9494E-3	19.9326E-12	1.20678E+0	16.6803E-3
1.35818E-3	19.5025E-12	1.19999E+0	-17.7352E-3	19.5139E-12	1.19727E+0	-8.72586E-3
1.35318E-3	19.0138E-12	1.18670E+0	-12.5669E-3	19.3112E-12	1.18759E+0	-29.1229E-3
1.34817E-3	18.4316E-12	1.18442E+0	-10.3209E-3	18.8127E-12	1.18191E+0	-28.2087E-3
1.34317E-3	18.0403E-12	1.17982E+0	-19.0978E-3	18.3782E-12	1.17020E+0	-19.2685E-3
1.33817E-3	17.9016E-12	1.16830E+0	-27.5457E-3	17.9002E-12	1.14963E+0	-13.1245E-3
1.33317E-3	17.4520E-12	1.15416E+0	-21.1392E-3	17.6844E-12	1.12182E+0	-24.0317E-3
1.32816E-3	17.0390E-12	1.14504E+0	-18.7428E-3	17.1966E-12	1.10438E+0	-40.8508E-3
1.32316E-3	16.6885E-12	1.14597E+0	-23.5356E-3	16.5335E-12	1.09856E+0	-31.5180E-3
1.31816E-3	16.3630E-12	1.14470E+0	-21.4864E-3	16.1049E-12	1.08756E+0	-15.7322E-3
1.31316E-3	16.0991E-12	1.13919E+0	-22.9588E-3	15.8244E-12	1.07113E+0	-20.6821E-3
1.30815E-3	15.6996E-12	1.13906E+0	-21.2557E-3	15.3078E-12	1.06719E+0	-22.7707E-3
1.30315E-3	15.4872E-12	1.13606E+0	-3.45313E-3	14.8089E-12	1.07434E+0	-5.52227E-3
1.29815E-3	15.0982E-12	1.12909E+0	2.69700E-3	14.6001E-12	1.07044E+0	12.6599E-3
1.29315E-3	14.7124E-12	1.12016E+0	-9.48525E-3	14.4607E-12	1.06018E+0	16.5644E-3
1.28814E-3	14.5435E-12	1.09855E+0	-10.9285E-3	14.0894E-12	1.06326E+0	3.13042E-3
1.28314E-3	14.2390E-12	1.08148E+0	-7.64994E-3	13.6257E-12	1.06246E+0	-20.4893E-3
1.27814E-3	13.6021E-12	1.08181E+0	-8.45724E-3	13.4703E-12	1.03965E+0	-35.1406E-3
1.27314E-3	13.2333E-12	1.07406E+0	-3.29285E-3	13.4585E-12	1.02572E+0	-34.9744E-3
1.26813E-3	13.0546E-12	1.04912E+0	166.809E-6	13.0372E-12	1.02370E+0	-28.7650E-3
1.26313E-3	12.6761E-12	1.03531E+0	-1.87108E-3	12.6011E-12	1.00357E+0	-23.8735E-3
1.25813E-3	12.0955E-12	1.04109E+0	-2.57392E-3	12.3380E-12	984.145E-3	-30.2385E-3
1.25313E-3	11.7434E-12	1.03260E+0	-6.27954E-3	12.1536E-12	969.420E-3	-32.3426E-3
1.24812E-3	11.4856E-12	1.01594E+0	-13.5678E-3	11.6713E-12	937.644E-3	-21.0314E-3
1.24312E-3	11.2556E-12	1.00827E+0	-16.1417E-3	11.2694E-12	913.933E-3	-15.3795E-3
1.23812E-3	10.8582E-12	984.867E-3	-8.53533E-3	10.8509E-12	904.362E-3	-20.3164E-3
1.23312E-3	10.5350E-12	959.384E-3	-2.30068E-3	10.6171E-12	883.520E-3	-19.9326E-3
1.22811E-3	10.2605E-12	952.833E-3	-7.64951E-3	10.2355E-12	860.687E-3	-10.0683E-3
1.22311E-3	9.97414E-12	945.249E-3	-21.9750E-3	9.76508E-12	845.389E-3	-9.84492E-3
1.21811E-3	9.56653E-12	930.166E-3	-34.9393E-3	9.42779E-12	826.526E-3	-17.7040E-3
1.21311E-3	9.28576E-12	918.944E-3	-31.8487E-3	9.14049E-12	805.495E-3	-18.7487E-3
1.20810E-3	8.99567E-12	905.503E-3	-27.0458E-3	8.82542E-12	795.300E-3	-18.1206E-3
1.20310E-3	8.79009E-12	886.212E-3	-30.6833E-3	8.62641E-12	800.929E-3	-20.5446E-3
1.19810E-3	8.47300E-12	867.426E-3	-25.1998E-3	8.46073E-12	795.316E-3	-21.9525E-3
1.19310E-3	8.24748E-12	850.376E-3	-18.1346E-3	8.12567E-12	763.879E-3	-26.5265E-3
1.18809E-3	7.98891E-12	833.385E-3	-20.6093E-3	7.90669E-12	738.277E-3	-34.3137E-3
1.18309E-3	7.68826E-12	815.629E-3	-23.4277E-3	7.73190E-12	727.769E-3	-26.9167E-3
1.17809E-3	7.51966E-12	796.365E-3	-27.6334E-3	7.59145E-12	726.367E-3	-17.1936E-3
1.17309E-3	7.34844E-12	768.502E-3	-30.3781E-3	7.35927E-12	725.840E-3	-18.0313E-3
1.16808E-3	7.06257E-12	746.011E-3	-24.5620E-3	7.05018E-12	700.293E-3	-7.24428E-3
1.16308E-3	6.75507E-12	736.560E-3	-16.6573E-3	6.82977E-12	659.022E-3	-4.52552E-3
1.15808E-3	6.49099E-12	718.531E-3	-13.0356E-3	6.62990E-12	630.464E-3	-21.9982E-3
1.15308E-3	6.33989E-12	702.898E-3	-15.5797E-3	6.41019E-12	622.419E-3	-29.2735E-3
1.14807E-3	6.13013E-12	691.154E-3	-13.5689E-3	6.07205E-12	618.282E-3	-22.5767E-3
1.14307E-3	5.73099E-12	658.560E-3	-7.10169E-3	5.80982E-12	598.510E-3	-14.1344E-3
1.13807E-3	5.54888E-12	630.626E-3	-10.2407E-3	5.66091E-12	570.276E-3	-7.46041E-3
1.13307E-3	5.44222E-12	626.459E-3	-18.0441E-3	5.44015E-12	547.252E-3	-12.3551E-3
1.12806E-3	5.24116E-12	615.371E-3	-23.8489E-3	5.15832E-12	526.051E-3	-24.1348E-3
1.12306E-3	4.93096E-12	595.492E-3	-27.6799E-3	4.93629E-12	501.983E-3	-20.3901E-3
1.11806E-3	4.71569E-12	575.404E-3	-24.8040E-3	4.79912E-12	481.070E-3	-12.8714E-3
1.11306E-3	4.63133E-12	547.930E-3	-13.0905E-3	4.55140E-12	466.658E-3	-16.1840E-3
1.10805E-3	4.44613E-12	532.735E-3	-1.79347E-3	4.31272E-12	461.190E-3	-18.5845E-3
1.10305E-3	4.29523E-12	529.517E-3	-2.52236E-3	4.21707E-12	460.819E-3	-18.1444E-3
1.09805E-3	4.11007E-12	517.842E-3	-8.00769E-3	4.07634E-12	451.984E-3	-19.9526E-3
1.09305E-3	3.93594E-12	498.178E-3	-12.4873E-3	3.93018E-12	434.190E-3	-18.9111E-3
1.08804E-3	3.88377E-12	472.725E-3	-12.7222E-3	3.80796E-12	421.818E-3	-16.1292E-3
1.08304E-3	3.80537E-12	457.264E-3	-6.91027E-3	3.69034E-12	405.066E-3	-21.5756E-3
1.07804E-3	3.52997E-12	457.662E-3	-9.66275E-3	3.56757E-12	376.913E-3	-26.9585E-3
1.07304E-3	3.41777E-12	450.444E-3	-11.3421E-3	3.42104E-12	358.525E-3	-20.4958E-3
1.06803E-3	3.31028E-12	425.920E-3	-6.01134E-3	3.27834E-12	348.448E-3	-10.8190E-3
1.06303E-3	3.18482E-12	403.098E-3	-10.3061E-3	3.16026E-12	335.035E-3	-4.91376E-3
1.05803E-3	3.04889E-12	396.219E-3	-13.7636E-3	3.01261E-12	328.923E-3	1.36434E-3
1.05303E-3	2.87878E-12	390.514E-3	-4.01089E-3	2.81523E-12	327.277E-3	1.40973E-3
1.04802E-3	2.73071E-12	377.210E-3	1.47576E-3	2.77267E-12	315.207E-3	-9.71402E-3
1.04302E-3	2.72966E-12	362.092E-3	-1.94041E-3	2.84772E-12	295.681E-3	-15.6380E-3
1.03802E-3	2.60970E-12	344.816E-3	-1.47344E-3	2.58110E-12	265.532E-3	-11.1208E-3
1.03302E-3	2.38538E-12	330.811E-3	2.84157E-3	2.26965E-12	233.840E-3	-9.76764E-3
1.02801E-3	2.11505E-12	322.130E-3	6.58028E-3	2.08116E-12	216.417E-3	-15.3036E-3
1.02301E-3	1.95703E-12	311.008E-3	-2.30739E-3	1.98551E-12	207.104E-3	-24.0359E-3
1.01801E-3	1.89696E-12	287.594E-3	-15.1817E-3	1.86784E-12	194.571E-3	-24.5969E-3
1.01301E-3	1.78402E-12	251.594E-3	-11.3291E-3	1.74038E-12	186.946E-3	-17.1825E-3
1.00800E-3	1.68489E-12	221.177E-3	-7.10216E-3	1.67345E-12	191.060E-3	-14.0920E-3
1.00300E-3	1.61016E-12	206.775E-3	-14.2143E-3	1.60955E-12	189.725E-3	-15.1464E-3
997.999E-6	1.58557E-12	211.051E-3	-24.3317E-3	1.53888E-12	174.273E-3	-19.5998E-3
992.997E-6	1.48652E-12	215.240E-3	-34.4472E-3	1.48271E-12	163.576E-3	-28.7507E-3
987.994E-6	1.48876E-12	200.330E-3	-34.2350E-3	1.39070E-12	162.016E-3	-30.9117E-3
982.991E-6	1.42512E-12	186.527E-3	-16.8927E-3	1.35928E-12	163.366E-3	-16.7112E-3
977.989E-6	1.35275E-12	182.481E-3	4.26941E-3	1.28887E-12	165.421E-3	-7.28146E-3
972.986E-6	1.24548E-12	180.861E-3	7.90901E-3	1.27292E-12	159.203E-3	-15.6145E-3
967.984E-6	1.25862E-12	183.282E-3	1.08153E-3	1.17171E-12	146.119E-3	-20.8461E-3
962.981E-6	1.19054E-12	178.824E-3	2.99547E-3	1.12902E-12	129.722E-3	-17.0819E-3
957.979E-6	1.13554E-12	156.945E-3	5.93702E-3	1.10860E-12	119.229E-3	-24.0978E-3
952.976E-6	1.04914E-12	135.288E-3	1.90547E-3	1.07163E-12	122.600E-3	-37.0356E-3
947.974E-6	1.02532E-12	129.358E-3	-9.01549E-3	1.00730E-12	119.979E-3	-35.3720E-3
942.971E-6	1.06485E-12	126.842E-3	-23.1418E-3	953.201E-15	107.881E-3	-23.1956E-3
937.969E-6	950.097E-15	117.202E-3	-33.4546E-3	894.276E-15	93.0259E-3	-18.7125E-3
932.966E-6	864.744E-15	109.332E-3	-30.5046E-3	880.203E-15	82.6103E-3	-22.6671E-3
927.964E-6	842.039E-15	108.647E-3	-14.6567E-3	884.999E-15	85.4324E-3	-30.2425E-3
922.961E-6	851.273E-15	120.196E-3	-10.8922E-3	818.113E-15	84.5534E-3	-28.3636E-3
917.959E-6	796.847E-15	134.751E-3	-21.6512E-3	722.288E-15	85.9506E-3	-10.9370E-3
912.956E-6	747.757E-15	122.737E-3	-33.8073E-3	705.216E-15	90.1050E-3	-4.93304E-3
907.954E-6	707.038E-15	97.1777E-3	-38.5579E-3	748.053E-15	83.2483E-3	-5.37853E-3
902.951E-6	752.657E-15	85.7351E-3	-29.1850E-3	687.027E-15	68.4109E-3	653.930E-6
897.949E-6	681.621E-15	82.9596E-3	-23.9307E-3	610.681E-15	59.5368E-3	-6.28304E-3
892.946E-6	618.258E-15	83.2207E-3	-27.2732E-3	582.151E-15	63.6532E-3	-25.5264E-3
887.944E-6	659.875E-15	79.4804E-3	-21.0523E-3	573.789E-15	70.7303E-3	-32.4809E-3
882.941E-6	656.169E-15	67.4862E-3	-13.6517E-3	605.868E-15	64.7812E-3	-27.5038E-3
877.939E-6	568.314E-15	65.1852E-3	-10.2572E-3	545.051E-15	42.3624E-3	-25.6137E-3
872.936E-6	573.545E-15	71.7446E-3	-3.82847E-3	513.844E-15	34.3367E-3	-17.8704E-3
867.934E-6	504.567E-15	72.3426E-3	-1.50382E-3	472.523E-15	45.0288E-3	-4.58516E-3
862.931E-6	478.252E-15	71.2216E-3	-6.05007E-3	500.713E-15	42.1258E-3	-3.86366E-3
857.929E-6	464.580E-15	69.3731E-3	-16.1343E-3	477.485E-15	29.4032E-3	-6.18876E-3
852.926E-6	494.008E-15	60.9520E-3	-25.2125E-3	406.065E-15	30.8871E-3	-3.49661E-3
847.924E-6	492.499E-15	55.7015E-3	-29.4064E-3	463.656E-15	42.8980E-3	-8.19594E-3
842.921E-6	432.999E-15	59.4871E-3	-31.8342E-3	439.617E-15	55.3497E-3	-12.7466E-3
837.919E-6	407.660E-15	59.7435E-3	-29.3540E-3	368.546E-15	68.5831E-3	-11.0378E-3
832.916E-6	404.635E-15	55.2159E-3	-24.7358E-3	403.405E-15	67.7878E-3	-16.7673E-3
827.914E-6	420.591E-15	54.7145E-3	-27.2591E-3	357.115E-15	55.7781E-3	-20.3164E-3
822.911E-6	376.977E-15	53.9795E-3	-28.9826E-3	312.742E-15	49.1691E-3	-16.8398E-3
817.909E-6	284.683E-15	53.1160E-3	-19.6546E-3	369.897E-15	42.4918E-3	-15.2875E-3
812.906E-6	287.264E-15	53.6887E-3	-11.8565E-3	387.353E-15	35.7699E-3	-4.46710E-3
807.904E-6	341.524E-15	41.6589E-3	-9.61384E-3	273.941E-15	26.9021E-3	-2.37855E-3
802.901E-6	252.649E-15	22.1449E-3	-1.63072E-3	249.989E-15	24.1237E-3	-27.2420E-3
797.899E-6	227.633E-15	19.5264E-3	2.02972E-3	263.033E-15	33.4406E-3	-43.5907E-3
792.896E-6	260.016E-15	25.4108E-3	-4.64523E-3	297.614E-15	32.1388E-3	-29.5140E-3
787.894E-6	281.623E-15	25.3940E-3	-10.9593E-3	268.239E-15	16.5298E-3	-15.5600E-3
782.891E-6	292.975E-15	28.6465E-3	-13.3242E-3	193.444E-15	11.6356E-3	-19.4736E-3
777.889E-6	196.644E-15	30.8112E-3	-13.6322E-3	199.339E-15	20.3125E-3	-26.1675E-3
772.886E-6	193.933E-15	22.4213E-3	-17.0014E-3	219.271E-15	24.3460E-3	-28.9712E-3
767.884E-6	247.452E-15	16.4619E-3	-15.9435E-3	230.746E-15	22.5067E-3	-19.6621E-3
762.881E-6	241.392E-15	28.7830E-3	-6.58583E-3	194.351E-15	19.7001E-3	-5.99491E-3
757.879E-6	169.109E-15	39.0876E-3	-6.90950E-3	154.644E-15	12.0344E-3	-5.39664E-3
752.876E-6	224.494E-15	31.1973E-3	-20.5211E-3	201.353E-15	5.05368E-3	-14.1914E-3
747.874E-6	222.148E-15	27.2230E-3	-31.2974E-3	178.447E-15	6.45260E-3	-29.0316E-3
742.871E-6	155.489E-15	33.0476E-3	-35.6845E-3	167.051E-15	9.15497E-3	-40.4919E-3
737.869E-6	164.182E-15	34.2527E-3	-37.0653E-3	160.023E-15	6.04232E-3	-32.5903E-3
732.866E-6	179.799E-15	22.5022E-3	-28.9328E-3	163.520E-15	7.60545E-3	-14.0521E-3
727.864E-6	149.499E-15	6.24829E-3	-16.6006E-3	165.002E-15	16.3474E-3	-9.61054E-3
722.861E-6	134.493E-15	563.371E-6	-12.8076E-3	148.653E-15	22.1890E-3	-12.9559E-3
717.859E-6	162.936E-15	8.80228E-3	-14.2399E-3	136.255E-15	22.7209E-3	-13.8678E-3
712.856E-6	164.828E-15	24.4438E-3	-11.6388E-3	120.656E-15	18.0336E-3	-20.6989E-3
707.854E-6	135.984E-15	24.4829E-3	-6.77700E-3	141.974E-15	10.4844E-3	-26.8416E-3
702.851E-6	102.014E-15	17.8464E-3	-11.7072E-3	136.830E-15	12.4254E-3	-20.9185E-3
697.849E-6	143.021E-15	25.6266E-3	-19.2036E-3	120.464E-15	16.8262E-3	-15.3015E-3
692.846E-6	135.025E-15	27.9067E-3	-21.4758E-3	80.4946E-15	9.34577E-3	-17.9139E-3
687.844E-6	140.466E-15	12.8805E-3	-13.6188E-3	64.5295E-15	10.4051E-3	-19.3526E-3
682.841E-6	71.5834E-15	4.27305E-3	3.29713E-3	97.3926E-15	23.9319E-3	-27.0631E-3
677.839E-6	68.8891E-15	6.79369E-3	9.32689E-3	152.856E-15	29.2979E-3	-37.3528E-3
672.836E-6	141.015E-15	6.65969E-3	584.011E-6	89.7806E-15	24.2599E-3	-34.1203E-3
667.834E-6	97.3141E-15	7.99324E-3	-13.7192E-3	32.9133E-15	16.6278E-3	-22.5196E-3
662.831E-6	47.2914E-15	6.68311E-3	-23.9295E-3	76.9632E-15	9.70775E-3	-6.80109E-3
657.829E-6	61.0679E-15	4.32623E-3	-21.3707E-3	143.849E-15	-572.187E-6	7.64791E-3
652.826E-6	109.626E-15	7.89273E-3	-7.32287E-3	74.4346E-15	70.0590E-6	2.65425E-3
647.824E-6	109.469E-15	10.5895E-3	903.608E-6	66.3082E-15	11.8091E-3	-12.0880E-3
642.821E-6	22.7291E-15	17.7323E-3	-9.35480E-3	57.2663E-15	17.2958E-3	-11.3731E-3
637.819E-6	85.1332E-15	23.9598E-3	-18.6154E-3	110.384E-15	16.7551E-3	-4.77993E-3
632.816E-6	64.3900E-15	21.6564E-3	-17.5374E-3	81.1049E-15	5.70997E-3	-6.85521E-3
627.814E-6	110.271E-15	17.8388E-3	-14.3208E-3	50.5612E-15	-7.76388E-3	-15.3073E-3
622.811E-6	81.2706E-15	17.7770E-3	-2.31407E-3	57.7459E-15	3.02303E-3	-19.2955E-3
617.809E-6	71.2870E-15	8.76898E-3	2.97560E-3	55.8451E-15	22.1307E-3	-15.1613E-3
612.806E-6	2.84911E-15	-8.81886E-3	-13.4681E-3	61.1464E-15	22.6348E-3	-13.9888E-3
607.804E-6	60.5709E-15	-10.4748E-3	-32.8442E-3	1.02677E-15	19.9704E-3	-5.34978E-3
602.801E-6	56.6734E-15	-2.19316E-3	-33.2781E-3	12.6758E-15	12.8700E-3	1.04822E-3
597.799E-6	26.6267E-15	8.27255E-3	-22.3833E-3	32.4860E-15	845.137E-6	-19.5961E-3
592.796E-6	21.8310E-15	17.7939E-3	-17.5674E-3	60.3355E-15	8.53325E-3	-33.4984E-3
587.794E-6	25.2577E-15	14.1875E-3	-15.8314E-3	33.5847E-15	21.5895E-3	-23.0118E-3
582.791E-6	23.2000E-15	6.54027E-3	-7.99193E-3	45.1726E-15	2.99850E-3	-17.3605E-3
577.789E-6	71.6619E-15	10.9891E-3	-685.216E-6	33.8288E-15	-18.0399E-3	-28.1947E-3
572.786E-6	54.6418E-15	16.7844E-3	-7.11094E-3	2.90142E-15	-5.00317E-3	-45.0699E-3
567.784E-6	198.435E-18	17.3233E-3	-18.8936E-3	36.4359E-15	9.61970E-3	-44.3881E-3
562.781E-6	19.1542E-15	12.7780E-3	-23.6122E-3	21.8223E-15	12.6190E-3	-22.9455E-3
557.779E-6	68.4706E-15	5.42780E-3	-26.2479E-3	12.9286E-15	7.45163E-3	-8.63291E-3
552.776E-6	9.57170E-15	9.37763E-3	-28.0417E-3	3.52050E-15	-2.93542E-3	-13.0351E-3
547.774E-6	-34.7834E-15	6.41112E-3	-24.4051E-3	9.86815E-15	2.28049E-3	-17.7578E-3
542.771E-6	9.26652E-15	-5.29453E-3	-20.3847E-3	75.7861E-15	5.43891E-3	-12.7903E-3
537.769E-6	12.3619E-15	-872.463E-6	-22.2153E-3	21.4300E-15	-4.28197E-3	-7.27657E-3
532.766E-6	65.5932E-15	5.11795E-3	-26.0270E-3	-56.0673E-15	-4.97601E-3	-1.36852E-3
527.764E-6	-72.1805E-15	300.694E-6	-21.5030E-3	8.25508E-15	-2.28173E-3	-10.6529E-3
522.761E-6	-36.6581E-15	-1.27452E-3	-16.3481E-3	-6.45439E-15	-9.98696E-3	-33.5439E-3
517.759E-6	44.6495E-15	-1.51348E-3	-16.2592E-3	28.6844E-15	-9.48581E-3	-32.9354E-3
512.756E-6	-34.1469E-15	-9.25290E-3	-12.6283E-3	-25.1312E-15	8.47099E-3	-20.0159E-3
507.754E-6	-81.4056E-15	-16.7314E-3	-16.2379E-3	-58.0465E-15	16.0868E-3	-18.4265E-3
502.751E-6	-882.757E-18	-8.31752E-3	-27.6973E-3	-24.5905E-15	5.12053E-3	-13.7435E-3
497.749E-6	-13.0549E-15	9.63615E-3	-27.6507E-3	-32.6908E-15	1.72834E-3	-9.36627E-3
492.746E-6	-27.8167E-15	16.7098E-3	-21.5977E-3	-2.28656E-15	12.0556E-3	-15.3982E-3
487.744E-6	-8.57319E-15	12.9822E-3	-20.1111E-3	19.3460E-15	11.5879E-3	-16.8428E-3
482.741E-6	-22.3323E-15	11.5926E-3	-15.1674E-3	-45.9529E-15	-769.078E-6	-12.8049E-3
477.739E-6	-52.2831E-15	5.98593E-3	-7.87981E-3	-16.1067E-15	-14.8209E-3	-18.3275E-3
472.736E-6	-77.4732E-15	2.40193E-3	-3.19375E-3	-35.2368E-15	-15.6990E-3	-21.6529E-3
467.734E-6	-23.1432E-15	3.27727E-3	-6.92925E-3	-33.0744E-15	5.51660E-3	-20.0296E-3
462.731E-6	-39.5878E-15	886.780E-6	-14.1829E-3	-50.1207E-15	18.7639E-3	-19.7796E-3
457.729E-6	-30.1186E-15	3.99307E-3	-19.8590E-3	-23.5617E-15	11.5585E-3	-8.35339E-3
452.726E-6	-80.8824E-15	5.01331E-3	-20.6139E-3	-35.1148E-15	-168.222E-6	3.37341E-3
447.724E-6	-64.1501E-15	-1.93965E-3	-8.79439E-3	-54.6722E-15	-10.2646E-3	-6.10788E-3
442.721E-6	-6.15794E-15	-2.77299E-3	-2.30252E-3	-65.9375E-15	-18.9493E-3	-22.7702E-3
437.719E-6	-45.2989E-15	289.969E-6	-2.74239E-3	-56.5119E-15	-21.1742E-3	-23.2093E-3
432.716E-6	-89.7587E-15	-762.372E-6	-6.13123E-3	-24.5034E-15	-19.6088E-3	-19.5723E-3
427.714E-6	-42.7093E-15	5.60402E-3	-16.0809E-3	-13.3078E-15	-22.4557E-3	-13.5116E-3
422.711E-6	-13.0811E-15	15.7735E-3	-16.0900E-3	-72.7909E-15	-13.5512E-3	-5.59099E-3
417.709E-6	-62.4324E-15	18.6408E-3	-16.8983E-3	-82.3037E-15	4.85976E-3	-17.6532E-3
412.706E-6	-59.7817E-15	14.9720E-3	-23.4421E-3	-81.7282E-15	12.3139E-3	-26.6085E-3
407.704E-6	-90.3167E-15	5.91631E-3	-16.6286E-3	6.89487E-15	7.31693E-3	-16.9413E-3
402.701E-6	-49.5278E-15	-4.54436E-3	-8.90560E-3	-60.3223E-15	-5.56512E-3	-22.7873E-3
397.699E-6	-68.8498E-15	-3.50012E-3	-14.7117E-3	-148.658E-15	-17.3562E-3	-41.8506E-3
392.696E-6	-107.877E-15	13.1091E-3	-19.1816E-3	-108.636E-15	-10.4679E-3	-36.9137E-3
387.694E-6	-89.9766E-15	22.5594E-3	-13.5184E-3	-76.6535E-15	10.1595E-3	-12.2846E-3
382.691E-6	-77.9353E-15	10.4178E-3	-10.1263E-3	-35.1584E-15	10.2746E-3	-283.875E-6
377.689E-6	-99.2017E-15	-1.08312E-3	-5.77351E-3	-47.9060E-15	-1.65966E-3	-10.7319E-3
372.686E-6	-107.659E-15	1.35699E-3	-6.84930E-3	-147.986E-15	3.34702E-3	-32.7874E-3
367.684E-6	-79.0078E-15	7.99788E-3	-14.6465E-3	-101.190E-15	8.26731E-3	-39.4688E-3
362.681E-6	-79.7663E-15	11.0957E-3	-15.7069E-3	-119.439E-15	2.34275E-3	-26.7652E-3
357.679E-6	-100.004E-15	1.22096E-3	-14.2479E-3	-133.338E-15	-2.46850E-3	-14.0219E-3
352.676E-6	-99.9254E-15	-10.1919E-3	-14.3475E-3	-90.6655E-15	-10.3188E-3	-8.97019E-3
347.674E-6	-107.075E-15	-2.92976E-3	-16.1944E-3	-90.0377E-15	-16.4606E-3	-15.8068E-3
342.671E-6	-79.5571E-15	10.5355E-3	-21.2196E-3	-73.4710E-15	-3.74249E-3	-30.0076E-3
337.669E-6	-101.434E-15	14.9106E-3	-29.4348E-3	-118.532E-15	13.5958E-3	-31.6455E-3
332.666E-6	-85.5996E-15	12.1582E-3	-26.3831E-3	-110.999E-15	15.7427E-3	-28.4339E-3
327.664E-6	-87.1167E-15	2.79837E-3	-7.63964E-3	-86.6720E-15	14.9936E-3	-36.6606E-3
322.661E-6	-87.3870E-15	-2.81913E-3	1.27891E-3	-107.093E-15	9.02608E-3	-42.5089E-3
317.659E-6	-142.851E-15	6.17702E-3	-11.0302E-3	-90.0028E-15	2.08065E-3	-36.9454E-3
312.656E-6	-115.298E-15	15.3283E-3	-23.5529E-3	-86.3756E-15	9.25219E-3	-17.8034E-3
307.654E-6	-30.6418E-15	8.88551E-3	-24.0059E-3	-121.166E-15	6.57927E-3	2.58356E-3
302.651E-6	-101.312E-15	-2.29770E-3	-15.8203E-3	-125.115E-15	-18.8064E-3	3.78673E-3
297.649E-6	-188.235E-15	-563.084E-6	-7.75514E-3	-118.288E-15	-38.2762E-3	-10.2981E-3
292.646E-6	-108.366E-15	9.33650E-3	-5.65470E-3	-67.4198E-15	-22.8063E-3	-17.8507E-3
287.644E-6	-67.5506E-15	14.5430E-3	-8.04727E-3	-88.6949E-15	1.03517E-3	-5.10502E-3
282.641E-6	-108.235E-15	13.1840E-3	-14.9057E-3	-148.562E-15	3.79263E-3	9.18968E-3
277.639E-6	-140.985E-15	8.83985E-3	-20.7850E-3	-151.892E-15	-265.084E-6	6.94574E-3
272.636E-6	-150.332E-15	6.73574E-3	-21.8767E-3	-115.577E-15	300.380E-6	-10.6944E-3
267.634E-6	-103.875E-15	6.30800E-3	-22.7907E-3	-86.3407E-15	9.67268E-3	-28.9496E-3
262.631E-6	-104.503E-15	2.69057E-3	-26.0289E-3	-124.121E-15	21.3964E-3	-28.2582E-3
257.629E-6	-153.994E-15	2.72473E-3	-19.2968E-3	-151.797E-15	18.2021E-3	-15.7847E-3
252.626E-6	-139.773E-15	6.94693E-3	-6.67242E-3	-104.555E-15	6.54737E-3	-225.289E-6
247.624E-6	-99.8905E-15	6.11380E-3	-7.23776E-3	-100.326E-15	3.88697E-3	3.39013E-3
242.621E-6	-173.351E-15	2.90663E-3	-13.4384E-3	-107.677E-15	-869.297E-6	-8.10955E-3
237.619E-6	-111.810E-15	-1.84830E-3	-15.9993E-3	-78.6677E-15	-7.67052E-3	-15.7477E-3
232.616E-6	-124.043E-15	-4.02971E-3	-9.90766E-3	-118.323E-15	1.90261E-3	-20.0436E-3
227.614E-6	-131.794E-15	1.83863E-3	-2.53466E-3	-128.472E-15	9.09033E-3	-18.2495E-3
222.611E-6	-142.955E-15	1.73631E-3	-4.74561E-3	-132.719E-15	-1.21279E-3	-15.5452E-3
217.609E-6	-145.693E-15	-7.38157E-3	-14.6494E-3	-167.195E-15	1.44279E-3	-21.6998E-3
212.606E-6	-113.170E-15	-10.2152E-3	-24.5157E-3	-142.310E-15	16.0657E-3	-18.7567E-3
207.604E-6	-158.484E-15	-5.74478E-3	-25.0312E-3	-127.932E-15	16.9154E-3	-7.84628E-3
202.601E-6	-129.397E-15	5.22777E-3	-20.1720E-3	-130.460E-15	5.86806E-3	-6.55124E-3
197.599E-6	-150.340E-15	13.5338E-3	-15.2330E-3	-151.369E-15	-6.81995E-3	-5.48840E-3
192.596E-6	-95.9842E-15	8.01896E-3	-8.72618E-3	-135.779E-15	-3.24742E-3	-6.09661E-3
187.594E-6	-117.713E-15	-2.86861E-3	-13.0365E-3	-194.120E-15	11.8977E-3	-12.1624E-3
182.591E-6	-167.753E-15	-7.04006E-3	-26.0235E-3	-108.592E-15	5.74704E-3	-12.4975E-3
177.589E-6	-180.718E-15	-2.04918E-3	-26.9337E-3	-153.654E-15	-10.0138E-3	-5.34318E-3
172.586E-6	-73.1048E-15	6.79721E-3	-21.4610E-3	-186.996E-15	-12.7910E-3	810.277E-6
167.584E-6	-108.052E-15	17.2297E-3	-23.3231E-3	-153.732E-15	-8.84699E-3	-7.06156E-3
162.581E-6	-189.830E-15	21.4831E-3	-31.4878E-3	-143.470E-15	7.53404E-3	-12.1793E-3
157.579E-6	-129.841E-15	10.2010E-3	-31.7680E-3	-110.458E-15	28.0682E-3	-6.73186E-3
152.576E-6	-135.422E-15	-11.4401E-3	-23.6373E-3	-104.032E-15	21.9799E-3	-3.75676E-3
147.574E-6	-112.089E-15	-16.6641E-3	-23.6719E-3	-196.980E-15	-1.81182E-3	-2.66112E-3
142.571E-6	-201.758E-15	2.08112E-3	-29.7082E-3	-198.218E-15	-8.45478E-3	-16.4067E-3
137.569E-6	-165.032E-15	12.1596E-3	-26.8557E-3	-124.113E-15	478.838E-6	-30.5639E-3
132.566E-6	-114.155E-15	8.23552E-3	-17.5202E-3	-118.524E-15	1.87311E-3	-23.2109E-3
127.564E-6	-131.655E-15	-1.40324E-3	-15.6367E-3	-175.844E-15	-7.14375E-3	-10.5555E-3
122.561E-6	-169.218E-15	-8.07439E-3	-16.9580E-3	-171.650E-15	-7.42891E-3	-4.14426E-3
117.559E-6	-191.033E-15	-4.10391E-3	-12.9021E-3	-161.257E-15	1.22438E-3	-10.5863E-3
112.556E-6	-149.547E-15	-4.53568E-3	-20.1094E-3	-203.371E-15	50.0833E-6	-30.3236E-3
107.554E-6	-171.554E-15	-8.62669E-3	-38.4077E-3	-125.735E-15	-4.13110E-3	-40.2313E-3
102.551E-6	-140.522E-15	-6.05128E-3	-37.2297E-3	-171.049E-15	-4.03895E-3	-25.7485E-3
97.5488E-6	-140.078E-15	-3.59958E-3	-22.5303E-3	-154.334E-15	-547.694E-6	-15.8141E-3
92.5463E-6	-147.315E-15	-8.19467E-3	-22.9623E-3	-145.414E-15	3.67573E-3	-33.4493E-3
87.5438E-6	-166.986E-15	-13.1774E-3	-28.7603E-3	-143.138E-15	7.36135E-3	-39.9101E-3
82.5413E-6	-139.502E-15	-19.2407E-3	-24.2639E-3	-145.911E-15	10.5642E-3	-22.1415E-3
77.5388E-6	-151.518E-15	-21.7580E-3	-26.5679E-3	-154.456E-15	-1.87393E-3	-14.3393E-3
72.5363E-6	-186.848E-15	-11.8732E-3	-29.6724E-3	-176.498E-15	-18.6495E-3	-13.4122E-3
67.5338E-6	-202.979E-15	-1.11028E-3	-21.8199E-3	-145.667E-15	-13.8545E-3	-16.2363E-3
62.5313E-6	-161.013E-15	1.13466E-3	-19.8440E-3	-176.481E-15	-1.61717E-3	-20.2202E-3
57.5288E-6	-141.447E-15	1.50405E-3	-19.7432E-3	-181.102E-15	-437.308E-6	-15.8198E-3
52.5263E-6	-166.079E-15	1.80457E-3	-19.4534E-3	-200.991E-15	-2.17830E-3	-7.68786E-3
47.5238E-6	-210.120E-15	-6.41159E-3	-16.1055E-3	-152.477E-15	-6.31085E-3	-13.9906E-3
42.5213E-6	-200.119E-15	-9.70702E-3	-6.69996E-3	-125.586E-15	-4.60311E-3	-33.1841E-3
37.5188E-6	-169.767E-15	28.5904E-6	-9.74961E-3	-163.071E-15	11.3706E-3	-33.4322E-3
32.5163E-6	-138.883E-15	1.56905E-3	-22.9246E-3	-201.898E-15	17.8468E-3	-23.4928E-3
27.5138E-6	-205.159E-15	-16.2512E-3	-29.2758E-3	-180.117E-15	-2.52506E-3	-18.7971E-3
22.5113E-6	-172.269E-15	-36.4386E-3	-18.8567E-3	-163.916E-15	-26.7779E-3	-17.4859E-3
17.5088E-6	-153.959E-15	-33.4073E-3	-2.82308E-3	-179.384E-15	-19.3506E-3	-22.5487E-3
12.5063E-6	-175.147E-15	-15.0426E-3	-5.39428E-3	-206.231E-15	4.78217E-3	-30.6396E-3
7.50375E-6	-228.683E-15	-8.29498E-3	-18.7184E-3	-211.297E-15	12.9623E-3	-26.6023E-3
2.50125E-6	-187.581E-15	-11.8022E-3	-22.3824E-3	-188.531E-15	12.3563E-3	-12.0282E-3
-2.50125E-6	-128.952E-15	-15.6948E-3	-13.8368E-3	-149.416E-15	6.72139E-3	-5.57091E-3
-7.50375E-6	-164.021E-15	-21.3160E-3	-494.978E-6	-171.241E-15	-2.04189E-3	-5.23172E-3
-12.5063E-6	-198.236E-15	-20.7877E-3	-2.89081E-3	-155.502E-15	-3.76276E-3	-8.40584E-3
-17.5088E-6	-125.926E-15	-13.3801E-3	-18.4452E-3	-150.471E-15	-3.92840E-3	-19.6570E-3
-22.5113E-6	-204.043E-15	-2.03777E-3	-18.7437E-3	-157.438E-15	-6.54760E-3	-26.4885E-3
-27.5138E-6	-175.016E-15	8.39176E-3	-4.33562E-3	-208.446E-15	-8.99320E-3	-26.0711E-3
-32.5163E-6	-160.751E-15	5.72848E-3	-758.440E-6	-152.634E-15	-11.2522E-3	-29.5575E-3
-37.5188E-6	-185.811E-15	926.932E-6	-14.0531E-3	-204.383E-15	-6.49436E-3	-31.9772E-3
-42.5213E-6	-186.403E-15	8.56936E-3	-26.0168E-3	-185.139E-15	12.2724E-3	-29.5290E-3
-47.5238E-6	-219.641E-15	9.34508E-3	-25.4870E-3	-180.160E-15	20.2740E-3	-18.8055E-3
-52.5263E-6	-160.411E-15	-3.64525E-3	-14.7007E-3	-170.412E-15	4.39011E-3	-3.89233E-3
-57.5288E-6	-172.784E-15	-11.1602E-3	-3.76146E-3	-231.386E-15	-6.96899E-3	-2.30150E-3
-62.5313E-6	-199.064E-15	-7.67441E-3	-5.74498E-3	-199.421E-15	-5.98971E-3	-20.9144E-3
-67.5338E-6	-244.614E-15	4.20481E-3	-9.69146E-3	-180.091E-15	-2.94749E-3	-32.1300E-3
-72.5363E-6	-187.982E-15	18.5414E-3	-4.62434E-3	-149.120E-15	9.23990E-3	-16.0013E-3
-77.5388E-6	-154.770E-15	18.5042E-3	-11.1091E-3	-222.170E-15	10.2015E-3	3.77059E-3
-82.5413E-6	-185.113E-15	11.1094E-3	-20.8026E-3	-248.084E-15	-17.0777E-3	-444.266E-6
-87.5438E-6	-203.903E-15	12.8400E-3	-17.4758E-3	-189.630E-15	-26.2110E-3	-24.1527E-3
-92.5463E-6	-196.483E-15	1.38931E-3	-19.4267E-3	-137.192E-15	2.06454E-3	-41.6674E-3
-97.5488E-6	-174.458E-15	-18.4423E-3	-17.9418E-3	-169.226E-15	22.1924E-3	-29.7937E-3
-102.551E-6	-175.496E-15	-23.0457E-3	-5.65956E-3	-191.548E-15	16.9329E-3	3.47803E-3
-107.554E-6	-239.208E-15	-16.7643E-3	641.392E-6	-194.199E-15	6.37061E-3	5.98267E-3
-112.556E-6	-216.180E-15	-4.01616E-3	-1.22977E-3	-178.669E-15	-7.18109E-3	-17.7503E-3
-117.559E-6	-165.765E-15	9.84807E-3	-8.92648E-3	-177.484E-15	-14.5517E-3	-17.1665E-3
-122.561E-6	-175.844E-15	15.8941E-3	-17.6929E-3	-214.462E-15	-7.02005E-3	-5.79952E-3
-127.564E-6	-268.783E-15	14.4983E-3	-21.4030E-3	-193.431E-15	-944.327E-6	-8.39351E-3
-132.566E-6	-230.427E-15	6.14621E-3	-19.2134E-3	-238.702E-15	-1.52040E-3	-16.5398E-3
-137.569E-6	-169.802E-15	-8.83925E-3	-14.8397E-3	-223.382E-15	880.956E-6	-23.5296E-3
-142.571E-6	-221.080E-15	-10.1291E-3	-17.9987E-3	-207.121E-15	1.98155E-3	-24.5740E-3
-147.574E-6	-168.102E-15	2.49982E-3	-26.8593E-3	-194.111E-15	-3.48571E-3	-14.9455E-3
-152.576E-6	-222.475E-15	6.19110E-3	-23.8364E-3	-201.933E-15	-5.19564E-3	-10.7962E-3
-157.579E-6	-224.943E-15	6.92115E-3	-19.4940E-3	-187.877E-15	-5.15544E-3	-24.2136E-3
-162.581E-6	-221.342E-15	6.58541E-3	-25.9803E-3	-230.724E-15	-286.542E-6	-35.4834E-3
-167.584E-6	-198.802E-15	-407.462E-6	-26.1454E-3	-198.175E-15	10.9499E-3	-37.5375E-3
-172.586E-6	-178.207E-15	-2.59708E-3	-16.8515E-3	-165.730E-15	8.51160E-3	-27.1617E-3
-177.589E-6	-224.690E-15	-8.51279E-3	-9.68440E-3	-200.433E-15	-2.61118E-3	-4.32126E-3
-182.591E-6	-210.129E-15	-12.7921E-3	-14.8041E-3	-216.877E-15	-6.00532E-3	-4.81287E-3
-187.594E-6	-238.728E-15	4.30445E-3	-27.7268E-3	-220.043E-15	-6.97444E-3	-34.9055E-3
-192.596E-6	-155.712E-15	21.1106E-3	-31.2213E-3	-212.893E-15	-709.874E-6	-47.8801E-3
-197.599E-6	-228.326E-15	13.1422E-3	-27.0815E-3	-218.578E-15	4.42605E-3	-27.4126E-3
-202.601E-6	-278.279E-15	-8.58616E-3	-31.2731E-3	-197.242E-15	-6.96851E-3	-4.50105E-3
-207.604E-6	-213.922E-15	-9.95019E-3	-35.4592E-3	-189.778E-15	-11.5647E-3	-6.00756E-6
-212.606E-6	-167.073E-15	4.35195E-3	-24.2127E-3	-180.527E-15	-4.15416E-3	-14.0470E-3
-217.609E-6	-229.922E-15	3.91248E-3	-11.5703E-3	-242.704E-15	-2.64423E-3	-27.0269E-3
-222.611E-6	-250.299E-15	-5.75786E-3	-12.3498E-3	-264.616E-15	-2.35851E-3	-20.0178E-3
-227.614E-6	-232.441E-15	-19.8261E-3	-12.8566E-3	-156.209E-15	639.213E-6	-7.67823E-3
-232.616E-6	-201.549E-15	-25.8665E-3	-1.33048E-3	-210.076E-15	1.52026E-3	-6.23954E-3
-237.619E-6	-218.429E-15	-10.9364E-3	6.52690E-3	-263.386E-15	1.94265E-3	-12.0000E-3
-242.621E-6	-262.872E-15	9.09540E-3	-887.093E-6	-229.634E-15	5.39857E-3	-13.5045E-3
-247.624E-6	-267.920E-15	8.17750E-3	-15.6296E-3	-228.291E-15	8.57708E-3	-9.56354E-3
-252.626E-6	-169.497E-15	-10.5588E-3	-25.7708E-3	-199.369E-15	11.9178E-3	-784.327E-6
-257.629E-6	-256.978E-15	-16.8866E-3	-23.0796E-3	-251.702E-15	9.38208E-3	14.5139E-3
-262.631E-6	-293.564E-15	-6.90737E-3	-15.1201E-3	-252.156E-15	3.02206E-3	12.9613E-3
-267.634E-6	-244.160E-15	3.03646E-3	-13.0743E-3	-242.992E-15	2.26274E-3	-3.66321E-3
-272.636E-6	-253.943E-15	854.536E-6	-13.7352E-3	-260.282E-15	-2.41160E-3	-10.0730E-3
-277.639E-6	-262.349E-15	-9.95547E-3	-6.76691E-3	-227.559E-15	-17.6426E-3	-13.3598E-3
-282.641E-6	-227.506E-15	-14.2566E-3	2.53627E-3	-275.419E-15	-29.0573E-3	-21.8564E-3
-287.644E-6	-207.016E-15	-9.91598E-3	3.04483E-3	-275.201E-15	-23.5667E-3	-26.4355E-3
-292.646E-6	-272.071E-15	-4.98673E-3	-3.09167E-3	-255.077E-15	-12.9835E-3	-29.9095E-3
-297.649E-6	-254.222E-15	-4.10613E-3	-13.4482E-3	-225.536E-15	-9.81124E-3	-34.3866E-3
-302.651E-6	-245.503E-15	-11.6138E-3	-18.1644E-3	-236.400E-15	-7.66655E-3	-27.7194E-3
-307.654E-6	-187.267E-15	-20.4841E-3	-12.5878E-3	-274.495E-15	-3.82881E-3	-16.6839E-3
-312.656E-6	-236.801E-15	-13.6944E-3	-6.03618E-3	-285.394E-15	-2.09131E-3	-8.89117E-3
-317.659E-6	-311.377E-15	1.07467E-3	-2.39497E-3	-226.512E-15	196.908E-6	-8.63047E-3
-322.661E-6	-255.766E-15	-5.21927E-3	-13.2752E-3	-245.887E-15	-567.985E-6	-16.1698E-3
-327.664E-6	-215.683E-15	-20.0323E-3	-26.6104E-3	-288.602E-15	-7.28154E-3	-11.2805E-3
-332.666E-6	-212.570E-15	-20.9906E-3	-15.4181E-3	-279.752E-15	-12.0554E-3	-2.65601E-3
-337.669E-6	-321.649E-15	-15.6127E-3	1.79045E-3	-257.422E-15	-4.39009E-3	-13.4517E-3
-342.671E-6	-241.161E-15	-8.87119E-3	5.53609E-3	-199.918E-15	8.47561E-3	-35.1430E-3
-347.674E-6	-251.598E-15	-7.89113E-3	-2.64649E-3	-254.937E-15	7.50350E-3	-36.0515E-3
-352.676E-6	-265.540E-15	-11.8040E-3	-11.3871E-3	-307.916E-15	4.40479E-3	-11.1298E-3
-357.679E-6	-291.794E-15	-626.988E-6	-10.1433E-3	-287.329E-15	4.94141E-3	-670.200E-6
-362.681E-6	-313.836E-15	11.5968E-3	-7.32172E-3	-264.197E-15	-5.68616E-3	-13.3973E-3
-367.684E-6	-250.578E-15	4.08519E-3	-12.0140E-3	-249.060E-15	-8.83538E-3	-26.0807E-3
-372.686E-6	-267.162E-15	-3.14873E-3	-24.8498E-3	-264.502E-15	-778.285E-6	-26.6540E-3
-377.689E-6	-301.943E-15	-1.24252E-3	-22.0112E-3	-305.806E-15	-1.87558E-3	-13.3108E-3
-382.691E-6	-263.962E-15	-2.80883E-3	-7.19300E-3	-272.864E-15	-12.5470E-3	-3.66848E-3
-387.694E-6	-266.630E-15	-181.283E-6	-12.9736E-3	-268.077E-15	-22.4858E-3	-9.26910E-3
-392.696E-6	-292.823E-15	14.5232E-3	-15.8764E-3	-269.185E-15	-16.5357E-3	-15.0389E-3
-397.699E-6	-294.654E-15	13.2140E-3	-8.76053E-3	-255.251E-15	1.28206E-3	-19.0013E-3
-402.701E-6	-298.089E-15	-10.5316E-3	-13.5824E-3	-280.136E-15	9.78274E-3	-22.0272E-3
-407.704E-6	-344.990E-15	-14.4209E-3	-15.0098E-3	-288.271E-15	1.49144E-3	-12.1752E-3
-412.706E-6	-281.348E-15	1.12648E-3	-7.02917E-3	-307.253E-15	-1.90976E-3	-4.63702E-3
-417.709E-6	-332.870E-15	3.77101E-3	-12.3590E-3	-318.832E-15	9.63797E-3	-19.4421E-3
-422.711E-6	-282.464E-15	2.79569E-3	-29.2318E-3	-322.590E-15	19.2131E-3	-32.3746E-3
-427.714E-6	-283.563E-15	1.28554E-3	-29.9121E-3	-272.297E-15	19.6283E-3	-26.7495E-3
-432.716E-6	-348.260E-15	-7.08777E-3	-27.1046E-3	-276.666E-15	13.8075E-3	-24.8291E-3
-437.719E-6	-300.286E-15	-4.97748E-3	-34.1484E-3	-302.693E-15	6.05370E-3	-33.7025E-3
-442.721E-6	-260.491E-15	10.0652E-3	-31.8758E-3	-344.031E-15	-203.195E-6	-32.3439E-3
-447.724E-6	-323.035E-15	14.9500E-3	-28.0403E-3	-325.398E-15	6.83410E-3	-16.9716E-3
-452.726E-6	-354.433E-15	10.2833E-3	-24.9449E-3	-308.378E-15	21.8365E-3	-9.95823E-3
-457.729E-6	-334.405E-15	5.84766E-3	-12.7774E-3	-282.176E-15	19.2696E-3	-11.5612E-3
-462.731E-6	-280.398E-15	864.581E-6	-9.51693E-3	-331.423E-15	7.56656E-3	-13.8875E-3
-467.734E-6	-349.097E-15	-1.48626E-3	-21.6656E-3	-346.098E-15	-1.24093E-3	-22.5173E-3
-472.736E-6	-423.542E-15	2.52471E-3	-30.4820E-3	-364.120E-15	-4.46882E-3	-29.3788E-3
-477.739E-6	-312.092E-15	12.6498E-3	-28.1128E-3	-308.500E-15	349.740E-6	-29.2157E-3
-482.741E-6	-326.174E-15	17.2628E-3	-14.8491E-3	-316.557E-15	5.80753E-3	-24.5239E-3
-487.744E-6	-277.102E-15	12.0133E-3	-1.42569E-3	-343.613E-15	5.12851E-3	-19.0703E-3
-492.746E-6	-386.991E-15	3.55736E-3	-7.42627E-3	-351.878E-15	2.52057E-3	-17.3213E-3
-497.749E-6	-360.816E-15	3.44178E-3	-17.9775E-3	-336.707E-15	9.27322E-3	-18.3682E-3
-502.751E-6	-323.262E-15	18.6046E-3	-14.4154E-3	-294.776E-15	20.2189E-3	-11.6782E-3
-507.754E-6	-322.686E-15	32.0251E-3	-15.1275E-3	-323.532E-15	16.7879E-3	-1.38162E-3
-512.756E-6	-380.077E-15	23.3837E-3	-18.4469E-3	-351.512E-15	-5.81551E-3	-11.3267E-3
-517.759E-6	-361.705E-15	7.95353E-3	-11.9040E-3	-333.969E-15	-15.6022E-3	-29.2814E-3
-522.761E-6	-395.606E-15	8.83411E-3	-8.20007E-3	-331.275E-15	1.48688E-3	-31.5323E-3
-527.764E-6	-339.087E-15	17.3177E-3	-7.44326E-3	-331.458E-15	19.8584E-3	-18.7751E-3
-532.766E-6	-344.746E-15	8.70887E-3	-11.7205E-3	-364.635E-15	20.6314E-3	-5.30111E-3
-537.769E-6	-332.522E-15	-5.88160E-3	-17.8805E-3	-334.161E-15	4.19810E-3	-7.78922E-3
-542.771E-6	-381.402E-15	358.198E-6	-17.7459E-3	-381.995E-15	-7.04562E-3	-18.6235E-3
-547.774E-6	-373.965E-15	13.6553E-3	-20.6262E-3	-343.700E-15	3.62763E-3	-17.9316E-3
-552.776E-6	-370.747E-15	13.7259E-3	-23.6089E-3	-364.016E-15	27.2197E-3	-7.24694E-3
-557.779E-6	-329.252E-15	890.729E-6	-19.9129E-3	-363.885E-15	40.8105E-3	-6.52465E-3
-562.781E-6	-371.977E-15	2.02668E-3	-12.2965E-3	-378.246E-15	26.0686E-3	-12.3814E-3
-567.784E-6	-456.789E-15	20.2369E-3	-9.54070E-3	-360.824E-15	3.05294E-3	-22.3911E-3
-572.786E-6	-416.689E-15	24.0108E-3	-19.0187E-3	-359.778E-15	-8.34509E-3	-35.9207E-3
-577.789E-6	-336.733E-15	11.2404E-3	-30.0648E-3	-401.212E-15	-12.1307E-3	-32.3761E-3
-582.791E-6	-378.769E-15	-5.05613E-3	-21.2714E-3	-445.977E-15	-1.52699E-3	-18.7130E-3
-587.794E-6	-446.143E-15	-13.7132E-3	3.64862E-3	-396.295E-15	9.83417E-3	-20.1176E-3
-592.796E-6	-403.471E-15	-3.65363E-3	12.5814E-3	-379.702E-15	-1.49421E-3	-29.4487E-3
-597.799E-6	-407.595E-15	11.4558E-3	-3.47107E-3	-353.980E-15	-5.85275E-3	-33.0625E-3
-602.801E-6	-388.011E-15	22.1045E-3	-27.5459E-3	-424.868E-15	7.70371E-3	-41.1651E-3
-607.804E-6	-390.723E-15	27.8093E-3	-38.2420E-3	-442.725E-15	12.3370E-3	-44.5673E-3
-612.806E-6	-415.320E-15	10.4165E-3	-22.6567E-3	-404.299E-15	21.2892E-3	-32.1706E-3
-617.809E-6	-356.229E-15	-12.1985E-3	-8.23670E-3	-378.978E-15	34.0826E-3	-30.6726E-3
-622.811E-6	-389.799E-15	-13.3390E-3	-21.7800E-3	-408.885E-15	27.3176E-3	-41.1192E-3
-627.814E-6	-487.499E-15	-3.19120E-3	-41.3388E-3	-457.330E-15	16.3387E-3	-29.7285E-3
-632.816E-6	-423.377E-15	3.55140E-3	-40.1323E-3	-444.844E-15	14.8539E-3	-8.77923E-3
-637.819E-6	-365.978E-15	7.71165E-3	-21.6386E-3	-445.472E-15	11.3036E-3	-2.78193E-3
-642.821E-6	-396.565E-15	5.41368E-3	-7.88327E-3	-441.652E-15	7.72050E-3	-2.63800E-3
-647.824E-6	-420.578E-15	-4.63496E-3	-6.94748E-3	-430.195E-15	12.9068E-3	-4.92902E-3
-652.826E-6	-432.567E-15	-1.97098E-3	-14.2793E-3	-451.357E-15	11.9129E-3	-8.03530E-3
-657.829E-6	-491.178E-15	-956.648E-6	-18.5529E-3	-441.609E-15	5.69357E-3	-2.24653E-3
-662.831E-6	-451.357E-15	-15.8902E-3	-9.28518E-3	-453.798E-15	6.74536E-3	1.35339E-3
-667.834E-6	-430.439E-15	-14.5063E-3	-6.75527E-3	-444.582E-15	7.35376E-3	-6.64158E-3
-672.836E-6	-432.009E-15	4.92378E-3	-14.5690E-3	-425.504E-15	9.46176E-3	-9.92645E-3
-677.839E-6	-454.095E-15	12.3264E-3	-18.3594E-3	-455.525E-15	15.1466E-3	-3.12737E-3
-682.841E-6	-486.356E-15	13.5262E-3	-26.0125E-3	-454.793E-15	12.4745E-3	-2.40758E-3
-687.844E-6	-431.625E-15	15.7704E-3	-27.1442E-3	-463.067E-15	7.69093E-3	-18.0125E-3
-692.846E-6	-432.829E-15	6.53887E-3	-16.3347E-3	-478.317E-15	1.07850E-3	-34.5029E-3
-697.849E-6	-467.994E-15	1.11919E-3	-21.6846E-3	-522.324E-15	-3.59645E-3	-33.7360E-3
-702.851E-6	-522.454E-15	8.73031E-3	-35.8681E-3	-455.778E-15	7.71825E-3	-22.5830E-3
-707.854E-6	-471.839E-15	16.3068E-3	-32.9147E-3	-470.304E-15	17.1302E-3	-15.9221E-3
-712.856E-6	-452.996E-15	18.2117E-3	-14.7657E-3	-508.024E-15	13.2355E-3	-9.76515E-3
-717.859E-6	-494.047E-15	17.0075E-3	1.11404E-3	-571.954E-15	7.59586E-3	-7.60164E-3
-722.861E-6	-506.437E-15	9.72294E-3	-9.36607E-3	-512.035E-15	5.92608E-3	-19.7911E-3
-727.864E-6	-509.619E-15	-691.537E-6	-35.2622E-3	-483.950E-15	8.64661E-3	-31.3668E-3
-732.866E-6	-478.204E-15	-6.77599E-3	-35.0735E-3	-501.720E-15	12.5605E-3	-27.5134E-3
-737.869E-6	-488.763E-15	-6.24765E-3	-17.6515E-3	-555.806E-15	16.2308E-3	-15.0642E-3
-742.871E-6	-517.981E-15	5.90920E-3	-18.9756E-3	-537.783E-15	16.0421E-3	-10.7819E-3
-747.874E-6	-522.158E-15	18.8306E-3	-32.4352E-3	-518.705E-15	9.23708E-3	-10.0673E-3
-752.876E-6	-535.760E-15	16.1403E-3	-35.1041E-3	-523.954E-15	15.2556E-3	-11.8060E-3
-757.879E-6	-533.746E-15	10.7274E-3	-21.4967E-3	-535.716E-15	21.9586E-3	-16.2060E-3
-762.881E-6	-585.905E-15	18.1415E-3	-10.6581E-3	-528.540E-15	10.6502E-3	-17.5048E-3
-767.884E-6	-533.632E-15	25.7413E-3	-11.8263E-3	-589.802E-15	10.1831E-3	-26.3746E-3
-772.886E-6	-569.268E-15	22.0891E-3	-19.5760E-3	-567.132E-15	14.0149E-3	-41.7960E-3
-777.889E-6	-587.422E-15	19.3481E-3	-23.4274E-3	-572.948E-15	6.73860E-3	-45.4395E-3
-782.891E-6	-549.310E-15	24.2333E-3	-25.8700E-3	-555.884E-15	15.4865E-3	-41.1571E-3
-787.894E-6	-570.524E-15	14.2352E-3	-30.4910E-3	-598.147E-15	35.0084E-3	-44.3770E-3
-792.896E-6	-638.404E-15	-6.12481E-3	-25.8784E-3	-570.655E-15	34.7723E-3	-37.6994E-3
-797.899E-6	-612.002E-15	-11.2989E-3	-22.1856E-3	-578.354E-15	23.8886E-3	-20.9696E-3
-802.901E-6	-590.421E-15	-4.99846E-3	-30.0477E-3	-589.959E-15	22.3068E-3	-20.8185E-3
-807.904E-6	-573.480E-15	335.902E-6	-33.8706E-3	-588.320E-15	28.8019E-3	-26.0467E-3
-812.906E-6	-629.510E-15	979.859E-6	-22.8830E-3	-644.969E-15	24.9764E-3	-23.2695E-3
-817.909E-6	-654.648E-15	4.46901E-3	-17.8633E-3	-625.412E-15	13.7650E-3	-20.4327E-3
-822.911E-6	-650.742E-15	23.3187E-3	-28.5144E-3	-594.737E-15	19.6759E-3	-13.3629E-3
-827.914E-6	-614.330E-15	40.6813E-3	-35.1786E-3	-660.411E-15	26.5290E-3	-5.78344E-3
-832.916E-6	-670.238E-15	35.9760E-3	-35.6492E-3	-705.176E-15	33.4447E-3	-9.83421E-3
-837.919E-6	-691.635E-15	23.2070E-3	-29.8609E-3	-660.036E-15	50.0624E-3	-15.8536E-3
-842.921E-6	-698.549E-15	19.4867E-3	-12.7683E-3	-665.163E-15	52.2155E-3	-17.6777E-3
-847.924E-6	-683.901E-15	23.7457E-3	-5.32528E-3	-688.766E-15	41.3743E-3	-28.3775E-3
-852.926E-6	-750.586E-15	20.6069E-3	-15.0009E-3	-751.005E-15	36.2187E-3	-35.1882E-3
-857.929E-6	-734.778E-15	11.8874E-3	-29.0244E-3	-750.429E-15	34.0695E-3	-27.7635E-3
-862.931E-6	-772.280E-15	6.87382E-3	-30.1596E-3	-699.517E-15	35.6732E-3	-20.6235E-3
-867.934E-6	-746.157E-15	13.3892E-3	-11.6337E-3	-749.784E-15	42.0665E-3	-20.1490E-3
-872.936E-6	-768.478E-15	38.1236E-3	1.81073E-3	-807.314E-15	44.4660E-3	-20.9489E-3
-877.939E-6	-814.412E-15	57.0546E-3	-1.13793E-3	-808.116E-15	41.9045E-3	-14.9879E-3
-882.941E-6	-829.269E-15	55.7166E-3	-8.76515E-3	-801.708E-15	41.1286E-3	-12.0594E-3
-887.944E-6	-768.940E-15	49.2133E-3	-14.3959E-3	-860.990E-15	50.7123E-3	-10.2075E-3
-892.946E-6	-838.494E-15	41.6585E-3	-18.8286E-3	-819.678E-15	68.7458E-3	-3.56053E-3
-897.949E-6	-866.902E-15	37.7741E-3	-23.3927E-3	-840.064E-15	80.0268E-3	-11.9156E-3
-902.951E-6	-860.746E-15	38.8907E-3	-27.5285E-3	-900.314E-15	82.0450E-3	-30.8858E-3
-907.954E-6	-917.369E-15	43.7674E-3	-32.3437E-3	-910.708E-15	88.9748E-3	-30.0604E-3
-912.956E-6	-917.971E-15	51.5952E-3	-35.2750E-3	-956.109E-15	92.4625E-3	-23.3619E-3
-917.959E-6	-902.163E-15	60.6113E-3	-35.9600E-3	-965.910E-15	87.0311E-3	-26.0661E-3
-922.961E-6	-936.613E-15	73.5243E-3	-30.7605E-3	-949.404E-15	77.8193E-3	-26.5286E-3
-927.964E-6	-965.134E-15	75.4347E-3	-28.4207E-3	-1.00834E-12	71.9217E-3	-28.8088E-3
-932.966E-6	-1.00208E-12	64.8806E-3	-37.8868E-3	-1.01765E-12	78.1448E-3	-22.9014E-3
-937.969E-6	-1.00337E-12	63.3451E-3	-38.8041E-3	-1.02778E-12	82.2799E-3	-6.47462E-3
-942.971E-6	-1.04102E-12	74.9837E-3	-34.2892E-3	-1.08246E-12	88.5089E-3	-5.85636E-3
-947.974E-6	-1.10676E-12	86.8895E-3	-34.0029E-3	-1.10737E-12	93.4144E-3	-20.2320E-3
-952.976E-6	-1.13674E-12	95.7426E-3	-24.6372E-3	-1.13305E-12	89.7533E-3	-20.2376E-3
-957.979E-6	-1.12399E-12	98.9818E-3	-20.6734E-3	-1.13660E-12	107.296E-3	-12.2832E-3
-962.981E-6	-1.16319E-12	87.5725E-3	-26.7502E-3	-1.21214E-12	133.295E-3	-12.1892E-3
-967.984E-6	-1.25594E-12	77.7029E-3	-20.1617E-3	-1.29552E-12	127.115E-3	-14.9898E-3
-972.986E-6	-1.33504E-12	87.5797E-3	-11.1434E-3	-1.34358E-12	117.347E-3	-25.3055E-3
-977.989E-6	-1.31431E-12	102.747E-3	-10.8362E-3	-1.35062E-12	132.214E-3	-26.0350E-3
-982.991E-6	-1.36833E-12	110.655E-3	-15.4684E-3	-1.36015E-12	146.998E-3	-10.2940E-3
-987.994E-6	-1.39923E-12	113.517E-3	-24.3608E-3	-1.48486E-12	158.559E-3	-1.12616E-3
-992.997E-6	-1.51157E-12	112.239E-3	-22.1054E-3	-1.53795E-12	163.161E-3	-2.57340E-3
-997.999E-6	-1.51021E-12	116.754E-3	-15.1280E-3	-1.52066E-12	152.437E-3	-12.1476E-3
-1.00300E-3	-1.55060E-12	131.380E-3	-30.5250E-3	-1.59695E-12	153.323E-3	-36.0837E-3
-1.00800E-3	-1.63937E-12	138.635E-3	-42.9970E-3	-1.61349E-12	174.546E-3	-51.4701E-3
-1.01301E-3	-1.71590E-12	135.871E-3	-34.6327E-3	-1.68839E-12	177.739E-3	-27.8064E-3
-1.01801E-3	-1.75018E-12	140.655E-3	-23.5736E-3	-1.74571E-12	162.875E-3	-6.81359E-3
-1.02301E-3	-1.79247E-12	164.226E-3	-22.5153E-3	-1.79627E-12	170.532E-3	-18.1626E-3
-1.02801E-3	-1.87818E-12	193.816E-3	-27.4404E-3	-1.81456E-12	190.244E-3	-25.0237E-3
-1.03302E-3	-1.92953E-12	199.949E-3	-24.9727E-3	-1.90662E-12	203.171E-3	-20.9688E-3
-1.03802E-3	-1.99756E-12	186.646E-3	-20.0078E-3	-1.99100E-12	217.858E-3	-22.1683E-3
-1.04302E-3	-2.04002E-12	184.278E-3	-19.7967E-3	-2.05582E-12	236.595E-3	-21.8254E-3
-1.04802E-3	-2.12275E-12	192.850E-3	-24.0432E-3	-2.12423E-12	251.319E-3	-20.7043E-3
-1.05303E-3	-2.19536E-12	203.210E-3	-26.6111E-3	-2.21792E-12	261.811E-3	-31.5787E-3
-1.05803E-3	-2.24666E-12	210.014E-3	-18.3602E-3	-2.32198E-12	271.303E-3	-40.4823E-3
-1.06303E-3	-2.36355E-12	212.020E-3	-7.92017E-3	-2.43006E-12	279.179E-3	-36.5474E-3
-1.06803E-3	-2.49664E-12	229.461E-3	-7.65094E-3	-2.50332E-12	285.386E-3	-30.8191E-3
-1.07304E-3	-2.50078E-12	253.663E-3	-11.0650E-3	-2.55208E-12	287.936E-3	-28.2228E-3
-1.07804E-3	-2.60877E-12	262.025E-3	-8.77462E-3	-2.73348E-12	301.411E-3	-29.5948E-3
-1.08304E-3	-2.70375E-12	261.544E-3	-12.7351E-3	-2.86748E-12	325.534E-3	-26.9093E-3
-1.08804E-3	-2.86373E-12	267.862E-3	-24.5956E-3	-2.91455E-12	333.923E-3	-16.6418E-3
-1.09305E-3	-2.94656E-12	286.757E-3	-19.4102E-3	-2.96447E-12	339.011E-3	-18.2396E-3
-1.09805E-3	-3.03938E-12	305.990E-3	-12.0674E-3	-3.10040E-12	353.538E-3	-28.1934E-3
-1.10305E-3	-3.23411E-12	326.003E-3	-13.6067E-3	-3.22736E-12	363.062E-3	-32.4222E-3
-1.10805E-3	-3.36000E-12	340.354E-3	-4.34567E-3	-3.37504E-12	374.544E-3	-34.8484E-3
-1.11306E-3	-3.55321E-12	342.299E-3	4.57440E-3	-3.38855E-12	389.880E-3	-31.0828E-3
-1.11806E-3	-3.57392E-12	346.448E-3	-3.18091E-3	-3.49778E-12	405.577E-3	-19.9232E-3
-1.12306E-3	-3.75802E-12	356.116E-3	-10.6458E-3	-3.64553E-12	422.512E-3	-2.84984E-3
-1.12806E-3	-3.95809E-12	377.473E-3	-5.02201E-3	-3.75924E-12	440.647E-3	4.90325E-3
-1.13307E-3	-4.08240E-12	409.502E-3	-12.1586E-3	-3.94756E-12	466.972E-3	-12.5098E-3
-1.13807E-3	-4.10223E-12	430.206E-3	-28.9822E-3	-4.04721E-12	491.033E-3	-27.3334E-3
-1.14307E-3	-4.30680E-12	433.209E-3	-24.1887E-3	-4.21993E-12	506.402E-3	-13.4766E-3
-1.14807E-3	-4.53255E-12	438.322E-3	-11.9187E-3	-4.37185E-12	518.852E-3	3.87371E-3
-1.15308E-3	-4.55241E-12	459.606E-3	-18.5076E-3	-4.52341E-12	527.403E-3	-5.45483E-3
-1.15808E-3	-4.78745E-12	479.476E-3	-29.9172E-3	-4.68131E-12	541.524E-3	-27.6363E-3
-1.16308E-3	-4.93591E-12	486.345E-3	-28.3260E-3	-4.97057E-12	569.014E-3	-35.9087E-3
-1.16808E-3	-5.11062E-12	495.414E-3	-16.0769E-3	-5.14448E-12	596.364E-3	-27.9613E-3
-1.17309E-3	-5.37151E-12	512.829E-3	-13.9935E-3	-5.28755E-12	614.233E-3	-19.2817E-3
-1.17809E-3	-5.54492E-12	543.096E-3	-24.8143E-3	-5.51218E-12	622.953E-3	-14.0462E-3
-1.18309E-3	-5.68898E-12	571.926E-3	-26.1232E-3	-5.83921E-12	632.440E-3	-9.87647E-3
-1.18809E-3	-5.93031E-12	582.058E-3	-16.7704E-3	-6.00107E-12	656.624E-3	-12.3657E-3
-1.19310E-3	-6.20703E-12	591.844E-3	-11.0017E-3	-6.08668E-12	677.399E-3	-12.0692E-3
-1.19810E-3	-6.39464E-12	611.419E-3	-16.7877E-3	-6.38744E-12	682.636E-3	-7.33121E-3
-1.20310E-3	-6.67042E-12	630.191E-3	-26.4176E-3	-6.59890E-12	690.378E-3	-12.5851E-3
-1.20810E-3	-6.80174E-12	645.977E-3	-30.4331E-3	-6.74646E-12	708.178E-3	-21.2631E-3
-1.21311E-3	-7.03512E-12	664.584E-3	-27.2211E-3	-6.93016E-12	726.997E-3	-18.9553E-3
-1.21811E-3	-7.31039E-12	681.183E-3	-14.2939E-3	-7.21524E-12	744.163E-3	-9.62690E-3
-1.22311E-3	-7.53422E-12	695.015E-3	-2.33843E-3	-7.46287E-12	763.751E-3	-17.5711E-3
-1.22811E-3	-7.69763E-12	715.900E-3	171.518E-6	-7.61022E-12	776.216E-3	-35.5236E-3
-1.23312E-3	-7.98004E-12	745.998E-3	-6.60070E-3	-7.80134E-12	794.838E-3	-34.5101E-3
-1.23812E-3	-8.26898E-12	765.315E-3	-23.6542E-3	-8.14744E-12	822.358E-3	-22.8544E-3
-1.24312E-3	-8.47790E-12	767.157E-3	-28.0211E-3	-8.38125E-12	841.828E-3	-13.0556E-3
-1.24812E-3	-8.76112E-12	779.522E-3	-8.74723E-3	-8.56791E-12	867.411E-3	-6.96898E-3
-1.25313E-3	-8.97418E-12	805.540E-3	3.56669E-3	-8.85976E-12	894.776E-3	-11.5506E-3
-1.25813E-3	-9.20226E-12	830.237E-3	-11.4309E-3	-9.28710E-12	910.863E-3	-25.7248E-3
-1.26313E-3	-9.52282E-12	850.033E-3	-31.6285E-3	-9.65739E-12	927.132E-3	-29.2089E-3
-1.26813E-3	-10.0152E-12	856.664E-3	-40.0179E-3	-9.88891E-12	949.836E-3	-19.9765E-3
-1.27314E-3	-10.2930E-12	864.084E-3	-32.3424E-3	-10.2033E-12	966.410E-3	-16.9110E-3
-1.27814E-3	-10.4919E-12	887.965E-3	-18.5354E-3	-10.5719E-12	965.645E-3	-20.9150E-3
-1.28314E-3	-10.7152E-12	913.469E-3	-22.2736E-3	-10.8911E-12	967.339E-3	-23.4043E-3
-1.28814E-3	-11.2486E-12	925.859E-3	-28.0022E-3	-11.1942E-12	993.339E-3	-22.9546E-3
-1.29315E-3	-11.5250E-12	925.497E-3	-17.9568E-3	-11.5097E-12	1.02137E+0	-24.6912E-3
-1.29815E-3	-11.7062E-12	929.081E-3	-8.99635E-3	-11.8893E-12	1.02986E+0	-22.1521E-3
-1.30315E-3	-11.9763E-12	941.828E-3	-9.52248E-3	-12.3085E-12	1.03498E+0	-20.3286E-3
-1.30815E-3	-12.4491E-12	956.096E-3	-15.2338E-3	-12.5213E-12	1.04437E+0	-24.0291E-3
-1.31316E-3	-12.8996E-12	974.839E-3	-26.0883E-3	-12.8315E-12	1.06025E+0	-24.3717E-3
-1.31816E-3	-12.9980E-12	999.683E-3	-31.0010E-3	-13.2507E-12	1.07257E+0	-22.1564E-3
-1.32316E-3	-13.3642E-12	1.01997E+0	-21.7074E-3	-13.5104E-12	1.07244E+0	-16.6765E-3
-1.32816E-3	-13.7185E-12	1.03914E+0	-18.5819E-3	-13.8699E-12	1.07423E+0	-7.29721E-3
-1.33317E-3	-14.0672E-12	1.06012E+0	-30.5628E-3	-14.1476E-12	1.08269E+0	-2.35103E-3
-1.33817E-3	-14.4053E-12	1.06216E+0	-39.7617E-3	-14.5239E-12	1.09193E+0	-7.54293E-3
-1.34317E-3	-14.7750E-12	1.05116E+0	-44.3909E-3	-14.8348E-12	1.10077E+0	-17.5652E-3
-1.34817E-3	-15.1283E-12	1.06147E+0	-42.1433E-3	-14.9946E-12	1.11400E+0	-21.6401E-3
-1.35318E-3	-15.5876E-12	1.09008E+0	-23.7192E-3	-15.4438E-12	1.12705E+0	-19.4189E-3
-1.35818E-3	-16.0177E-12	1.10559E+0	-9.56959E-3	-15.8953E-12	1.14213E+0	-22.5322E-3
-1.36318E-3	-16.5162E-12	1.10915E+0	-16.3378E-3	-16.2747E-12	1.15772E+0	-33.3193E-3
-1.36818E-3	-17.0087E-12	1.11891E+0	-21.2999E-3	-16.6623E-12	1.16956E+0	-32.0510E-3
-1.37319E-3	-17.1797E-12	1.14081E+0	-13.0707E-3	-17.1488E-12	1.18075E+0	-18.3215E-3
-1.37819E-3	-17.6009E-12	1.16547E+0	-7.20763E-3	-17.4886E-12	1.19057E+0	-15.5444E-3
-1.38319E-3	-18.0230E-12	1.17420E+0	-8.44489E-3	-17.8759E-12	1.20514E+0	-17.8885E-3
-1.38819E-3	-18.4004E-12	1.17289E+0	-23.6356E-3	-18.3465E-12	1.21507E+0	-12.0177E-3
-1.39320E-3	-18.7730E-12	1.17677E+0	-41.3168E-3	-18.8179E-12	1.20776E+0	-10.1398E-3
-1.39820E-3	-19.0819E-12	1.17953E+0	-33.5456E-3	-19.3623E-12	1.20334E+0	-13.9440E-3
-1.40320E-3	-19.5457E-12	1.18215E+0	-16.0040E-3	-19.7903E-12	1.21414E+0	-12.5696E-3
-1.40820E-3	-20.1092E-12	1.19423E+0	-18.7585E-3	-20.1857E-12	1.21920E+0	-14.9947E-3
-1.41321E-3	-20.4137E-12	1.21004E+0	-29.2463E-3	-20.5891E-12	1.21794E+0	-21.8862E-3
-1.41821E-3	-20.6663E-12	1.21322E+0	-30.6484E-3	-21.0008E-12	1.22371E+0	-23.8723E-3
-1.42321E-3	-21.2975E-12	1.20068E+0	-26.8168E-3	-21.1649E-12	1.22402E+0	-22.6702E-3
-1.42821E-3	-21.8375E-12	1.19514E+0	-17.1950E-3	-21.4617E-12	1.21005E+0	-21.9737E-3
-1.43322E-3	-22.2444E-12	1.20910E+0	-7.98845E-3	-21.8876E-12	1.19883E+0	-20.8692E-3
-1.43822E-3	-22.6084E-12	1.22425E+0	-13.9107E-3	-22.2074E-12	1.20148E+0	-20.6677E-3
-1.44322E-3	-23.0890E-12	1.22741E+0	-24.4096E-3	-22.3405E-12	1.20033E+0	-19.2479E-3
-1.44822E-3	-23.5927E-12	1.22621E+0	-25.6983E-3	-22.6631E-12	1.19487E+0	-4.71590E-3
-1.45323E-3	-24.0074E-12	1.22795E+0	-22.7295E-3	-22.9498E-12	1.19521E+0	2.28572E-3
-1.45823E-3	-24.4067E-12	1.24024E+0	-13.4857E-3	-23.3611E-12	1.18693E+0	-13.9894E-3
-1.46323E-3	-24.6899E-12	1.24945E+0	-14.5201E-3	-23.9667E-12	1.17797E+0	-27.5742E-3
-1.46823E-3	-25.0647E-12	1.23937E+0	-22.6781E-3	-24.2609E-12	1.18582E+0	-28.7990E-3
-1.47324E-3	-25.2892E-12	1.22777E+0	-23.2366E-3	-24.6448E-12	1.19324E+0	-16.9445E-3
-1.47824E-3	-25.6913E-12	1.22295E+0	-20.5113E-3	-25.1804E-12	1.19550E+0	826.730E-6
-1.48324E-3	-25.7789E-12	1.22419E+0	-8.67322E-3	-25.8339E-12	1.21084E+0	-6.01243E-3
-1.48824E-3	-25.9740E-12	1.22016E+0	-10.4729E-3	-26.2684E-12	1.21971E+0	-25.4021E-3
-1.49325E-3	-26.2683E-12	1.20400E+0	-24.1740E-3	-26.7056E-12	1.20330E+0	-19.1567E-3
-1.49825E-3	-26.7648E-12	1.18827E+0	-23.0060E-3	-27.3295E-12	1.19591E+0	-7.74262E-3
-1.50325E-3	-27.0685E-12	1.18132E+0	-21.8797E-3	-27.8129E-12	1.19816E+0	-15.4483E-3
-1.50825E-3	-27.5006E-12	1.18731E+0	-16.5615E-3	-28.4447E-12	1.18421E+0	-17.0507E-3
-1.51326E-3	-28.0578E-12	1.19316E+0	-6.54386E-3	-28.6516E-12	1.17470E+0	-9.46436E-3
-1.51826E-3	-28.4692E-12	1.18473E+0	-18.3097E-3	-28.9092E-12	1.18256E+0	-11.6359E-3
-1.52326E-3	-29.2598E-12	1.17493E+0	-24.6216E-3	-29.0530E-12	1.18743E+0	-7.94559E-3
-1.52826E-3	-29.6802E-12	1.17296E+0	-8.51317E-3	-29.7287E-12	1.17373E+0	-7.37676E-3
-1.53327E-3	-30.0198E-12	1.18142E+0	-353.499E-6	-30.0150E-12	1.15601E+0	-18.9407E-3
-1.53827E-3	-30.5828E-12	1.19522E+0	-4.76247E-3	-30.0034E-12	1.14601E+0	-18.6903E-3
-1.54327E-3	-31.2565E-12	1.19405E+0	-15.7130E-3	-30.1565E-12	1.13163E+0	-5.84691E-3
-1.54827E-3	-31.7899E-12	1.18419E+0	-29.4775E-3	-30.6996E-12	1.11337E+0	-1.81881E-3
-1.55328E-3	-31.7546E-12	1.18854E+0	-33.0127E-3	-31.1123E-12	1.10150E+0	-9.03914E-3
-1.55828E-3	-32.1121E-12	1.19062E+0	-25.1426E-3	-31.2591E-12	1.09970E+0	-12.5178E-3
-1.56328E-3	-32.2275E-12	1.18217E+0	-21.1991E-3	-31.6064E-12	1.10562E+0	-25.1087E-3
-1.56828E-3	-32.7008E-12	1.17529E+0	-25.3842E-3	-32.1391E-12	1.11269E+0	-37.3981E-3
-1.57329E-3	-32.7464E-12	1.15754E+0	-26.8643E-3	-32.7590E-12	1.12709E+0	-21.7974E-3
-1.57829E-3	-32.9720E-12	1.13781E+0	-17.7509E-3	-33.3871E-12	1.13793E+0	-7.12102E-3
-1.58329E-3	-33.0574E-12	1.13173E+0	-2.48945E-3	-33.6315E-12	1.13126E+0	-13.5646E-3
-1.58829E-3	-33.3394E-12	1.11725E+0	-4.87362E-3	-34.2747E-12	1.12802E+0	-27.4368E-3
-1.59330E-3	-33.8952E-12	1.10272E+0	-22.1648E-3	-35.0004E-12	1.13212E+0	-33.3369E-3
-1.59830E-3	-34.3344E-12	1.10801E+0	-23.9191E-3	-35.6759E-12	1.12187E+0	-21.9393E-3
-1.60330E-3	-34.5664E-12	1.10955E+0	-9.71405E-3	-35.9127E-12	1.10854E+0	-7.95880E-3
-1.60830E-3	-34.6786E-12	1.09861E+0	-4.62819E-3	-36.2108E-12	1.10791E+0	-3.77632E-3
-1.61331E-3	-35.5124E-12	1.08904E+0	-16.1689E-3	-36.7583E-12	1.09636E+0	-9.75221E-3
-1.61831E-3	-36.4543E-12	1.07767E+0	-26.4424E-3	-37.2396E-12	1.08086E+0	-16.1466E-3
-1.62331E-3	-36.7909E-12	1.06791E+0	-28.1173E-3	-37.1978E-12	1.07587E+0	-8.72218E-3
-1.62831E-3	-36.8141E-12	1.07584E+0	-21.7501E-3	-37.2715E-12	1.06913E+0	-5.21279E-3
-1.63332E-3	-37.4691E-12	1.08554E+0	-13.9270E-3	-37.5783E-12	1.05428E+0	-12.1355E-3
-1.63832E-3	-38.1462E-12	1.09166E+0	-21.1072E-3	-37.9010E-12	1.04582E+0	-15.4158E-3
-1.64332E-3	-38.8378E-12	1.09955E+0	-39.7453E-3	-37.9544E-12	1.04967E+0	-16.1457E-3
-1.64832E-3	-38.7871E-12	1.09363E+0	-44.2561E-3	-38.1217E-12	1.04543E+0	-18.4381E-3
-1.65333E-3	-38.7367E-12	1.08077E+0	-25.2261E-3	-38.8033E-12	1.03410E+0	-20.6419E-3
-1.65833E-3	-39.1542E-12	1.07840E+0	-6.37647E-3	-39.1219E-12	1.03151E+0	-15.6529E-3
-1.66333E-3	-40.1977E-12	1.07260E+0	-9.64764E-3	-39.3776E-12	1.02956E+0	-16.3575E-3
-1.66833E-3	-39.9545E-12	1.05233E+0	-25.3937E-3	-39.5354E-12	1.02676E+0	-20.8652E-3
-1.67334E-3	-39.8714E-12	1.04376E+0	-33.0107E-3	-40.1716E-12	1.02177E+0	-17.8901E-3
-1.67834E-3	-40.0224E-12	1.04767E+0	-27.6284E-3	-40.5662E-12	1.00803E+0	-16.3098E-3
-1.68334E-3	-40.8221E-12	1.04449E+0	-16.5852E-3	-40.8734E-12	995.156E-3	-14.6377E-3
-1.68834E-3	-41.3121E-12	1.04357E+0	-8.64294E-3	-41.1111E-12	982.544E-3	-16.4099E-3
-1.69335E-3	-41.6594E-12	1.04381E+0	-14.8255E-3	-41.6409E-12	970.440E-3	-25.7520E-3
-1.69835E-3	-41.6788E-12	1.03462E+0	-22.3481E-3	-42.0856E-12	978.924E-3	-29.1132E-3
-1.70335E-3	-42.2032E-12	1.01729E+0	-13.4729E-3	-41.9927E-12	998.564E-3	-26.9502E-3
-1.70835E-3	-43.1300E-12	1.00250E+0	-638.166E-6	-42.3298E-12	991.714E-3	-22.1165E-3
-1.71336E-3	-43.6282E-12	1.01110E+0	-1.52314E-3	-42.9402E-12	971.573E-3	-12.5339E-3
-1.71836E-3	-43.8076E-12	1.02762E+0	-18.2874E-3	-43.3419E-12	972.318E-3	-5.28681E-3
-1.72336E-3	-43.6409E-12	1.02965E+0	-21.0669E-3	-43.5154E-12	978.079E-3	-260.865E-6
-1.72836E-3	-44.4745E-12	1.01490E+0	596.008E-6	-43.7834E-12	968.521E-3	755.240E-6
-1.73337E-3	-44.8515E-12	989.318E-3	5.93373E-3	-44.1362E-12	956.904E-3	-5.69777E-3
-1.73837E-3	-45.5279E-12	987.922E-3	-6.10794E-3	-44.5479E-12	951.443E-3	-14.8081E-3
-1.74337E-3	-46.0244E-12	999.730E-3	-12.8239E-3	-44.9438E-12	950.292E-3	-20.9935E-3
-1.74837E-3	-45.9996E-12	990.338E-3	-14.4304E-3	-44.8819E-12	952.848E-3	-25.0175E-3
-1.75338E-3	-46.0986E-12	978.635E-3	-6.80785E-3	-45.3228E-12	950.679E-3	-24.1594E-3
-1.75838E-3	-46.9174E-12	980.136E-3	5.04994E-3	-45.4941E-12	943.484E-3	-23.5997E-3
-1.76338E-3	-47.6104E-12	985.713E-3	6.36714E-3	-46.1017E-12	933.576E-3	-23.2940E-3
-1.76838E-3	-47.2676E-12	990.054E-3	-2.30841E-3	-46.2630E-12	919.042E-3	-13.6435E-3
-1.77339E-3	-46.9621E-12	981.403E-3	-8.75554E-3	-46.1436E-12	908.449E-3	-5.35202E-3
-1.77839E-3	-48.0033E-12	961.820E-3	-633.658E-6	-46.5127E-12	903.635E-3	-9.28917E-3
-1.78339E-3	-48.6412E-12	969.852E-3	3.57074E-3	-46.6239E-12	910.106E-3	-13.8705E-3
-1.78839E-3	-48.5426E-12	996.573E-3	-1.48224E-3	-47.1355E-12	919.349E-3	-5.57467E-3
-1.79340E-3	-48.7290E-12	993.148E-3	2.53134E-3	-47.2565E-12	916.990E-3	-2.74936E-3
-1.79840E-3	-48.9929E-12	964.835E-3	4.23639E-3	-47.6348E-12	918.368E-3	-4.20856E-3
-1.80340E-3	-49.2138E-12	943.932E-3	3.94751E-3	-47.8436E-12	918.985E-3	-983.573E-6
-1.80840E-3	-49.2909E-12	941.610E-3	1.67278E-3	-48.1877E-12	905.998E-3	-15.0988E-3
-1.81341E-3	-49.4654E-12	951.640E-3	-11.0555E-3	-49.0038E-12	886.281E-3	-34.4960E-3
-1.81841E-3	-49.4342E-12	947.567E-3	-20.0243E-3	-49.4036E-12	883.166E-3	-31.1886E-3
-1.82341E-3	-50.1623E-12	919.231E-3	-20.2028E-3	-49.9146E-12	903.063E-3	-18.1523E-3
-1.82841E-3	-50.1305E-12	894.589E-3	-17.1237E-3	-50.4053E-12	917.142E-3	-3.53913E-3
-1.83342E-3	-50.4287E-12	893.067E-3	-9.75618E-3	-50.7954E-12	905.031E-3	12.6073E-3
-1.83842E-3	-50.7540E-12	906.726E-3	-2.45181E-3	-51.2897E-12	888.304E-3	3.61142E-3
-1.84342E-3	-51.0547E-12	914.525E-3	-18.8176E-3	-51.8288E-12	896.734E-3	-21.9352E-3
-1.84842E-3	-50.8997E-12	905.691E-3	-39.1574E-3	-51.6786E-12	897.883E-3	-23.4147E-3
-1.85343E-3	-51.6882E-12	893.441E-3	-27.0719E-3	-51.3979E-12	877.712E-3	-8.65063E-3
-1.85843E-3	-52.0264E-12	894.748E-3	-12.9815E-3	-51.9958E-12	870.571E-3	-10.2659E-3
-1.86343E-3	-52.2288E-12	900.828E-3	-11.4401E-3	-52.2671E-12	868.516E-3	-22.8980E-3
-1.86843E-3	-52.4882E-12	898.119E-3	-17.4324E-3	-52.2663E-12	865.027E-3	-25.2943E-3
-1.87344E-3	-53.2034E-12	891.070E-3	-27.7179E-3	-51.9162E-12	868.501E-3	-18.4426E-3
-1.87844E-3	-53.3990E-12	884.329E-3	-19.9474E-3	-52.2871E-12	861.304E-3	-13.2597E-3
-1.88344E-3	-53.5924E-12	882.723E-3	-1.14026E-3	-52.7278E-12	851.769E-3	-18.0720E-3
-1.88844E-3	-53.5496E-12	891.175E-3	2.89363E-3	-52.9845E-12	855.491E-3	-23.3147E-3
-1.89345E-3	-53.8922E-12	890.739E-3	-10.8674E-3	-53.1933E-12	848.208E-3	-27.0300E-3
-1.89845E-3	-54.1054E-12	867.035E-3	-21.2881E-3	-53.6394E-12	839.701E-3	-32.1608E-3
-1.90345E-3	-53.9639E-12	842.413E-3	-26.0875E-3	-54.2003E-12	857.197E-3	-23.3446E-3
-1.90845E-3	-53.9645E-12	835.108E-3	-31.1541E-3	-54.5842E-12	874.088E-3	-3.38610E-3
-1.91346E-3	-53.9103E-12	844.022E-3	-11.8727E-3	-55.6781E-12	860.295E-3	690.439E-6
-1.91846E-3	-54.1826E-12	854.734E-3	4.20379E-3	-56.0864E-12	852.587E-3	-22.8359E-3
-1.92346E-3	-54.2192E-12	856.312E-3	-17.5632E-3	-56.0334E-12	871.369E-3	-33.7683E-3
-1.92846E-3	-54.7131E-12	850.142E-3	-34.0485E-3	-56.9749E-12	884.432E-3	-22.3735E-3
-1.93347E-3	-55.0525E-12	828.541E-3	-24.5322E-3	-57.8467E-12	882.506E-3	-27.8838E-3
-1.93847E-3	-55.0986E-12	820.287E-3	-11.2129E-3	-58.4376E-12	863.736E-3	-39.7607E-3
-1.94347E-3	-55.8368E-12	832.054E-3	-7.99656E-3	-57.8328E-12	849.869E-3	-41.0714E-3
-1.94847E-3	-56.4452E-12	830.092E-3	-20.5349E-3	-57.6082E-12	858.389E-3	-42.3563E-3
-1.95348E-3	-57.0281E-12	825.073E-3	-25.0535E-3	-58.1983E-12	850.593E-3	-38.2870E-3
-1.95848E-3	-57.3758E-12	821.851E-3	-12.4818E-3	-58.4108E-12	827.082E-3	-24.0978E-3
-1.96348E-3	-58.0395E-12	827.907E-3	-6.84589E-3	-58.4304E-12	820.617E-3	-31.8006E-3
-1.96848E-3	-58.7756E-12	850.520E-3	-12.1781E-3	-58.0459E-12	822.923E-3	-55.6885E-3
-1.97349E-3	-59.0361E-12	861.278E-3	-18.2344E-3	-58.0286E-12	825.112E-3	-39.5181E-3
-1.97849E-3	-59.1523E-12	847.191E-3	-17.5266E-3	-58.4903E-12	833.757E-3	-6.27493E-3
-1.98349E-3	-59.6029E-12	833.841E-3	-14.1127E-3	-59.1146E-12	835.643E-3	-10.1014E-3
-1.98849E-3	-60.0394E-12	839.536E-3	-8.63936E-3	-59.1633E-12	828.769E-3	-32.7822E-3
-1.99350E-3	-60.2899E-12	852.640E-3	886.710E-6	-59.2780E-12	828.904E-3	-40.9419E-3
-1.99850E-3	-59.8818E-12	859.884E-3	-9.99020E-3	-59.6353E-12	827.631E-3	-34.7584E-3
-2.00350E-3	-59.9687E-12	843.233E-3	-27.3941E-3	-60.5555E-12	819.339E-3	-17.3808E-3
-2.00850E-3	-60.0713E-12	815.094E-3	-20.1597E-3	-60.9094E-12	819.120E-3	-7.03502E-3
-2.01351E-3	-60.4507E-12	818.156E-3	-1.37904E-3	-60.8975E-12	830.013E-3	-21.3496E-3
-2.01851E-3	-60.9078E-12	840.903E-3	1.68128E-3	-61.3820E-12	832.161E-3	-30.1706E-3
-2.02351E-3	-60.8787E-12	840.696E-3	-25.3768E-3	-62.4205E-12	816.515E-3	-12.8539E-3
-2.02851E-3	-61.5449E-12	818.991E-3	-40.6800E-3	-62.9114E-12	805.361E-3	-2.36977E-3
-2.03352E-3	-61.0913E-12	804.289E-3	-27.8037E-3	-62.6620E-12	812.632E-3	-16.7740E-3
-2.03852E-3	-62.2122E-12	800.353E-3	-22.3666E-3	-62.6701E-12	814.488E-3	-28.7908E-3
-2.04352E-3	-63.1695E-12	793.769E-3	-25.4564E-3	-62.9459E-12	808.820E-3	-22.4193E-3
-2.04852E-3	-63.5125E-12	792.528E-3	-34.5635E-3	-63.3892E-12	803.760E-3	-9.03944E-3
-2.05353E-3	-63.7026E-12	802.008E-3	-39.5929E-3	-63.0765E-12	796.718E-3	-5.13461E-3
-2.05853E-3	-64.1180E-12	810.425E-3	-26.4851E-3	-62.6570E-12	803.200E-3	-12.1276E-3
-2.06353E-3	-65.1147E-12	818.568E-3	-17.2612E-3	-63.2205E-12	808.368E-3	-29.7283E-3
-2.06853E-3	-64.9673E-12	841.274E-3	-15.4250E-3	-63.6257E-12	797.513E-3	-48.3928E-3
-2.07354E-3	-65.3612E-12	857.718E-3	-16.2375E-3	-63.9481E-12	790.021E-3	-45.8188E-3
-2.07854E-3	-65.4290E-12	832.448E-3	-18.2754E-3	-63.8394E-12	779.434E-3	-26.1525E-3
-2.08354E-3	-65.5937E-12	796.140E-3	-13.7486E-3	-63.7152E-12	771.108E-3	-7.85879E-3
-2.08854E-3	-65.7689E-12	789.557E-3	-15.3989E-3	-63.9770E-12	775.039E-3	-14.7276E-3
-2.09355E-3	-65.9975E-12	798.224E-3	-22.9482E-3	-64.7507E-12	778.682E-3	-42.8224E-3
-2.09855E-3	-65.6665E-12	801.354E-3	-26.7285E-3	-65.0767E-12	786.373E-3	-42.8030E-3
-2.10355E-3	-64.9599E-12	794.446E-3	-30.5850E-3	-64.7956E-12	788.870E-3	-27.7188E-3
-2.10855E-3	-65.7864E-12	786.296E-3	-29.6473E-3	-65.0007E-12	782.642E-3	-27.6085E-3
-2.11356E-3	-65.6721E-12	798.603E-3	-20.5166E-3	-65.8670E-12	777.092E-3	-21.6388E-3
-2.11856E-3	-65.7345E-12	819.450E-3	-14.4415E-3	-66.3818E-12	766.514E-3	-18.1970E-3
-2.12356E-3	-66.5576E-12	823.016E-3	-14.0376E-3	-65.8617E-12	764.727E-3	-29.4786E-3
-2.12856E-3	-67.0356E-12	816.507E-3	-9.84957E-3	-65.7145E-12	779.232E-3	-39.0466E-3
-2.13357E-3	-67.8862E-12	805.549E-3	-8.44041E-3	-66.7599E-12	778.827E-3	-45.4849E-3
-2.13857E-3	-67.6446E-12	804.516E-3	-6.58231E-3	-66.6878E-12	764.460E-3	-62.6288E-3
-2.14357E-3	-67.7946E-12	818.126E-3	-607.247E-6	-67.0966E-12	770.663E-3	-76.4972E-3
-2.14857E-3	-67.8530E-12	821.794E-3	-13.5523E-3	-66.8606E-12	789.885E-3	-53.9240E-3
-2.15358E-3	-68.6969E-12	811.154E-3	-33.7306E-3	-68.1201E-12	786.213E-3	-20.2054E-3
-2.15858E-3	-68.9375E-12	787.975E-3	-28.6141E-3	-68.1019E-12	773.734E-3	-11.9834E-3
-2.16358E-3	-68.8846E-12	767.844E-3	-6.54821E-3	-68.7714E-12	780.235E-3	-11.7605E-3
-2.16858E-3	-69.0978E-12	777.574E-3	1.27907E-3	-69.1073E-12	788.163E-3	-2.01769E-3
-2.17359E-3	-69.5042E-12	788.249E-3	7.34467E-3	-69.1409E-12	783.272E-3	726.711E-6
-2.17859E-3	-69.5383E-12	777.680E-3	17.5299E-3	-69.1376E-12	771.308E-3	-13.1422E-3
-2.18359E-3	-69.7092E-12	772.114E-3	12.1643E-3	-69.3562E-12	766.365E-3	-24.2099E-3
-2.18859E-3	-70.0774E-12	767.002E-3	-1.44311E-3	-70.1633E-12	765.731E-3	-24.4984E-3
-2.19360E-3	-69.9526E-12	758.369E-3	-8.19314E-3	-70.0646E-12	763.488E-3	-29.4553E-3
-2.19860E-3	-70.3325E-12	763.229E-3	-2.46643E-3	-70.2964E-12	770.031E-3	-31.4006E-3
-2.20360E-3	-70.3651E-12	760.230E-3	-2.10937E-3	-69.8816E-12	779.468E-3	-19.0976E-3
-2.20860E-3	-70.3189E-12	746.877E-3	-2.18729E-3	-71.1397E-12	780.802E-3	-7.13575E-3
-2.21361E-3	-70.7802E-12	752.157E-3	-1.14346E-3	-71.6252E-12	772.065E-3	-1.59413E-3
-2.21861E-3	-70.8551E-12	757.352E-3	-4.70661E-3	-71.3542E-12	767.993E-3	-5.72720E-3
-2.22361E-3	-71.1718E-12	747.334E-3	-5.32736E-3	-70.8693E-12	776.091E-3	-16.1430E-3
-2.22861E-3	-71.9457E-12	746.371E-3	-12.4830E-3	-72.0538E-12	777.181E-3	-14.1856E-3
-2.23362E-3	-72.4994E-12	753.891E-3	-9.25487E-3	-72.8700E-12	769.645E-3	-1.89617E-3
-2.23862E-3	-72.5767E-12	753.615E-3	12.7306E-3	-73.1537E-12	758.770E-3	-11.4037E-3
-2.24362E-3	-72.7672E-12	751.806E-3	17.2057E-3	-72.9167E-12	753.259E-3	-41.0619E-3
-2.24862E-3	-73.5156E-12	760.707E-3	5.69878E-3	-73.7594E-12	763.465E-3	-49.5116E-3
-2.25363E-3	-72.9115E-12	768.473E-3	5.54701E-3	-74.9269E-12	774.199E-3	-44.2236E-3
-2.25863E-3	-73.5221E-12	756.557E-3	3.12039E-3	-75.3615E-12	773.375E-3	-43.1250E-3
-2.26363E-3	-73.5152E-12	745.315E-3	-4.05453E-3	-75.7028E-12	766.455E-3	-31.0462E-3
-2.26863E-3	-74.2158E-12	743.407E-3	-7.01515E-3	-75.3305E-12	760.508E-3	-22.4171E-3
-2.27364E-3	-74.7390E-12	742.647E-3	-25.0524E-3	-75.7937E-12	766.886E-3	-22.7798E-3
-2.27864E-3	-74.8117E-12	758.207E-3	-53.0674E-3	-76.4910E-12	771.943E-3	-20.8892E-3
-2.28364E-3	-74.8582E-12	763.337E-3	-54.2510E-3	-76.8720E-12	758.048E-3	-24.2082E-3
-2.28864E-3	-75.1951E-12	745.898E-3	-23.9241E-3	-75.9469E-12	746.488E-3	-23.6908E-3
-2.29365E-3	-76.4755E-12	754.135E-3	-13.8173E-3	-76.3112E-12	742.622E-3	-25.0394E-3
-2.29865E-3	-75.7976E-12	775.951E-3	-28.7770E-3	-76.8321E-12	736.675E-3	-27.3494E-3
-2.30365E-3	-76.2144E-12	769.900E-3	-27.4184E-3	-76.2161E-12	744.713E-3	-12.8990E-3
-2.30865E-3	-76.5147E-12	757.792E-3	-18.7645E-3	-76.3398E-12	754.938E-3	-5.36184E-3
-2.31366E-3	-77.0564E-12	749.387E-3	-5.11064E-3	-76.4996E-12	751.636E-3	-25.5081E-3
-2.31866E-3	-77.3247E-12	732.890E-3	17.8007E-3	-77.1100E-12	748.980E-3	-48.3621E-3
-2.32366E-3	-77.2388E-12	732.579E-3	6.54524E-3	-76.8652E-12	753.483E-3	-43.0144E-3
-2.32866E-3	-78.0049E-12	742.885E-3	-23.5202E-3	-77.2423E-12	762.546E-3	-19.0608E-3
-2.33367E-3	-77.9961E-12	742.105E-3	-27.6486E-3	-77.3509E-12	766.124E-3	1.05020E-3
-2.33867E-3	-78.2578E-12	736.432E-3	-21.0303E-3	-77.3328E-12	756.689E-3	4.58959E-3
-2.34367E-3	-78.3241E-12	745.155E-3	-6.13058E-3	-78.5432E-12	742.175E-3	-4.63271E-3
-2.34867E-3	-79.2564E-12	758.503E-3	4.80676E-3	-78.9495E-12	736.820E-3	-11.4881E-3
-2.35368E-3	-79.2733E-12	756.513E-3	-7.71898E-3	-79.0131E-12	747.723E-3	-20.9374E-3
-2.35868E-3	-78.6310E-12	763.893E-3	-7.97162E-3	-78.8466E-12	755.051E-3	-13.6245E-3
-2.36368E-3	-79.7460E-12	762.991E-3	3.24810E-3	-80.1366E-12	744.531E-3	11.7626E-3
-2.36868E-3	-80.0598E-12	750.550E-3	-8.32148E-3	-80.4579E-12	738.136E-3	10.6262E-3
-2.37369E-3	-80.6668E-12	746.846E-3	-10.5152E-3	-79.6375E-12	739.530E-3	-9.67519E-3
-2.37869E-3	-80.6912E-12	738.859E-3	-4.23936E-3	-79.5675E-12	725.935E-3	-8.35421E-3
-2.38369E-3	-80.8750E-12	727.369E-3	-22.6526E-3	-80.2334E-12	714.872E-3	5.27958E-3
-2.38869E-3	-81.0447E-12	727.905E-3	-39.8230E-3	-80.3804E-12	719.066E-3	3.65930E-3
-2.39370E-3	-82.0521E-12	746.651E-3	-25.6400E-3	-80.1147E-12	730.076E-3	-8.54572E-3
-2.39870E-3	-81.8939E-12	755.842E-3	-13.3686E-3	-79.8700E-12	747.796E-3	-30.8851E-3
-2.40370E-3	-81.5442E-12	744.762E-3	-18.5841E-3	-80.6270E-12	747.955E-3	-35.3166E-3
-2.40870E-3	-81.4745E-12	739.175E-3	-13.0076E-3	-80.0539E-12	723.966E-3	-5.24018E-3
-2.41371E-3	-82.4480E-12	737.903E-3	-2.87544E-3	-80.9323E-12	698.982E-3	6.38629E-3
-2.41871E-3	-82.4479E-12	734.172E-3	-3.36283E-3	-80.8910E-12	702.395E-3	-18.3355E-3
-2.42371E-3	-82.4834E-12	751.777E-3	359.567E-6	-80.2463E-12	727.279E-3	-20.9960E-3
-2.42871E-3	-81.6235E-12	755.627E-3	-193.612E-6	-81.4455E-12	734.102E-3	611.921E-6
-2.43372E-3	-81.6430E-12	718.949E-3	-16.3423E-3	-82.2607E-12	722.581E-3	-1.33926E-3
-2.43872E-3	-82.4533E-12	696.532E-3	-15.4840E-3	-82.3042E-12	722.006E-3	-12.7811E-3
-2.44372E-3	-83.4152E-12	703.954E-3	-5.59010E-3	-82.0387E-12	722.975E-3	-17.8842E-3
-2.44872E-3	-82.9269E-12	722.598E-3	-7.12375E-3	-82.5122E-12	725.874E-3	-23.3643E-3
-2.45373E-3	-83.0828E-12	739.411E-3	-11.0248E-3	-82.4332E-12	744.927E-3	-22.3019E-3
-2.45873E-3	-84.3864E-12	731.973E-3	-13.0936E-3	-83.0313E-12	751.218E-3	-31.5011E-3
-2.46373E-3	-84.5538E-12	706.313E-3	-22.9858E-3	-83.7046E-12	720.056E-3	-41.0715E-3
-2.46873E-3	-84.8229E-12	701.337E-3	-38.0331E-3	-83.7723E-12	689.987E-3	-24.4610E-3
-2.47374E-3	-84.3541E-12	723.699E-3	-39.4493E-3	-83.6830E-12	706.065E-3	-4.12668E-3
-2.47874E-3	-85.3782E-12	733.857E-3	-44.2893E-3	-83.6948E-12	724.324E-3	-11.8237E-3
-2.48374E-3	-85.9658E-12	729.234E-3	-53.7266E-3	-84.6558E-12	707.459E-3	-24.1545E-3
-2.48874E-3	-86.4703E-12	729.919E-3	-60.2176E-3	-84.4970E-12	697.744E-3	-5.95163E-3
-2.49375E-3	-86.1624E-12	735.767E-3	-57.4351E-3	-84.4444E-12	715.168E-3	4.57246E-3
-2.49875E-3	-86.1980E-12	743.591E-3	-38.0427E-3	-84.2213E-12	731.605E-3	-9.55837E-3
-2.50375E-3	-87.0717E-12	742.888E-3	-25.2590E-3	-85.8264E-12	741.293E-3	-1.28530E-3
-2.50875E-3	-87.3692E-12	733.852E-3	-30.8156E-3	-85.9758E-12	728.832E-3	6.52105E-3
-2.51376E-3	-87.1633E-12	729.124E-3	-36.6800E-3	-86.1567E-12	698.370E-3	-14.4168E-3
-2.51876E-3	-86.4911E-12	713.780E-3	-27.8019E-3	-86.0232E-12	692.497E-3	-17.1003E-3
-2.52376E-3	-86.6019E-12	697.340E-3	-17.0082E-3	-86.4855E-12	708.477E-3	-4.62762E-3
-2.52876E-3	-87.3523E-12	713.211E-3	-18.8127E-3	-86.8065E-12	717.493E-3	-5.07558E-3
-2.53377E-3	-87.9970E-12	731.457E-3	-13.9257E-3	-87.8632E-12	723.923E-3	4.41726E-3
-2.53877E-3	-87.2287E-12	723.796E-3	-2.57794E-3	-87.1622E-12	730.964E-3	21.7552E-3
-2.54377E-3	-86.6749E-12	721.416E-3	-8.40140E-3	-87.5247E-12	727.140E-3	16.4854E-3
-2.54877E-3	-87.4233E-12	724.126E-3	-20.9346E-3	-88.7948E-12	725.390E-3	-2.97688E-3
-2.55378E-3	-88.8292E-12	716.878E-3	-26.9024E-3	-89.1008E-12	733.276E-3	-2.44346E-3
-2.55878E-3	-88.5853E-12	715.730E-3	-25.9611E-3	-89.1305E-12	738.632E-3	-9.23163E-3
-2.56378E-3	-88.6236E-12	723.066E-3	-21.2070E-3	-89.2460E-12	738.385E-3	-27.8651E-3
-2.56878E-3	-88.3791E-12	720.925E-3	-13.9585E-3	-90.6751E-12	740.967E-3	-17.2662E-3
-2.57379E-3	-89.2821E-12	719.761E-3	-12.9339E-3	-90.3112E-12	735.955E-3	-7.14110E-3
-2.57879E-3	-90.7667E-12	727.738E-3	-14.3450E-3	-91.5585E-12	726.084E-3	-6.85727E-3
-2.58379E-3	-90.3049E-12	732.503E-3	-6.27346E-3	-90.7208E-12	731.932E-3	-6.12893E-3
-2.58879E-3	-90.1470E-12	730.155E-3	2.79137E-3	-90.9768E-12	731.624E-3	-18.4197E-3
-2.59380E-3	-91.0621E-12	722.285E-3	11.9040E-3	-91.7244E-12	711.490E-3	-32.1202E-3
-2.59880E-3	-91.4733E-12	722.268E-3	19.4329E-3	-92.9623E-12	707.458E-3	-34.3182E-3
-2.60380E-3	-91.5624E-12	730.747E-3	11.6215E-3	-93.0791E-12	719.731E-3	-31.5747E-3
-2.60880E-3	-91.5686E-12	725.262E-3	2.14815E-3	-92.2469E-12	720.674E-3	-16.9243E-3
-2.61381E-3	-91.0792E-12	711.724E-3	219.038E-6	-93.3111E-12	722.147E-3	463.344E-6
-2.61881E-3	-90.6812E-12	705.955E-3	-12.7543E-3	-92.9067E-12	731.111E-3	-10.9391E-3
-2.62381E-3	-91.3841E-12	697.268E-3	-20.1567E-3	-93.7544E-12	729.507E-3	-37.5359E-3
-2.62881E-3	-92.2369E-12	703.060E-3	-14.3672E-3	-92.8324E-12	727.701E-3	-54.0477E-3
-2.63382E-3	-91.2569E-12	717.158E-3	-21.2472E-3	-93.1559E-12	737.742E-3	-50.8016E-3
-2.63882E-3	-91.0579E-12	716.485E-3	-29.8761E-3	-92.5636E-12	737.894E-3	-33.1566E-3
-2.64382E-3	-92.1470E-12	714.970E-3	-15.0267E-3	-92.9341E-12	714.569E-3	-13.5642E-3
-2.64882E-3	-92.7941E-12	710.855E-3	5.80526E-3	-93.2168E-12	704.896E-3	-7.08841E-3
-2.65383E-3	-91.9163E-12	707.616E-3	7.72423E-3	-93.0587E-12	715.697E-3	-12.0850E-3
-2.65883E-3	-92.5913E-12	713.840E-3	-17.5720E-3	-93.0920E-12	712.830E-3	-6.29827E-3
-2.66383E-3	-93.1117E-12	727.001E-3	-50.5471E-3	-93.5211E-12	705.350E-3	-6.53643E-3
-2.66883E-3	-93.2303E-12	742.051E-3	-56.3675E-3	-94.1200E-12	706.009E-3	-16.7058E-3
-2.67384E-3	-93.3926E-12	735.472E-3	-43.9228E-3	-93.7190E-12	710.184E-3	-19.1433E-3
-2.67884E-3	-93.4505E-12	723.562E-3	-25.7149E-3	-94.7333E-12	714.973E-3	-16.9507E-3
-2.68384E-3	-93.8623E-12	725.817E-3	-10.5920E-3	-94.1201E-12	724.248E-3	-9.63830E-3
-2.68884E-3	-94.1045E-12	720.404E-3	-21.4236E-3	-95.1303E-12	730.812E-3	-10.4843E-3
-2.69385E-3	-94.9996E-12	699.797E-3	-38.8464E-3	-95.0244E-12	723.929E-3	-9.63223E-3
-2.69885E-3	-94.7882E-12	686.772E-3	-20.7157E-3	-95.0244E-12	714.007E-3	-744.960E-6
-2.70385E-3	-94.8951E-12	689.018E-3	5.15350E-3	-95.4649E-12	704.798E-3	-22.7876E-3
-2.70885E-3	-95.5171E-12	690.332E-3	-5.55627E-3	-95.3479E-12	695.307E-3	-55.6176E-3
-2.71386E-3	-95.5991E-12	702.187E-3	-16.6390E-3	-95.6598E-12	692.256E-3	-56.5652E-3
-2.71886E-3	-95.4172E-12	705.583E-3	-12.1076E-3	-95.6652E-12	683.590E-3	-45.4695E-3
-2.72386E-3	-96.2461E-12	711.118E-3	-11.8830E-3	-95.7062E-12	658.358E-3	-36.8760E-3
-2.72886E-3	-96.6224E-12	727.601E-3	-14.7555E-3	-94.7704E-12	649.680E-3	-30.8968E-3
-2.73387E-3	-96.3921E-12	710.077E-3	-20.4375E-3	-94.9816E-12	670.016E-3	-21.0629E-3
-2.73887E-3	-96.8466E-12	695.850E-3	-33.0403E-3	-94.9005E-12	680.185E-3	-11.2087E-3
-2.74387E-3	-96.9923E-12	700.410E-3	-34.3689E-3	-95.1575E-12	671.021E-3	-3.82247E-3
-2.74887E-3	-97.4836E-12	688.286E-3	-14.7644E-3	-96.1073E-12	670.593E-3	3.54377E-3
-2.75388E-3	-97.0993E-12	683.738E-3	-9.82993E-3	-96.0409E-12	690.970E-3	-366.429E-6
-2.75888E-3	-97.3774E-12	703.681E-3	-23.2118E-3	-96.5531E-12	699.713E-3	-2.12055E-3
-2.76388E-3	-97.9420E-12	713.398E-3	-16.4832E-3	-96.3876E-12	682.372E-3	5.91039E-3
-2.76888E-3	-97.8436E-12	694.830E-3	-9.99034E-3	-97.2718E-12	674.576E-3	2.67999E-3
-2.77389E-3	-97.9304E-12	683.591E-3	-10.3557E-3	-97.3146E-12	678.654E-3	-3.35313E-3
-2.77889E-3	-97.9415E-12	684.069E-3	9.88300E-3	-97.5453E-12	691.011E-3	2.51751E-3
-2.78389E-3	-99.9179E-12	673.916E-3	15.1027E-3	-98.0483E-12	709.882E-3	-1.44501E-3
-2.78889E-3	-99.7275E-12	682.146E-3	1.07439E-3	-99.3924E-12	715.526E-3	-12.8363E-3
-2.79390E-3	-99.6809E-12	698.491E-3	-4.82797E-3	-99.5978E-12	708.175E-3	-13.2568E-3
-2.79890E-3	-99.6921E-12	672.312E-3	-8.45781E-3	-99.8025E-12	702.101E-3	-10.7566E-3
-2.80390E-3	-100.988E-12	651.700E-3	-8.45014E-3	-100.165E-12	701.557E-3	-8.86704E-3
-2.80890E-3	-100.525E-12	689.626E-3	2.56004E-3	-100.678E-12	697.614E-3	-7.20492E-3
-2.81391E-3	-99.8588E-12	725.461E-3	3.01038E-3	-100.491E-12	696.146E-3	-16.0025E-3
-2.81891E-3	-101.043E-12	711.613E-3	-19.2305E-3	-100.824E-12	693.235E-3	-16.6822E-3
-2.82391E-3	-100.527E-12	688.218E-3	-23.2541E-3	-100.719E-12	685.975E-3	1.11447E-3
-2.82891E-3	-100.733E-12	683.592E-3	-7.98566E-3	-100.846E-12	690.614E-3	7.43240E-3
-2.83392E-3	-100.343E-12	688.411E-3	-7.02264E-3	-102.014E-12	689.001E-3	-6.52750E-3
-2.83892E-3	-101.216E-12	688.675E-3	-25.4520E-3	-101.290E-12	676.878E-3	-15.1950E-3
-2.84392E-3	-101.419E-12	686.014E-3	-45.7327E-3	-101.092E-12	683.560E-3	-13.6725E-3
-2.84892E-3	-101.099E-12	687.034E-3	-47.8543E-3	-101.711E-12	694.729E-3	-21.3721E-3
-2.85393E-3	-101.597E-12	679.650E-3	-27.5932E-3	-102.281E-12	692.943E-3	-34.0697E-3
-2.85893E-3	-102.054E-12	675.073E-3	-6.03836E-3	-103.158E-12	699.525E-3	-22.8468E-3
-2.86393E-3	-102.936E-12	676.159E-3	-16.9847E-3	-103.101E-12	709.845E-3	-7.08683E-3
-2.86893E-3	-103.169E-12	681.075E-3	-39.5577E-3	-103.652E-12	698.714E-3	-8.44473E-3
-2.87394E-3	-103.509E-12	698.195E-3	-30.0623E-3	-103.941E-12	677.103E-3	-8.62227E-3
-2.87894E-3	-102.871E-12	705.883E-3	-9.43320E-3	-105.503E-12	672.445E-3	-19.3287E-3
-2.88394E-3	-104.427E-12	710.933E-3	-8.05333E-3	-105.101E-12	687.831E-3	-18.5854E-3
-2.88894E-3	-105.033E-12	722.718E-3	-11.7345E-3	-105.337E-12	690.515E-3	9.56647E-3
-2.89395E-3	-105.318E-12	700.936E-3	-19.5502E-3	-105.745E-12	687.189E-3	21.3360E-3
-2.89895E-3	-104.761E-12	666.454E-3	-28.5756E-3	-106.153E-12	692.015E-3	11.3052E-3
-2.90395E-3	-105.382E-12	673.782E-3	-24.0908E-3	-107.760E-12	692.549E-3	-4.86462E-3
-2.90895E-3	-105.379E-12	699.115E-3	-20.5340E-3	-107.159E-12	699.866E-3	-16.5229E-3
-2.91396E-3	-105.495E-12	706.535E-3	-27.0326E-3	-106.769E-12	707.285E-3	-5.43483E-3
-2.91896E-3	-105.281E-12	705.908E-3	-14.7533E-3	-106.806E-12	695.007E-3	6.12455E-3
-2.92396E-3	-105.566E-12	705.227E-3	9.32850E-3	-108.507E-12	679.200E-3	-3.19851E-3
-2.92896E-3	-105.228E-12	700.870E-3	4.78478E-3	-107.257E-12	685.061E-3	-10.4653E-3
-2.93397E-3	-105.710E-12	688.917E-3	-9.76625E-3	-106.806E-12	709.128E-3	-9.93644E-3
-2.93897E-3	-107.595E-12	678.304E-3	-10.2703E-3	-106.962E-12	713.780E-3	-11.9197E-3
-2.94397E-3	-107.512E-12	693.968E-3	-13.5162E-3	-106.920E-12	683.844E-3	-14.7159E-3
-2.94897E-3	-106.338E-12	712.316E-3	-22.8945E-3	-107.433E-12	661.372E-3	-10.1755E-3
-2.95398E-3	-106.312E-12	701.070E-3	-23.1460E-3	-107.783E-12	663.576E-3	-10.7878E-3
-2.95898E-3	-108.060E-12	687.785E-3	-22.2644E-3	-105.813E-12	669.173E-3	-22.4213E-3
-2.96398E-3	-107.954E-12	691.235E-3	-33.1414E-3	-105.609E-12	675.001E-3	-12.5117E-3
-2.96898E-3	-108.021E-12	694.099E-3	-44.8448E-3	-107.599E-12	687.952E-3	747.637E-6
-2.97399E-3	-107.881E-12	687.922E-3	-42.8031E-3	-106.812E-12	693.872E-3	-20.1322E-3
-2.97899E-3	-108.104E-12	680.708E-3	-16.9423E-3	-107.250E-12	692.929E-3	-28.9917E-3
-2.98399E-3	-108.821E-12	685.960E-3	1.87138E-3	-108.041E-12	705.503E-3	-11.1418E-3
-2.98899E-3	-109.406E-12	696.295E-3	-10.5514E-3	-108.274E-12	705.948E-3	2.18787E-3
-2.99400E-3	-109.359E-12	691.704E-3	-16.6731E-3	-108.655E-12	679.692E-3	15.4159E-3
-2.99900E-3	-109.680E-12	679.655E-3	-10.8485E-3	-109.157E-12	663.700E-3	15.1136E-3
-3.00400E-3	-109.069E-12	675.348E-3	-8.93185E-3	-109.847E-12	661.682E-3	1.63128E-3
-3.00900E-3	-109.382E-12	678.002E-3	-4.77203E-3	-109.195E-12	668.932E-3	-3.50611E-3
-3.01401E-3	-109.890E-12	676.222E-3	-7.13381E-3	-109.914E-12	679.720E-3	-2.12705E-3
-3.01901E-3	-110.544E-12	663.345E-3	-6.25813E-3	-109.394E-12	678.134E-3	-7.67076E-3
-3.02401E-3	-109.829E-12	660.082E-3	7.75184E-3	-109.528E-12	675.173E-3	-8.54339E-3
-3.02901E-3	-109.960E-12	668.381E-3	5.81170E-3	-109.281E-12	678.848E-3	6.79130E-3
-3.03402E-3	-110.622E-12	668.037E-3	-14.8260E-3	-108.993E-12	680.027E-3	-10.7751E-3
-3.03902E-3	-111.350E-12	677.141E-3	-27.9737E-3	-108.846E-12	672.335E-3	-29.4304E-3
-3.04402E-3	-110.290E-12	693.641E-3	-19.9696E-3	-108.871E-12	653.024E-3	-6.74985E-3
-3.04902E-3	-110.193E-12	698.631E-3	-6.20161E-3	-108.319E-12	637.723E-3	5.68897E-3
-3.05403E-3	-110.831E-12	695.011E-3	-1.01829E-3	-107.880E-12	634.439E-3	-8.23302E-3
-3.05903E-3	-111.177E-12	674.731E-3	371.277E-6	-108.315E-12	651.430E-3	-19.0053E-3
-3.06403E-3	-111.649E-12	650.757E-3	-18.7890E-3	-108.652E-12	683.540E-3	-13.6828E-3
-3.06903E-3	-111.523E-12	666.461E-3	-50.7050E-3	-109.880E-12	678.641E-3	-10.5192E-3
-3.07404E-3	-111.295E-12	708.557E-3	-44.8877E-3	-110.708E-12	661.079E-3	-18.1698E-3
-3.07904E-3	-113.046E-12	709.269E-3	-12.9372E-3	-110.876E-12	671.992E-3	-24.8316E-3
-3.08404E-3	-112.667E-12	687.622E-3	7.80325E-3	-111.449E-12	678.548E-3	-25.8527E-3
-3.08904E-3	-112.092E-12	686.756E-3	14.3585E-3	-112.919E-12	661.700E-3	-26.2666E-3
-3.09405E-3	-112.331E-12	687.708E-3	-4.81069E-3	-113.312E-12	652.511E-3	-16.9611E-3
-3.09905E-3	-113.221E-12	688.818E-3	-38.9836E-3	-113.666E-12	662.896E-3	-6.80860E-3
-3.10405E-3	-113.138E-12	694.437E-3	-34.3976E-3	-114.357E-12	655.697E-3	-22.6147E-3
-3.10905E-3	-113.121E-12	676.237E-3	-5.04517E-3	-114.161E-12	640.050E-3	-38.3874E-3
-3.11406E-3	-113.800E-12	668.057E-3	5.65975E-3	-114.592E-12	650.637E-3	-39.5906E-3
-3.11906E-3	-113.895E-12	693.317E-3	8.74129E-3	-115.256E-12	677.666E-3	-34.3297E-3
-3.12406E-3	-114.615E-12	689.884E-3	-1.09032E-3	-115.598E-12	688.039E-3	-19.0320E-3
-3.12906E-3	-115.097E-12	664.798E-3	-25.2929E-3	-115.326E-12	669.914E-3	-26.9014E-3
-3.13407E-3	-115.113E-12	657.693E-3	-35.9368E-3	-115.256E-12	656.221E-3	-41.0177E-3
-3.13907E-3	-116.148E-12	661.058E-3	-20.0421E-3	-115.540E-12	673.957E-3	-15.3202E-3
-3.14407E-3	-116.323E-12	678.506E-3	-9.06295E-3	-115.591E-12	692.430E-3	12.8426E-3
-3.14907E-3	-116.054E-12	694.033E-3	-11.5937E-3	-115.379E-12	668.080E-3	7.55858E-3
-3.15408E-3	-116.053E-12	683.715E-3	-4.13742E-3	-115.363E-12	642.090E-3	-24.6802E-3
-3.15908E-3	-116.586E-12	668.174E-3	-7.69084E-3	-116.046E-12	664.337E-3	-54.9655E-3
-3.16408E-3	-116.732E-12	667.418E-3	-16.7316E-3	-116.327E-12	686.198E-3	-59.4400E-3
-3.16908E-3	-117.003E-12	661.054E-3	-6.38280E-3	-117.105E-12	672.233E-3	-44.3587E-3
-3.17409E-3	-117.700E-12	644.616E-3	-6.13023E-3	-116.311E-12	662.318E-3	-25.9011E-3
-3.17909E-3	-116.980E-12	662.881E-3	-24.6679E-3	-116.849E-12	678.208E-3	-7.98812E-3
-3.18409E-3	-117.485E-12	697.656E-3	-32.9028E-3	-117.706E-12	701.135E-3	-380.763E-6
-3.18909E-3	-118.438E-12	691.120E-3	-24.0198E-3	-118.554E-12	702.432E-3	-6.92147E-3
-3.19410E-3	-118.167E-12	684.486E-3	-4.89761E-3	-118.054E-12	690.914E-3	-21.9765E-3
-3.19910E-3	-118.440E-12	702.837E-3	5.72980E-3	-118.433E-12	688.503E-3	-30.7128E-3
-3.20410E-3	-119.058E-12	700.694E-3	-11.6469E-3	-119.855E-12	663.456E-3	-19.9712E-3
-3.20910E-3	-119.970E-12	690.620E-3	-20.3357E-3	-120.913E-12	650.732E-3	-3.60447E-3
-3.21411E-3	-119.977E-12	687.579E-3	-830.069E-6	-120.088E-12	679.694E-3	-3.36466E-3
-3.21911E-3	-120.057E-12	689.563E-3	-15.8362E-3	-120.872E-12	689.418E-3	-20.0835E-3
-3.22411E-3	-119.824E-12	701.111E-3	-58.6741E-3	-120.955E-12	675.284E-3	-17.9280E-3
-3.22911E-3	-120.790E-12	706.237E-3	-53.0752E-3	-121.368E-12	665.362E-3	7.91713E-3
-3.23412E-3	-121.042E-12	690.933E-3	-9.79258E-3	-122.419E-12	667.058E-3	15.3143E-3
-3.23912E-3	-120.094E-12	667.041E-3	21.0615E-3	-120.516E-12	683.836E-3	-5.77521E-3
-3.24412E-3	-119.948E-12	675.899E-3	29.1210E-3	-120.428E-12	694.182E-3	-18.9370E-3
-3.24912E-3	-119.549E-12	696.304E-3	21.0374E-3	-120.332E-12	666.221E-3	-29.4881E-3
-3.25413E-3	-120.606E-12	694.907E-3	-9.03793E-3	-120.615E-12	631.230E-3	-35.1939E-3
-3.25913E-3	-119.283E-12	696.902E-3	-36.2465E-3	-120.021E-12	638.562E-3	-16.5516E-3
-3.26413E-3	-119.795E-12	693.014E-3	-26.0837E-3	-119.931E-12	656.542E-3	-3.14877E-3
-3.26913E-3	-119.539E-12	678.403E-3	-7.67785E-3	-120.517E-12	656.281E-3	7.72254E-3
-3.27414E-3	-120.264E-12	667.791E-3	-15.7338E-3	-120.082E-12	658.835E-3	13.0832E-3
-3.27914E-3	-120.733E-12	669.552E-3	-32.3606E-3	-119.573E-12	655.059E-3	862.845E-6
-3.28414E-3	-121.349E-12	680.189E-3	-26.3005E-3	-120.154E-12	644.796E-3	-9.00752E-3
-3.28914E-3	-121.747E-12	683.613E-3	-11.5280E-3	-120.642E-12	655.898E-3	-26.6332E-3
-3.29415E-3	-122.065E-12	684.677E-3	-3.05802E-3	-120.227E-12	682.087E-3	-49.6976E-3
-3.29915E-3	-122.916E-12	684.627E-3	-6.26055E-3	-120.478E-12	685.541E-3	-46.2973E-3
-3.30415E-3	-122.870E-12	684.276E-3	-24.9408E-3	-121.595E-12	678.106E-3	-32.1627E-3
-3.30915E-3	-123.560E-12	692.880E-3	-30.8843E-3	-122.187E-12	680.741E-3	-32.1328E-3
-3.31416E-3	-123.254E-12	701.742E-3	-18.8223E-3	-123.537E-12	677.896E-3	-34.0233E-3
-3.31916E-3	-123.467E-12	685.330E-3	-22.7354E-3	-123.392E-12	676.995E-3	-29.0318E-3
-3.32416E-3	-123.654E-12	659.507E-3	-49.7265E-3	-124.261E-12	678.592E-3	-19.5178E-3
-3.32916E-3	-123.008E-12	648.905E-3	-53.1810E-3	-124.384E-12	669.450E-3	-15.7152E-3
-3.33417E-3	-123.267E-12	648.338E-3	-32.9436E-3	-125.071E-12	647.796E-3	-23.6499E-3
-3.33917E-3	-122.885E-12	656.129E-3	-24.4086E-3	-124.423E-12	631.676E-3	-32.0742E-3
-3.34417E-3	-123.998E-12	686.362E-3	-19.0906E-3	-124.496E-12	640.029E-3	-28.4388E-3
-3.34917E-3	-122.576E-12	722.944E-3	-20.8063E-3	-123.818E-12	654.471E-3	-17.7909E-3
-3.35418E-3	-122.723E-12	723.718E-3	-40.4646E-3	-123.850E-12	658.024E-3	-13.3053E-3
-3.35918E-3	-124.178E-12	689.438E-3	-57.7217E-3	-123.207E-12	652.303E-3	-18.2120E-3
-3.36418E-3	-124.041E-12	663.714E-3	-61.6503E-3	-122.019E-12	638.788E-3	-20.2733E-3
-3.36918E-3	-124.660E-12	679.430E-3	-40.9062E-3	-121.947E-12	619.778E-3	-13.7116E-3
-3.37419E-3	-126.357E-12	692.176E-3	-22.5522E-3	-122.778E-12	609.335E-3	-2.39460E-3
-3.37919E-3	-126.702E-12	672.291E-3	-31.0627E-3	-122.330E-12	614.589E-3	13.1009E-3
-3.38419E-3	-126.116E-12	678.520E-3	-32.8851E-3	-121.950E-12	620.306E-3	7.18460E-3
-3.38919E-3	-126.628E-12	707.508E-3	-15.0082E-3	-122.919E-12	628.853E-3	-10.6254E-3
-3.39420E-3	-127.403E-12	685.189E-3	13.3317E-3	-124.601E-12	647.583E-3	-12.9934E-3
-3.39920E-3	-127.663E-12	641.891E-3	13.0171E-3	-125.599E-12	672.811E-3	-23.6878E-3
-3.40420E-3	-128.537E-12	645.232E-3	-31.2784E-3	-126.236E-12	691.871E-3	-31.6124E-3
-3.40920E-3	-127.296E-12	661.381E-3	-48.9446E-3	-127.727E-12	690.935E-3	-23.6645E-3
-3.41421E-3	-127.288E-12	652.370E-3	-19.2271E-3	-129.615E-12	679.446E-3	-16.5845E-3
-3.41921E-3	-127.641E-12	656.466E-3	-3.88913E-3	-130.018E-12	673.787E-3	-18.8446E-3
-3.42421E-3	-128.573E-12	679.058E-3	-15.2746E-3	-131.149E-12	681.903E-3	-24.0034E-3
-3.42921E-3	-127.015E-12	683.614E-3	-24.8069E-3	-131.240E-12	699.928E-3	-6.74050E-3
-3.43422E-3	-126.873E-12	678.547E-3	-24.2367E-3	-132.092E-12	704.207E-3	-1.58674E-3
-3.43922E-3	-127.997E-12	663.717E-3	-15.2463E-3	-133.700E-12	692.314E-3	-30.4266E-3
-3.44422E-3	-128.583E-12	651.643E-3	-16.2877E-3	-132.774E-12	680.492E-3	-29.6333E-3
-3.44922E-3	-128.735E-12	663.158E-3	-35.7648E-3	-131.456E-12	682.150E-3	-11.1053E-3
-3.45423E-3	-128.681E-12	673.554E-3	-40.1658E-3	-131.485E-12	692.684E-3	-10.0872E-3
-3.45923E-3	-129.707E-12	675.368E-3	-21.3835E-3	-131.212E-12	688.590E-3	-729.911E-6
-3.46423E-3	-131.812E-12	684.284E-3	-21.8644E-3	-131.484E-12	685.675E-3	-1.67009E-3
-3.46923E-3	-131.321E-12	690.300E-3	-30.4978E-3	-131.473E-12	689.204E-3	-20.1321E-3
-3.47424E-3	-131.191E-12	660.853E-3	-13.4638E-3	-129.315E-12	681.618E-3	-22.3370E-3
-3.47924E-3	-131.758E-12	632.611E-3	-11.2637E-3	-129.124E-12	682.274E-3	-16.6065E-3
-3.48424E-3	-133.682E-12	666.683E-3	-42.1728E-3	-130.175E-12	685.690E-3	-31.8056E-3
-3.48924E-3	-131.870E-12	697.885E-3	-37.1441E-3	-130.284E-12	672.764E-3	-50.4586E-3
-3.49425E-3	-131.243E-12	679.715E-3	-9.29487E-3	-130.001E-12	667.369E-3	-42.4692E-3
-3.49925E-3	-131.103E-12	667.891E-3	-30.0037E-3	-130.820E-12	675.871E-3	-18.0579E-3
-3.50425E-3	-133.265E-12	675.994E-3	-50.4013E-3	-131.137E-12	694.022E-3	-6.51544E-3
-3.50925E-3	-133.394E-12	668.438E-3	-37.6312E-3	-132.035E-12	713.828E-3	431.483E-6
-3.51426E-3	-131.134E-12	662.248E-3	-28.8967E-3	-133.548E-12	713.380E-3	-309.483E-6
-3.51926E-3	-132.076E-12	676.978E-3	-24.1334E-3	-134.437E-12	705.136E-3	-35.1360E-3
-3.52426E-3	-133.014E-12	679.944E-3	-18.3596E-3	-135.499E-12	701.609E-3	-55.5279E-3
-3.52926E-3	-135.051E-12	676.816E-3	-18.6048E-3	-135.551E-12	680.346E-3	-37.8846E-3
-3.53427E-3	-133.977E-12	687.909E-3	-13.5558E-3	-136.651E-12	654.937E-3	-14.7124E-3
-3.53927E-3	-133.033E-12	685.810E-3	-812.831E-6	-137.563E-12	669.172E-3	-9.73925E-3
-3.54427E-3	-133.665E-12	676.751E-3	-3.69193E-3	-137.396E-12	689.075E-3	-5.53998E-3
-3.54927E-3	-136.682E-12	671.864E-3	-31.4333E-3	-137.658E-12	673.655E-3	20.7308E-3
-3.55428E-3	-136.886E-12	650.422E-3	-36.1062E-3	-136.748E-12	657.204E-3	24.9230E-3
-3.55928E-3	-136.123E-12	635.638E-3	-29.1041E-3	-136.206E-12	653.063E-3	-5.13259E-3
-3.56428E-3	-135.227E-12	649.460E-3	-49.8983E-3	-137.442E-12	631.777E-3	-18.3277E-3
-3.56928E-3	-136.940E-12	662.912E-3	-46.9772E-3	-135.321E-12	609.412E-3	-20.2250E-3
-3.57429E-3	-138.486E-12	660.204E-3	-32.2267E-3	-135.354E-12	618.088E-3	-30.0053E-3
-3.57929E-3	-136.811E-12	682.786E-3	-43.7389E-3	-134.699E-12	644.714E-3	-25.6935E-3
-3.58429E-3	-134.861E-12	705.339E-3	-41.4989E-3	-134.890E-12	673.960E-3	-21.9473E-3
-3.58929E-3	-135.619E-12	679.442E-3	-37.9060E-3	-134.157E-12	693.631E-3	-27.1939E-3
-3.59430E-3	-136.773E-12	653.399E-3	-42.0641E-3	-133.166E-12	697.062E-3	-30.8695E-3
-3.59930E-3	-136.277E-12	651.639E-3	-21.0907E-3	-134.153E-12	708.446E-3	-36.1693E-3
-3.60430E-3	-135.555E-12	642.364E-3	-4.34720E-3	-134.836E-12	716.683E-3	-44.6365E-3
-3.60930E-3	-135.046E-12	641.165E-3	-15.0076E-3	-134.564E-12	705.934E-3	-34.3138E-3
-3.61431E-3	-136.656E-12	657.546E-3	-26.7085E-3	-135.762E-12	701.468E-3	12.5950E-3
-3.61931E-3	-136.202E-12	644.589E-3	-8.39480E-3	-135.827E-12	694.290E-3	29.9005E-3
-3.62431E-3	-136.204E-12	642.288E-3	1.11951E-3	-137.117E-12	678.154E-3	-1.77741E-3
-3.62931E-3	-135.899E-12	681.817E-3	-6.57526E-3	-137.606E-12	681.106E-3	-14.0974E-3
-3.63432E-3	-136.628E-12	687.217E-3	12.9306E-3	-138.392E-12	697.169E-3	-13.8806E-3
-3.63932E-3	-137.291E-12	667.730E-3	19.8788E-3	-138.127E-12	691.692E-3	-29.6707E-3
-3.64432E-3	-138.061E-12	681.256E-3	-3.80968E-3	-139.929E-12	684.215E-3	-25.6786E-3
-3.64932E-3	-137.713E-12	697.619E-3	-17.7194E-3	-139.564E-12	690.574E-3	-6.00222E-3
-3.65433E-3	-137.794E-12	703.329E-3	-13.0427E-3	-139.533E-12	669.725E-3	-1.33393E-3
-3.65933E-3	-139.531E-12	718.720E-3	1.11402E-3	-139.873E-12	638.999E-3	6.10300E-3
-3.66433E-3	-138.068E-12	698.391E-3	13.0706E-3	-140.546E-12	641.745E-3	13.0621E-3
-3.66933E-3	-139.724E-12	647.127E-3	3.92395E-3	-139.645E-12	668.032E-3	-8.05278E-3
-3.67434E-3	-138.700E-12	630.165E-3	-11.5885E-3	-139.161E-12	671.518E-3	-19.5126E-3
-3.67934E-3	-138.551E-12	637.150E-3	6.58571E-3	-138.352E-12	646.523E-3	17.9646E-3
-3.68434E-3	-139.358E-12	635.738E-3	34.6565E-3	-137.467E-12	627.974E-3	55.2222E-3
-3.68934E-3	-140.110E-12	640.676E-3	34.3603E-3	-137.917E-12	618.226E-3	34.3538E-3
-3.69435E-3	-139.451E-12	668.035E-3	31.6218E-3	-137.641E-12	620.493E-3	-21.8112E-3
-3.69935E-3	-139.379E-12	680.795E-3	27.7869E-3	-136.642E-12	645.798E-3	-51.1694E-3
-3.70435E-3	-141.052E-12	669.069E-3	12.6754E-3	-137.572E-12	670.671E-3	-41.6055E-3
-3.70935E-3	-140.018E-12	662.403E-3	-3.26709E-3	-137.949E-12	670.864E-3	-16.2447E-3
-3.71436E-3	-141.542E-12	653.581E-3	-11.4489E-3	-139.406E-12	668.712E-3	5.87533E-3
-3.71936E-3	-141.133E-12	639.489E-3	-1.92720E-3	-138.776E-12	687.878E-3	-9.33936E-3
-3.72436E-3	-140.958E-12	638.668E-3	9.98274E-3	-138.906E-12	681.695E-3	-42.2196E-3
-3.72936E-3	-140.901E-12	649.290E-3	-2.67602E-3	-140.244E-12	647.301E-3	-36.7264E-3
-3.73437E-3	-141.647E-12	652.428E-3	-22.4536E-3	-141.748E-12	643.871E-3	-16.7518E-3
-3.73937E-3	-142.117E-12	637.757E-3	-12.6824E-3	-144.104E-12	670.969E-3	-9.01160E-3
-3.74437E-3	-140.650E-12	633.076E-3	-2.62402E-3	-142.749E-12	692.292E-3	-12.0225E-3
-3.74937E-3	-140.696E-12	654.112E-3	-24.5927E-3	-144.108E-12	680.104E-3	-24.0871E-3
-3.75438E-3	-140.865E-12	661.999E-3	-40.2911E-3	-145.108E-12	672.929E-3	-43.5769E-3
-3.75938E-3	-141.433E-12	650.263E-3	-27.0463E-3	-147.753E-12	682.117E-3	-62.4534E-3
-3.76438E-3	-141.608E-12	644.153E-3	-5.80812E-3	-147.042E-12	673.457E-3	-59.4025E-3
-3.76938E-3	-141.066E-12	629.917E-3	-3.12763E-3	-145.537E-12	679.616E-3	-67.8775E-3
-3.77439E-3	-141.543E-12	631.028E-3	-6.60468E-3	-145.129E-12	678.228E-3	-69.2292E-3
-3.77939E-3	-142.623E-12	668.514E-3	3.51931E-3	-146.402E-12	656.581E-3	-23.4500E-3
-3.78439E-3	-143.489E-12	672.607E-3	8.88068E-3	-145.373E-12	654.621E-3	1.96189E-3
-3.78939E-3	-143.560E-12	634.142E-3	-15.3620E-3	-143.053E-12	655.266E-3	1.75010E-3
-3.79440E-3	-143.685E-12	617.453E-3	-54.1538E-3	-142.887E-12	648.001E-3	15.5759E-3
-3.79940E-3	-145.283E-12	639.583E-3	-61.8617E-3	-144.370E-12	654.132E-3	13.4018E-3
-3.80440E-3	-147.534E-12	657.792E-3	-48.8316E-3	-145.087E-12	674.704E-3	-9.84699E-3
-3.80940E-3	-146.723E-12	667.169E-3	-39.8370E-3	-143.842E-12	689.269E-3	-18.5303E-3
-3.81441E-3	-146.197E-12	684.596E-3	-19.3555E-3	-144.337E-12	693.661E-3	-9.20811E-3
-3.81941E-3	-147.061E-12	681.645E-3	-613.464E-6	-144.807E-12	686.006E-3	-5.86440E-3
-3.82441E-3	-147.268E-12	650.773E-3	-12.8254E-3	-147.449E-12	664.754E-3	-4.99213E-3
-3.82941E-3	-148.346E-12	631.732E-3	-24.3225E-3	-147.382E-12	658.347E-3	2.57221E-3
-3.83442E-3	-147.890E-12	644.738E-3	-547.598E-6	-147.364E-12	675.462E-3	-3.27274E-3
-3.83942E-3	-146.132E-12	660.162E-3	41.6025E-3	-149.406E-12	691.283E-3	-12.3266E-3
-3.84442E-3	-146.283E-12	660.031E-3	58.4962E-3	-150.928E-12	700.689E-3	-7.16187E-3
-3.84942E-3	-147.459E-12	654.199E-3	29.3594E-3	-152.364E-12	711.647E-3	-21.3120E-3
-3.85443E-3	-146.864E-12	664.113E-3	-8.90766E-3	-152.002E-12	710.850E-3	-46.8587E-3
-3.85943E-3	-145.146E-12	696.914E-3	-24.3185E-3	-152.684E-12	694.080E-3	-50.7863E-3
-3.86443E-3	-146.074E-12	714.354E-3	-18.3204E-3	-152.503E-12	681.123E-3	-41.8380E-3
-3.86943E-3	-146.477E-12	688.676E-3	-4.98186E-3	-153.386E-12	677.653E-3	-45.8136E-3
-3.87444E-3	-147.188E-12	674.491E-3	6.32459E-3	-151.776E-12	680.480E-3	-47.0017E-3
-3.87944E-3	-147.781E-12	681.868E-3	9.68972E-3	-151.702E-12	680.300E-3	-11.0151E-3
-3.88444E-3	-148.272E-12	662.240E-3	-730.957E-6	-151.189E-12	683.679E-3	16.0978E-3
-3.88944E-3	-149.594E-12	650.755E-3	-15.5986E-3	-149.659E-12	684.101E-3	13.5467E-3
-3.89445E-3	-150.113E-12	665.600E-3	-14.0988E-3	-148.733E-12	672.303E-3	8.96682E-3
-3.89945E-3	-150.157E-12	662.271E-3	189.096E-6	-149.285E-12	669.503E-3	-8.95870E-3
-3.90445E-3	-150.326E-12	658.724E-3	2.23749E-3	-148.459E-12	673.770E-3	-33.1038E-3
-3.90945E-3	-150.744E-12	667.629E-3	-3.16577E-3	-148.106E-12	658.620E-3	-36.3029E-3
-3.91446E-3	-153.192E-12	655.131E-3	-14.3550E-3	-147.271E-12	627.743E-3	-30.7411E-3
-3.91946E-3	-152.640E-12	641.766E-3	-27.7150E-3	-147.609E-12	629.352E-3	-27.5187E-3
-3.92446E-3	-152.355E-12	653.338E-3	-12.8293E-3	-148.437E-12	652.546E-3	-29.6938E-3
-3.92946E-3	-152.104E-12	648.568E-3	-462.585E-6	-148.184E-12	642.501E-3	-20.6522E-3
-3.93447E-3	-152.461E-12	628.371E-3	-28.7370E-3	-149.979E-12	621.372E-3	3.66371E-3
-3.93947E-3	-152.315E-12	636.366E-3	-45.4438E-3	-150.261E-12	629.394E-3	9.31075E-3
-3.94447E-3	-152.672E-12	663.133E-3	-36.6634E-3	-151.162E-12	648.953E-3	-8.90607E-3
-3.94947E-3	-152.155E-12	667.246E-3	-44.4423E-3	-151.302E-12	667.311E-3	-28.0460E-3
-3.95448E-3	-151.681E-12	661.347E-3	-50.6022E-3	-153.375E-12	675.729E-3	-29.8383E-3
-3.95948E-3	-151.855E-12	666.954E-3	-29.4658E-3	-153.065E-12	680.067E-3	-36.1945E-3
-3.96448E-3	-152.289E-12	654.001E-3	-21.7146E-3	-154.550E-12	678.627E-3	-52.8737E-3
-3.96948E-3	-151.971E-12	641.872E-3	-36.7301E-3	-152.927E-12	660.231E-3	-48.5938E-3
-3.97449E-3	-152.483E-12	656.774E-3	-24.5388E-3	-154.293E-12	654.724E-3	-28.8662E-3
-3.97949E-3	-152.902E-12	674.084E-3	-5.70388E-3	-153.951E-12	654.604E-3	-19.1696E-3
-3.98449E-3	-154.071E-12	676.200E-3	-13.4317E-3	-153.065E-12	652.562E-3	-27.8458E-3
-3.98949E-3	-153.265E-12	664.824E-3	-11.7686E-3	-152.584E-12	660.085E-3	-42.6800E-3
-3.99450E-3	-153.642E-12	643.219E-3	-627.676E-6	-152.637E-12	658.408E-3	-46.3899E-3
-3.99950E-3	-153.553E-12	630.601E-3	-20.9044E-3	-153.446E-12	665.721E-3	-25.9864E-3
-4.00450E-3	-154.863E-12	627.760E-3	-35.3585E-3	-151.482E-12	687.343E-3	7.93561E-3
-4.00950E-3	-155.938E-12	615.983E-3	-4.79473E-3	-151.180E-12	674.733E-3	25.0441E-3
-4.01451E-3	-154.992E-12	625.732E-3	1.15794E-3	-150.987E-12	632.937E-3	24.6550E-3
-4.01951E-3	-155.023E-12	651.305E-3	-24.9465E-3	-152.118E-12	612.496E-3	9.75622E-3
-4.02451E-3	-153.530E-12	644.290E-3	-41.7714E-3	-151.030E-12	616.362E-3	-21.8714E-3
-4.02951E-3	-155.223E-12	624.640E-3	-48.1108E-3	-151.483E-12	637.252E-3	-39.3673E-3
-4.03452E-3	-156.009E-12	646.774E-3	-28.5611E-3	-151.405E-12	671.168E-3	-31.0681E-3
-4.03952E-3	-154.796E-12	682.806E-3	-8.95234E-3	-153.272E-12	671.246E-3	-26.7115E-3
-4.04452E-3	-155.465E-12	670.946E-3	-20.6975E-3	-154.916E-12	648.582E-3	-28.1780E-3
-4.04952E-3	-155.728E-12	644.384E-3	-43.5118E-3	-155.009E-12	667.509E-3	-30.3936E-3
-4.05453E-3	-156.336E-12	655.987E-3	-42.8537E-3	-155.742E-12	697.648E-3	-34.3759E-3
-4.05953E-3	-154.583E-12	681.111E-3	-27.6198E-3	-157.702E-12	681.241E-3	-25.1093E-3
-4.06453E-3	-157.036E-12	682.634E-3	-30.6047E-3	-158.511E-12	665.322E-3	-19.1658E-3
-4.06953E-3	-156.647E-12	677.841E-3	-36.9323E-3	-158.507E-12	681.068E-3	-29.1883E-3
-4.07454E-3	-155.936E-12	674.210E-3	-16.0680E-3	-158.581E-12	674.080E-3	-36.2085E-3
-4.07954E-3	-154.738E-12	662.282E-3	-414.237E-6	-159.105E-12	653.258E-3	-37.7527E-3
-4.08454E-3	-156.956E-12	661.734E-3	-18.0565E-3	-159.082E-12	651.903E-3	-40.6099E-3
-4.08954E-3	-156.086E-12	670.970E-3	-29.7380E-3	-159.603E-12	648.913E-3	-26.7450E-3
-4.09455E-3	-155.516E-12	683.304E-3	-33.5986E-3	-157.421E-12	637.251E-3	8.11162E-3
-4.09955E-3	-156.452E-12	682.055E-3	-44.6253E-3	-157.211E-12	630.995E-3	35.3117E-3
-4.10455E-3	-157.085E-12	657.712E-3	-38.2975E-3	-158.354E-12	632.892E-3	26.4445E-3
-4.10955E-3	-156.953E-12	643.641E-3	-23.3280E-3	-158.237E-12	650.304E-3	-13.2072E-3
-4.11456E-3	-157.332E-12	649.045E-3	-30.0194E-3	-157.912E-12	660.049E-3	-55.3989E-3
-4.11956E-3	-157.956E-12	648.149E-3	-36.9079E-3	-157.276E-12	624.496E-3	-68.4761E-3
-4.12456E-3	-159.542E-12	636.558E-3	-40.1686E-3	-158.424E-12	610.509E-3	-57.3329E-3
-4.12956E-3	-160.385E-12	639.589E-3	-54.3940E-3	-158.397E-12	653.549E-3	-54.9243E-3
-4.13457E-3	-159.279E-12	667.085E-3	-40.1979E-3	-159.604E-12	688.288E-3	-59.6889E-3
-4.13957E-3	-160.548E-12	689.668E-3	-8.80376E-3	-159.446E-12	694.642E-3	-40.3185E-3
-4.14457E-3	-161.412E-12	673.248E-3	-4.19604E-3	-159.797E-12	675.512E-3	-8.10320E-3
-4.14957E-3	-160.938E-12	654.885E-3	-5.66441E-3	-160.955E-12	654.874E-3	-3.81338E-3
-4.15458E-3	-160.086E-12	640.985E-3	-6.68003E-3	-161.731E-12	660.665E-3	-23.2518E-3
-4.15958E-3	-162.182E-12	618.140E-3	-12.4040E-3	-163.418E-12	678.090E-3	-26.7829E-3
-4.16458E-3	-161.324E-12	627.444E-3	-29.7415E-3	-162.376E-12	685.751E-3	-8.63772E-3
-4.16958E-3	-160.287E-12	661.525E-3	-50.7538E-3	-164.770E-12	680.191E-3	7.61809E-3
-4.17459E-3	-159.538E-12	696.853E-3	-43.8621E-3	-165.374E-12	674.853E-3	22.4004E-3
-4.17959E-3	-161.715E-12	713.237E-3	-26.6457E-3	-165.688E-12	653.750E-3	27.0829E-3
-4.18459E-3	-160.861E-12	703.958E-3	-9.22365E-3	-164.799E-12	639.426E-3	13.1472E-3
-4.18959E-3	-159.932E-12	699.322E-3	-5.11089E-3	-163.821E-12	668.359E-3	-18.0125E-3
-4.19460E-3	-161.045E-12	702.887E-3	-37.0963E-3	-164.685E-12	680.503E-3	-48.8934E-3
-4.19960E-3	-162.509E-12	697.570E-3	-58.0515E-3	-163.751E-12	657.143E-3	-41.2088E-3
-4.20460E-3	-162.523E-12	682.784E-3	-53.9456E-3	-163.962E-12	650.121E-3	-12.1732E-3
-4.20960E-3	-162.818E-12	663.093E-3	-45.9363E-3	-162.248E-12	665.593E-3	-3.89911E-3
-4.21461E-3	-164.888E-12	648.044E-3	-35.8459E-3	-162.871E-12	683.863E-3	460.554E-6
-4.21961E-3	-164.902E-12	656.705E-3	-30.8700E-3	-162.518E-12	682.461E-3	-1.62375E-3
-4.22461E-3	-166.416E-12	679.844E-3	-15.5291E-3	-162.475E-12	665.490E-3	-32.6430E-3
-4.22961E-3	-165.614E-12	674.341E-3	8.40036E-3	-161.870E-12	672.947E-3	-48.7330E-3
-4.23462E-3	-167.503E-12	646.409E-3	18.7544E-3	-162.120E-12	696.009E-3	-39.7614E-3
-4.23962E-3	-169.134E-12	644.800E-3	781.589E-6	-163.368E-12	690.159E-3	-35.7761E-3
-4.24462E-3	-169.813E-12	681.994E-3	-10.7483E-3	-163.580E-12	658.550E-3	-25.2109E-3
-4.24962E-3	-167.907E-12	694.072E-3	6.61397E-3	-164.022E-12	653.733E-3	-12.0328E-3
-4.25463E-3	-166.722E-12	656.998E-3	123.579E-6	-164.013E-12	678.787E-3	-12.0619E-3
-4.25963E-3	-169.318E-12	649.229E-3	-25.5928E-3	-165.486E-12	678.857E-3	-15.3955E-3
-4.26463E-3	-169.271E-12	681.830E-3	-44.6925E-3	-166.178E-12	655.332E-3	-16.0394E-3
-4.26963E-3	-167.320E-12	689.063E-3	-76.7896E-3	-167.675E-12	646.637E-3	-20.9564E-3
-4.27464E-3	-165.499E-12	672.179E-3	-82.0514E-3	-168.304E-12	633.218E-3	-34.7293E-3
-4.27964E-3	-166.715E-12	649.309E-3	-33.6810E-3	-166.986E-12	619.546E-3	-21.4038E-3
-4.28464E-3	-166.596E-12	615.077E-3	4.69371E-3	-167.167E-12	624.215E-3	-539.141E-6
-4.28964E-3	-166.365E-12	611.984E-3	5.89654E-3	-167.863E-12	628.505E-3	-16.3861E-3
-4.29465E-3	-165.627E-12	633.087E-3	10.5920E-3	-167.196E-12	645.544E-3	-26.2959E-3
-4.29965E-3	-166.573E-12	642.039E-3	18.9676E-3	-166.030E-12	671.896E-3	-21.3003E-3
-4.30465E-3	-168.064E-12	640.066E-3	-7.21419E-3	-165.633E-12	656.627E-3	-15.4008E-3
-4.30965E-3	-168.198E-12	655.648E-3	-27.6940E-3	-165.253E-12	633.605E-3	-1.12165E-3
-4.31466E-3	-168.736E-12	669.146E-3	-11.2370E-3	-166.058E-12	648.034E-3	-12.2158E-3
-4.31966E-3	-168.618E-12	664.886E-3	-18.4086E-3	-164.547E-12	643.872E-3	-33.0764E-3
-4.32466E-3	-169.223E-12	667.956E-3	-50.4740E-3	-163.994E-12	627.421E-3	-22.9991E-3
-4.32966E-3	-169.189E-12	648.763E-3	-57.4833E-3	-164.176E-12	652.538E-3	-7.73920E-3
-4.33467E-3	-170.034E-12	627.013E-3	-44.8006E-3	-165.336E-12	675.440E-3	-8.19545E-3
-4.33967E-3	-170.351E-12	630.214E-3	-32.8805E-3	-165.257E-12	652.813E-3	-2.89436E-3
-4.34467E-3	-169.461E-12	624.487E-3	-25.2190E-3	-164.911E-12	640.692E-3	2.24262E-3
-4.34967E-3	-169.333E-12	636.227E-3	-20.4215E-3	-165.930E-12	647.008E-3	-22.3776E-3
-4.35468E-3	-169.914E-12	678.207E-3	-5.76326E-3	-167.327E-12	648.408E-3	-48.7296E-3
-4.35968E-3	-168.617E-12	683.237E-3	21.8776E-3	-169.857E-12	666.679E-3	-36.3434E-3
-4.36468E-3	-168.311E-12	656.748E-3	18.0436E-3	-169.663E-12	681.906E-3	-25.0109E-3
-4.36968E-3	-168.386E-12	669.817E-3	-20.3932E-3	-169.804E-12	677.946E-3	-45.7831E-3
-4.37469E-3	-168.259E-12	687.313E-3	-29.4476E-3	-170.398E-12	666.420E-3	-47.6570E-3
-4.37969E-3	-167.825E-12	672.245E-3	-17.8077E-3	-173.835E-12	660.518E-3	-8.90196E-3
-4.38469E-3	-167.866E-12	662.974E-3	-23.7423E-3	-173.555E-12	664.799E-3	4.30845E-3
-4.38969E-3	-168.164E-12	648.839E-3	-21.2989E-3	-170.977E-12	654.626E-3	-14.2075E-3
-4.39470E-3	-167.212E-12	630.801E-3	-2.93500E-3	-172.858E-12	635.507E-3	-12.4418E-3
-4.39970E-3	-168.464E-12	626.885E-3	-18.9323E-3	-172.412E-12	641.356E-3	-2.33925E-3
-4.40470E-3	-167.469E-12	632.297E-3	-50.8654E-3	-173.548E-12	662.391E-3	-2.33301E-3
-4.40970E-3	-168.600E-12	637.669E-3	-51.0518E-3	-172.813E-12	651.195E-3	-602.478E-6
-4.41471E-3	-169.355E-12	637.085E-3	-39.0664E-3	-173.393E-12	612.327E-3	14.2399E-3
-4.41971E-3	-170.678E-12	640.590E-3	-13.3748E-3	-171.535E-12	613.522E-3	15.8799E-3
-4.42471E-3	-171.070E-12	629.191E-3	19.9825E-3	-170.712E-12	646.388E-3	-18.5911E-3
-4.42971E-3	-170.658E-12	620.913E-3	8.63765E-3	-171.302E-12	649.471E-3	-48.8244E-3
-4.43472E-3	-173.129E-12	632.929E-3	-10.3117E-3	-170.937E-12	656.023E-3	-42.7067E-3
-4.43972E-3	-172.726E-12	623.412E-3	-3.69489E-3	-170.590E-12	675.553E-3	-23.1854E-3
-4.44472E-3	-172.625E-12	603.060E-3	-21.6461E-3	-170.496E-12	677.774E-3	-11.2033E-3
-4.44972E-3	-171.846E-12	608.811E-3	-50.5629E-3	-172.399E-12	683.793E-3	-6.77835E-3
-4.45473E-3	-173.464E-12	625.597E-3	-42.1924E-3	-173.077E-12	680.634E-3	-23.6941E-3
-4.45973E-3	-172.852E-12	640.244E-3	-26.3456E-3	-172.237E-12	675.770E-3	-40.7547E-3
-4.46473E-3	-173.012E-12	667.695E-3	-26.2183E-3	-172.834E-12	688.188E-3	-35.4374E-3
-4.46973E-3	-173.840E-12	674.359E-3	-8.68638E-3	-175.774E-12	685.179E-3	-20.6011E-3
-4.47474E-3	-173.158E-12	642.748E-3	-6.98757E-3	-177.234E-12	678.172E-3	3.74743E-3
-4.47974E-3	-174.031E-12	634.907E-3	-46.1239E-3	-177.172E-12	677.061E-3	3.90215E-3
-4.48474E-3	-173.500E-12	664.374E-3	-53.9805E-3	-176.838E-12	668.607E-3	-26.0652E-3
-4.48974E-3	-172.441E-12	689.009E-3	-19.7045E-3	-178.538E-12	663.412E-3	-34.6544E-3
-4.49475E-3	-171.943E-12	697.796E-3	14.0899E-3	-178.537E-12	666.227E-3	-25.8616E-3
-4.49975E-3	-173.755E-12	685.276E-3	20.3732E-3	-178.998E-12	660.129E-3	-29.7260E-3
-4.50475E-3	-174.162E-12	648.618E-3	-8.32410E-3	-178.433E-12	640.734E-3	-7.44387E-3
-4.50975E-3	-174.051E-12	610.118E-3	-35.6758E-3	-177.997E-12	637.675E-3	18.4618E-3
-4.51476E-3	-174.813E-12	612.994E-3	-24.7859E-3	-177.633E-12	633.103E-3	-8.35223E-3
-4.51976E-3	-176.465E-12	648.848E-3	-2.17827E-3	-177.528E-12	625.218E-3	-26.1924E-3
-4.52476E-3	-176.580E-12	649.066E-3	-18.5621E-3	-177.704E-12	641.589E-3	2.59671E-3
-4.52976E-3	-177.880E-12	616.938E-3	-49.8283E-3	-176.892E-12	656.898E-3	18.0855E-3
-4.53477E-3	-177.906E-12	616.398E-3	-61.6752E-3	-176.814E-12	660.712E-3	-4.56762E-3
-4.53977E-3	-178.241E-12	651.866E-3	-47.3110E-3	-176.048E-12	662.438E-3	-23.9580E-3
-4.54477E-3	-179.260E-12	670.572E-3	-13.3688E-3	-176.868E-12	658.042E-3	-28.8269E-3
-4.54977E-3	-181.186E-12	639.848E-3	2.72358E-3	-176.274E-12	630.278E-3	-17.7300E-3
-4.55478E-3	-181.365E-12	628.334E-3	-18.5138E-3	-176.488E-12	608.739E-3	7.15803E-3
-4.55978E-3	-180.910E-12	657.644E-3	-55.9369E-3	-177.795E-12	654.981E-3	1.29382E-3
-4.56478E-3	-180.744E-12	663.246E-3	-72.1733E-3	-179.052E-12	685.048E-3	-11.3935E-3
-4.56978E-3	-180.215E-12	669.737E-3	-52.1192E-3	-179.568E-12	650.681E-3	2.53690E-3
-4.57479E-3	-181.467E-12	691.272E-3	-33.5871E-3	-178.465E-12	636.177E-3	3.06808E-3
-4.57979E-3	-180.120E-12	678.409E-3	-32.1194E-3	-180.516E-12	643.446E-3	-26.4318E-3
-4.58479E-3	-178.295E-12	663.481E-3	-47.3880E-3	-180.251E-12	653.903E-3	-12.8413E-3
-4.58979E-3	-177.852E-12	667.769E-3	-56.1118E-3	-182.685E-12	677.939E-3	25.5970E-3
-4.59480E-3	-179.989E-12	646.936E-3	-38.4203E-3	-181.146E-12	677.379E-3	-6.35445E-3
-4.59980E-3	-180.250E-12	635.514E-3	-18.7850E-3	-183.890E-12	653.838E-3	-48.4596E-3
-4.60480E-3	-178.344E-12	648.045E-3	1.43126E-3	-182.404E-12	664.237E-3	-35.6272E-3
-4.60980E-3	-178.927E-12	635.597E-3	-1.56759E-3	-182.218E-12	654.400E-3	-24.3885E-3
-4.61481E-3	-180.313E-12	622.784E-3	-19.3020E-3	-181.844E-12	600.088E-3	-4.53482E-3
-4.61981E-3	-182.135E-12	635.213E-3	1.60984E-3	-181.424E-12	601.695E-3	43.8747E-3
-4.62481E-3	-179.856E-12	643.389E-3	13.8816E-3	-180.670E-12	651.742E-3	36.7205E-3
-4.62981E-3	-181.635E-12	652.689E-3	-20.9458E-3	-179.261E-12	670.865E-3	-7.21589E-3
-4.63482E-3	-182.992E-12	670.546E-3	-48.9912E-3	-179.640E-12	668.091E-3	-8.26803E-3
-4.63982E-3	-183.988E-12	670.591E-3	-38.4543E-3	-178.588E-12	652.424E-3	-22.0158E-3
-4.64482E-3	-183.511E-12	660.451E-3	-8.16085E-3	-178.126E-12	621.980E-3	-42.2704E-3
-4.64982E-3	-183.156E-12	646.577E-3	11.6648E-3	-176.410E-12	625.962E-3	4.78879E-3
-4.65483E-3	-183.937E-12	628.009E-3	-693.387E-6	-179.088E-12	637.722E-3	23.9987E-3
-4.65983E-3	-185.814E-12	612.604E-3	-23.6487E-3	-178.401E-12	601.682E-3	-11.0971E-3
-4.66483E-3	-184.532E-12	626.210E-3	-27.1480E-3	-178.187E-12	576.632E-3	-2.37422E-3
-4.66983E-3	-182.850E-12	650.455E-3	-25.9045E-3	-178.988E-12	599.871E-3	24.7347E-3
-4.67484E-3	-182.774E-12	663.702E-3	-33.9294E-3	-181.059E-12	622.804E-3	5.74997E-3
-4.67984E-3	-185.371E-12	678.266E-3	-43.3942E-3	-181.770E-12	632.603E-3	-17.8275E-3
-4.68484E-3	-185.545E-12	679.992E-3	-49.4297E-3	-182.779E-12	642.604E-3	-20.5543E-3
-4.68984E-3	-183.278E-12	666.911E-3	-51.0864E-3	-184.016E-12	625.762E-3	-32.2862E-3
-4.69485E-3	-181.589E-12	658.743E-3	-42.4434E-3	-184.458E-12	602.095E-3	-25.8037E-3
-4.69985E-3	-182.726E-12	675.606E-3	-14.3251E-3	-184.365E-12	618.612E-3	-897.470E-6
-4.70485E-3	-182.972E-12	689.255E-3	2.73040E-3	-185.391E-12	645.541E-3	-25.9868E-3
-4.70985E-3	-182.409E-12	684.602E-3	-15.5213E-3	-184.998E-12	651.221E-3	-61.1354E-3
-4.71486E-3	-180.312E-12	656.576E-3	-20.5513E-3	-185.109E-12	639.261E-3	-46.4444E-3
-4.71986E-3	-181.120E-12	625.218E-3	-5.11620E-3	-184.765E-12	625.753E-3	-24.0296E-3
-4.72486E-3	-182.114E-12	644.467E-3	-3.06445E-3	-185.055E-12	622.694E-3	-16.2842E-3
-4.72986E-3	-184.230E-12	666.085E-3	-3.61105E-3	-183.879E-12	638.271E-3	-19.9359E-3
-4.73487E-3	-183.066E-12	649.159E-3	-6.01989E-3	-183.577E-12	656.070E-3	-34.4137E-3
-4.73987E-3	-182.946E-12	634.239E-3	-21.1682E-3	-184.834E-12	639.321E-3	-40.2001E-3
-4.74487E-3	-184.432E-12	627.735E-3	-26.5120E-3	-184.805E-12	622.134E-3	-25.7905E-3
-4.74988E-3	-186.436E-12	613.167E-3	-13.3111E-3	-184.694E-12	630.473E-3	-32.3892E-3
-4.75488E-3	-185.601E-12	619.917E-3	-12.9844E-3	-184.276E-12	652.337E-3	-48.1210E-3
-4.75988E-3	-186.517E-12	650.627E-3	-32.5598E-3	-185.593E-12	685.428E-3	-35.0958E-3
-4.76488E-3	-187.366E-12	662.565E-3	-49.8071E-3	-186.192E-12	708.501E-3	-7.98537E-3
-4.76988E-3	-188.710E-12	662.513E-3	-60.3706E-3	-186.906E-12	714.460E-3	13.6776E-3
-4.77489E-3	-188.093E-12	668.427E-3	-35.9989E-3	-189.613E-12	705.720E-3	10.4479E-3
-4.77989E-3	-188.505E-12	660.963E-3	12.0496E-3	-187.482E-12	677.520E-3	-9.16178E-3
-4.78489E-3	-188.770E-12	641.787E-3	18.7856E-3	-189.735E-12	649.723E-3	-25.7034E-3
-4.78989E-3	-188.703E-12	658.847E-3	4.20472E-3	-190.462E-12	655.187E-3	-41.6166E-3
-4.79490E-3	-188.223E-12	704.604E-3	-8.83084E-3	-192.380E-12	681.368E-3	-45.5389E-3
-4.79990E-3	-188.532E-12	714.426E-3	-21.7758E-3	-190.674E-12	694.140E-3	-29.7738E-3
-4.80490E-3	-187.833E-12	701.393E-3	-6.95572E-3	-192.602E-12	692.392E-3	-21.6792E-3
-4.80990E-3	-185.893E-12	687.416E-3	6.76257E-3	-192.752E-12	694.869E-3	-6.91042E-3
-4.81491E-3	-188.093E-12	646.134E-3	-12.3974E-3	-193.113E-12	681.812E-3	11.0530E-3
-4.81991E-3	-188.342E-12	622.182E-3	-28.2218E-3	-192.494E-12	676.924E-3	-3.99295E-3
-4.82491E-3	-188.458E-12	650.149E-3	-20.5347E-3	-191.976E-12	687.063E-3	-20.8544E-3
-4.82991E-3	-188.442E-12	668.372E-3	-16.8484E-3	-193.332E-12	679.299E-3	-29.7572E-3
-4.83492E-3	-190.861E-12	671.052E-3	-34.7024E-3	-192.177E-12	679.955E-3	-41.5237E-3
-4.83992E-3	-190.113E-12	674.858E-3	-39.1048E-3	-191.919E-12	653.632E-3	-17.7540E-3
-4.84492E-3	-193.261E-12	670.115E-3	-22.2435E-3	-190.482E-12	600.538E-3	12.8767E-3
-4.84992E-3	-192.331E-12	668.279E-3	-9.37567E-3	-191.182E-12	595.569E-3	2.64620E-3
-4.85493E-3	-193.840E-12	665.786E-3	10.2651E-3	-190.613E-12	617.720E-3	-20.1035E-3
-4.85993E-3	-194.578E-12	671.344E-3	12.4796E-3	-189.230E-12	647.825E-3	-20.6211E-3
-4.86493E-3	-196.146E-12	695.758E-3	-15.1806E-3	-189.465E-12	667.241E-3	-9.68137E-3
-4.86993E-3	-197.253E-12	700.803E-3	-3.23544E-3	-192.709E-12	655.787E-3	-23.6218E-3
-4.87494E-3	-196.047E-12	680.105E-3	20.0981E-3	-191.862E-12	650.874E-3	-23.2104E-3
-4.87994E-3	-196.776E-12	674.560E-3	-15.0692E-3	-190.970E-12	649.661E-3	3.42057E-3
-4.88494E-3	-195.752E-12	675.636E-3	-32.9309E-3	-191.700E-12	670.914E-3	-1.34978E-3
-4.88995E-3	-196.146E-12	641.504E-3	-5.63778E-3	-192.995E-12	696.133E-3	-17.6551E-3
-4.89495E-3	-194.951E-12	616.927E-3	5.87577E-3	-195.139E-12	671.153E-3	-16.7567E-3
-4.89995E-3	-193.786E-12	625.841E-3	6.72774E-3	-193.748E-12	654.247E-3	-33.3102E-3
-4.90495E-3	-192.879E-12	634.461E-3	7.29557E-3	-193.046E-12	650.576E-3	-62.0616E-3
-4.90995E-3	-193.328E-12	654.585E-3	-19.2352E-3	-194.562E-12	634.271E-3	-53.4264E-3
-4.91496E-3	-193.382E-12	650.441E-3	-55.2393E-3	-196.547E-12	633.773E-3	-23.0163E-3
-4.91996E-3	-191.513E-12	612.872E-3	-50.0219E-3	-195.106E-12	637.163E-3	-11.5738E-3
-4.92496E-3	-192.010E-12	603.248E-3	-39.0269E-3	-193.753E-12	626.152E-3	-5.42066E-3
-4.92996E-3	-191.396E-12	624.322E-3	-40.9475E-3	-194.182E-12	615.513E-3	-12.0281E-3
-4.93497E-3	-192.955E-12	640.882E-3	-33.4319E-3	-194.233E-12	611.262E-3	-25.4291E-3
-4.93997E-3	-193.010E-12	632.191E-3	-49.3142E-3	-194.136E-12	613.649E-3	-3.40340E-3
-4.94497E-3	-193.684E-12	613.023E-3	-58.9229E-3	-192.529E-12	615.301E-3	22.4381E-3
-4.94997E-3	-194.599E-12	632.119E-3	-29.6264E-3	-192.382E-12	600.687E-3	10.1793E-3
-4.95498E-3	-195.508E-12	676.638E-3	-15.9452E-3	-190.625E-12	596.429E-3	5.25331E-3
-4.95998E-3	-197.323E-12	697.771E-3	-14.1633E-3	-192.703E-12	594.988E-3	16.6717E-3
-4.96498E-3	-197.663E-12	697.019E-3	-2.10781E-3	-192.056E-12	586.775E-3	2.43702E-3
-4.96998E-3	-197.081E-12	693.586E-3	-22.7022E-3	-189.297E-12	612.509E-3	-5.63172E-3
-4.97499E-3	-196.344E-12	668.641E-3	-35.9678E-3	-190.449E-12	653.670E-3	1.83582E-3
-4.97999E-3	-198.671E-12	629.609E-3	-6.68747E-3	-192.379E-12	652.258E-3	-28.6325E-3
-4.98499E-3	-196.067E-12	612.763E-3	-12.3185E-3	-191.875E-12	631.935E-3	-58.9232E-3
-4.98999E-3	-195.285E-12	618.636E-3	-47.0707E-3	-192.847E-12	659.418E-3	-46.9066E-3
-4.99500E-3	-195.177E-12	651.795E-3	-50.3907E-3	-192.690E-12	682.430E-3	-29.3612E-3
-5.00000E-3	-196.000E-12	670.644E-3	-35.7033E-3	-193.970E-12	670.025E-3	-26.2953E-3
