Experiment	bias spectroscopy	
Date	19.01.2016 22:27:41	
User		
X (m)	49.8673E-9	
Y (m)	257.723E-9	
Z (m)	-132.598E-9	
Z offset (m)	0E+0	
Settling time (s)	200E-6	
Integration time (s)	5E-3	
Z-Ctrl hold	TRUE	
Final Z (m)	N/A	
Filter type	None	
Order		
Cutoff frq		
Comment01	MnPc/Pb(111)	
Comment02	dz =00pm	
Comment03	7 Sweeps	
Comment04	MagField =0.T	
Comment05	Divider 1:10	
Comment06	Setpoint:5mV,200 pA	
Comment07	Lockin: 50uVrms,5ms,5mV	
Comment08	Gain:9; 912Hz modulation	
Comment09	T=1.06K	
Bias>Bias (V)	5E-3	
Bias>Calibration (V/V)	81.475E-3	
Bias>Offset (V)	1.046E-3	
Bias Spectroscopy>Sweep Start (V)	5E-3	
Bias Spectroscopy>Sweep End (V)	-5E-3	
Bias Spectroscopy>Num Pixel	2000	
Bias Spectroscopy>Z Avg time (s)	500E-3	
Bias Spectroscopy>Z offset (m)	0E+0	
Bias Spectroscopy>1st Settling time (s)	500E-3	
Bias Spectroscopy>Settling time (s)	200E-6	
Bias Spectroscopy>Integration time (s)	5E-3	
Bias Spectroscopy>End Settling time (s)	500E-3	
Bias Spectroscopy>Z control time (s)	500E-3	
Bias Spectroscopy>Max Slew rate (V/s)	Inf	
Bias Spectroscopy>backward sweep	TRUE	
Bias Spectroscopy>Z-controller hold	TRUE	
Bias Spectroscopy>Number of sweeps	7	
Bias Spectroscopy>Channels	Current (A);X% LockIn (V);Y% LockIn (V)	
Bias Spectroscopy>Reset Bias	TRUE	
Bias Spectroscopy>Record final Z	FALSE	
Bias Spectroscopy>Lock-In run	FALSE	
Bias Spectroscopy>Sweep mode	Linear	
Bias Spectroscopy>MultiLine Settings : Segment Start (V), Segment End (V), Settling (s), Integration (s), Steps (xn)	100E-3,3.3E-3,100E-6,10E-3,2500;3.3E-3,-3.3E-3,100E-6,10E-3,10;-3.3E-3,-100E-3,100E-6,10E-3,2500	
Current>Current (A)	200.18E-12	
Current>Calibration (A/V)	999.99900E-12	
Current>Offset (A)	-455.429E-15	
Current>Gain	LN 10^9	
Z-Controller>Z (m)	-132.596E-9	
Z-Controller>Controller name	log Current	
Z-Controller>Controller status	ON	
Z-Controller>Setpoint	200E-12	
Z-Controller>Setpoint unit	A	
Z-Controller>P gain	2.96994E-12	
Z-Controller>I gain	67.0321E-9	
Z-Controller>Time const (s)	44.3062E-6	
Z-Controller>TipLift (m)	0E+0	
Z-Controller>Switch off delay (s)	50E-3	
Current (A)	200.523E-12	
Z (m)	-132.596E-9	

[DATA]
Bias calc (V)	Current (A)	X% LockIn (V)	Y% LockIn (V)	Current [bwd] (A)	X% LockIn [bwd] (V)	Y% LockIn [bwd] (V)
5.00000E-3	196.692E-12	683.356E-3	7.97395E-3	198.763E-12	661.190E-3	-69.3787E-3
4.99500E-3	196.108E-12	679.338E-3	-268.300E-6	198.372E-12	661.763E-3	-63.3185E-3
4.98999E-3	196.079E-12	662.841E-3	-9.55763E-3	198.704E-12	639.920E-3	-42.9798E-3
4.98499E-3	195.780E-12	662.824E-3	-17.5822E-3	198.998E-12	628.721E-3	-37.9523E-3
4.97999E-3	196.037E-12	648.263E-3	-16.5189E-3	197.912E-12	624.396E-3	-47.8401E-3
4.97499E-3	196.119E-12	631.798E-3	-20.2867E-3	197.617E-12	645.223E-3	-55.1864E-3
4.96998E-3	196.497E-12	648.932E-3	-24.3510E-3	198.091E-12	667.722E-3	-46.8098E-3
4.96498E-3	196.492E-12	674.505E-3	-30.9573E-3	197.848E-12	656.566E-3	-24.0938E-3
4.95998E-3	196.629E-12	675.746E-3	-32.4782E-3	197.524E-12	634.513E-3	-6.45287E-3
4.95498E-3	197.109E-12	661.666E-3	-27.3005E-3	196.975E-12	637.951E-3	1.57248E-3
4.94997E-3	197.039E-12	642.861E-3	-28.2317E-3	196.944E-12	658.313E-3	-2.44950E-3
4.94497E-3	197.150E-12	635.763E-3	-45.4964E-3	197.015E-12	661.620E-3	-15.9439E-3
4.93997E-3	197.431E-12	623.087E-3	-54.7263E-3	197.549E-12	661.445E-3	-29.8134E-3
4.93497E-3	196.478E-12	620.276E-3	-14.0973E-3	196.501E-12	663.131E-3	-31.4972E-3
4.92996E-3	197.076E-12	653.526E-3	28.7568E-3	197.077E-12	640.600E-3	-18.7772E-3
4.92496E-3	197.441E-12	658.636E-3	14.9085E-3	197.545E-12	641.695E-3	9.41663E-3
4.91996E-3	196.432E-12	612.739E-3	-28.2662E-3	197.029E-12	667.746E-3	52.2642E-3
4.91496E-3	196.620E-12	590.197E-3	-34.0318E-3	196.935E-12	655.427E-3	72.9555E-3
4.90995E-3	196.531E-12	612.675E-3	2.10927E-3	196.936E-12	632.141E-3	34.3794E-3
4.90495E-3	196.336E-12	626.472E-3	16.4180E-3	196.982E-12	637.567E-3	-15.3382E-3
4.89995E-3	196.093E-12	631.135E-3	-21.0981E-3	197.056E-12	645.587E-3	-29.6440E-3
4.89495E-3	195.910E-12	644.866E-3	-45.9370E-3	197.236E-12	642.860E-3	-26.6796E-3
4.88995E-3	194.907E-12	662.946E-3	-26.0017E-3	196.853E-12	639.639E-3	-8.58799E-3
4.88494E-3	193.845E-12	671.471E-3	-11.0590E-3	196.662E-12	632.940E-3	2.67674E-3
4.87994E-3	193.928E-12	662.848E-3	-11.4311E-3	197.293E-12	632.602E-3	-24.3565E-3
4.87494E-3	193.111E-12	646.666E-3	-17.3924E-3	196.952E-12	642.625E-3	-45.1992E-3
4.86993E-3	193.604E-12	642.011E-3	-10.6867E-3	195.392E-12	641.213E-3	-22.4778E-3
4.86493E-3	193.214E-12	671.304E-3	4.11851E-3	194.779E-12	642.372E-3	-2.77306E-3
4.85993E-3	193.777E-12	702.263E-3	-7.90519E-3	194.098E-12	663.784E-3	-1.86947E-3
4.85493E-3	193.818E-12	694.670E-3	-33.6733E-3	193.616E-12	662.336E-3	-9.06109E-3
4.84992E-3	194.467E-12	675.930E-3	-57.7613E-3	191.800E-12	639.388E-3	-27.8367E-3
4.84492E-3	194.063E-12	654.567E-3	-59.7896E-3	190.695E-12	630.549E-3	-39.5245E-3
4.83992E-3	193.790E-12	632.364E-3	-23.0462E-3	189.358E-12	632.289E-3	-13.1542E-3
4.83492E-3	194.091E-12	636.033E-3	-2.18784E-3	188.218E-12	634.804E-3	15.7023E-3
4.82991E-3	192.977E-12	651.074E-3	-7.03850E-3	187.232E-12	635.937E-3	1.80632E-3
4.82491E-3	192.336E-12	654.447E-3	-26.4972E-3	186.922E-12	649.874E-3	-19.6813E-3
4.81991E-3	191.773E-12	641.120E-3	-51.5389E-3	186.161E-12	669.239E-3	-17.7619E-3
4.81491E-3	191.575E-12	633.237E-3	-43.4305E-3	185.920E-12	668.827E-3	-14.4204E-3
4.80990E-3	190.161E-12	656.782E-3	-7.51743E-3	185.918E-12	641.070E-3	-21.2440E-3
4.80490E-3	189.225E-12	691.007E-3	3.60965E-3	186.840E-12	622.695E-3	-24.4965E-3
4.79990E-3	188.270E-12	685.182E-3	-24.9237E-3	186.875E-12	630.843E-3	-16.2922E-3
4.79490E-3	187.843E-12	653.494E-3	-39.7181E-3	187.791E-12	637.031E-3	-525.504E-6
4.78989E-3	186.804E-12	642.289E-3	-43.0142E-3	188.573E-12	652.262E-3	5.88067E-3
4.78489E-3	186.232E-12	659.591E-3	-52.6774E-3	188.825E-12	679.165E-3	-1.02941E-3
4.77989E-3	185.203E-12	669.675E-3	-45.1957E-3	189.408E-12	686.284E-3	-6.09812E-3
4.77489E-3	185.374E-12	649.413E-3	-27.2224E-3	190.040E-12	674.254E-3	-5.22513E-3
4.76988E-3	185.392E-12	624.908E-3	-20.8066E-3	190.021E-12	655.742E-3	-11.2976E-3
4.76488E-3	185.916E-12	617.079E-3	-18.7046E-3	190.215E-12	649.827E-3	-25.2911E-3
4.75988E-3	186.355E-12	629.177E-3	-17.6747E-3	189.563E-12	650.422E-3	-39.0010E-3
4.75488E-3	187.470E-12	643.743E-3	-14.0229E-3	189.395E-12	652.687E-3	-52.9028E-3
4.74988E-3	187.762E-12	648.218E-3	-10.4061E-3	188.928E-12	669.320E-3	-44.7752E-3
4.74487E-3	188.765E-12	644.843E-3	-27.3467E-3	188.343E-12	675.322E-3	-11.9468E-3
4.73987E-3	189.312E-12	652.714E-3	-43.0950E-3	187.157E-12	664.969E-3	-5.22905E-3
4.73487E-3	189.266E-12	656.604E-3	-39.2323E-3	186.517E-12	646.519E-3	-21.5625E-3
4.72986E-3	189.237E-12	644.568E-3	-43.0930E-3	185.726E-12	641.947E-3	-23.7431E-3
4.72486E-3	189.529E-12	644.203E-3	-63.7271E-3	185.523E-12	663.272E-3	-5.54769E-3
4.71986E-3	188.912E-12	644.405E-3	-58.8255E-3	185.652E-12	677.486E-3	14.7673E-3
4.71486E-3	188.644E-12	642.764E-3	-33.7800E-3	185.737E-12	682.791E-3	14.8808E-3
4.70985E-3	187.757E-12	643.192E-3	-29.8410E-3	186.008E-12	693.551E-3	-7.30248E-3
4.70485E-3	187.572E-12	645.167E-3	-31.9616E-3	186.829E-12	705.889E-3	-30.2955E-3
4.69985E-3	185.933E-12	638.548E-3	-36.6533E-3	188.002E-12	694.474E-3	-43.3941E-3
4.69485E-3	185.215E-12	620.939E-3	-31.4384E-3	188.304E-12	659.567E-3	-31.4606E-3
4.68984E-3	184.366E-12	634.322E-3	-16.0484E-3	188.891E-12	639.938E-3	-6.00562E-3
4.68484E-3	184.341E-12	649.384E-3	-22.5596E-3	189.110E-12	640.751E-3	-11.7881E-3
4.67984E-3	183.547E-12	644.164E-3	-23.8807E-3	189.479E-12	643.877E-3	-19.0011E-3
4.67484E-3	184.472E-12	672.536E-3	-10.3567E-3	189.614E-12	661.802E-3	-5.73510E-3
4.66983E-3	183.881E-12	689.445E-3	-8.92310E-3	188.728E-12	684.126E-3	-642.700E-6
4.66483E-3	184.238E-12	657.761E-3	-17.4663E-3	188.056E-12	671.833E-3	-8.81601E-3
4.65983E-3	185.043E-12	631.355E-3	-17.8534E-3	187.702E-12	660.830E-3	-8.17332E-3
4.65483E-3	185.218E-12	635.833E-3	-5.70446E-3	186.715E-12	647.287E-3	-5.87710E-3
4.64982E-3	185.208E-12	660.556E-3	3.47645E-3	184.373E-12	614.121E-3	-25.1475E-3
4.64482E-3	185.349E-12	671.347E-3	5.04219E-3	183.969E-12	617.884E-3	-45.8943E-3
4.63982E-3	185.546E-12	657.597E-3	-5.37884E-3	183.257E-12	640.738E-3	-43.1010E-3
4.63482E-3	185.031E-12	647.622E-3	-20.5418E-3	182.157E-12	652.600E-3	-30.8571E-3
4.62981E-3	184.977E-12	659.084E-3	-28.8963E-3	181.220E-12	668.421E-3	-39.5468E-3
4.62481E-3	184.310E-12	677.862E-3	-23.8738E-3	181.145E-12	660.409E-3	-56.9443E-3
4.61981E-3	183.925E-12	691.470E-3	-7.61453E-3	180.425E-12	635.508E-3	-54.0152E-3
4.61481E-3	183.111E-12	679.118E-3	-533.997E-6	180.198E-12	640.756E-3	-32.3391E-3
4.60980E-3	181.715E-12	662.516E-3	-1.25816E-3	180.309E-12	664.970E-3	-38.1123E-3
4.60480E-3	181.315E-12	675.377E-3	-11.9849E-3	180.100E-12	683.208E-3	-45.6553E-3
4.59980E-3	180.819E-12	670.840E-3	-30.4940E-3	180.596E-12	694.237E-3	-14.7615E-3
4.59480E-3	179.513E-12	657.260E-3	-53.8148E-3	180.467E-12	685.740E-3	-5.20557E-3
4.58979E-3	178.958E-12	662.276E-3	-53.6655E-3	181.193E-12	669.313E-3	-14.6750E-3
4.58479E-3	179.317E-12	654.626E-3	-33.1457E-3	181.153E-12	658.203E-3	-7.81189E-3
4.57979E-3	178.800E-12	636.912E-3	-28.1238E-3	181.164E-12	644.098E-3	-2.61845E-3
4.57479E-3	178.895E-12	637.453E-3	-32.8291E-3	181.132E-12	636.699E-3	1.31506E-3
4.56978E-3	179.566E-12	644.669E-3	-23.3818E-3	180.940E-12	646.379E-3	3.66362E-3
4.56478E-3	178.851E-12	637.370E-3	-12.1873E-3	180.404E-12	639.757E-3	-5.92109E-3
4.55978E-3	179.521E-12	632.372E-3	-24.0417E-3	179.932E-12	625.455E-3	-7.08425E-3
4.55478E-3	179.295E-12	653.573E-3	-31.5506E-3	179.590E-12	636.499E-3	-9.33518E-3
4.54977E-3	179.380E-12	671.838E-3	-14.9091E-3	178.682E-12	633.721E-3	-9.24334E-3
4.54477E-3	179.616E-12	657.050E-3	7.69563E-3	178.013E-12	622.602E-3	17.0183E-3
4.53977E-3	180.871E-12	630.137E-3	18.0508E-3	178.083E-12	622.688E-3	27.3725E-3
4.53477E-3	180.487E-12	621.542E-3	12.3739E-3	177.635E-12	610.485E-3	-7.81140E-3
4.52976E-3	180.139E-12	631.340E-3	-8.54023E-3	177.198E-12	596.208E-3	-49.2577E-3
4.52476E-3	180.512E-12	635.649E-3	-30.7297E-3	176.785E-12	610.675E-3	-59.0139E-3
4.51976E-3	180.196E-12	651.490E-3	-26.1361E-3	176.868E-12	635.422E-3	-59.1818E-3
4.51476E-3	179.318E-12	665.057E-3	-18.4168E-3	176.823E-12	639.632E-3	-61.1934E-3
4.50975E-3	179.087E-12	645.817E-3	-23.3233E-3	177.178E-12	642.337E-3	-46.5742E-3
4.50475E-3	178.542E-12	645.027E-3	-22.8733E-3	176.786E-12	656.373E-3	-17.3463E-3
4.49975E-3	177.321E-12	678.078E-3	-35.5568E-3	177.349E-12	658.762E-3	16.1449E-3
4.49475E-3	177.260E-12	683.847E-3	-38.8571E-3	177.516E-12	647.820E-3	17.7981E-3
4.48974E-3	176.949E-12	663.795E-3	-23.4058E-3	177.521E-12	644.500E-3	-24.0268E-3
4.48474E-3	176.977E-12	661.051E-3	-13.0781E-3	177.155E-12	648.519E-3	-51.5461E-3
4.47974E-3	176.373E-12	657.143E-3	-998.099E-6	177.308E-12	652.951E-3	-37.1111E-3
4.47474E-3	176.742E-12	643.925E-3	446.839E-6	177.120E-12	649.203E-3	-16.2930E-3
4.46973E-3	176.924E-12	635.682E-3	-14.3068E-3	176.789E-12	637.440E-3	-9.62732E-3
4.46473E-3	177.036E-12	642.903E-3	-15.0208E-3	176.896E-12	636.296E-3	-9.76042E-3
4.45973E-3	176.714E-12	653.183E-3	4.24958E-3	176.698E-12	646.126E-3	-4.96516E-3
4.45473E-3	176.631E-12	649.206E-3	18.5814E-3	176.778E-12	649.375E-3	-11.1318E-3
4.44972E-3	176.397E-12	652.153E-3	14.8844E-3	176.545E-12	652.948E-3	-35.7764E-3
4.44472E-3	176.495E-12	664.864E-3	4.91173E-3	176.532E-12	664.445E-3	-60.2381E-3
4.43972E-3	176.015E-12	659.588E-3	-7.61053E-3	176.352E-12	666.922E-3	-55.8154E-3
4.43472E-3	175.064E-12	647.016E-3	-16.3681E-3	175.566E-12	667.812E-3	-14.9116E-3
4.42971E-3	175.392E-12	660.817E-3	-13.6151E-3	174.873E-12	660.015E-3	7.66741E-3
4.42471E-3	174.742E-12	691.776E-3	-13.2019E-3	174.452E-12	645.232E-3	-7.28473E-3
4.41971E-3	174.244E-12	703.943E-3	-27.6735E-3	174.107E-12	646.994E-3	-16.0998E-3
4.41471E-3	173.910E-12	689.643E-3	-25.3171E-3	172.787E-12	653.674E-3	-2.66913E-3
4.40970E-3	173.745E-12	676.529E-3	-2.10309E-3	172.016E-12	643.711E-3	8.95162E-3
4.40470E-3	173.386E-12	676.484E-3	1.24679E-3	171.386E-12	626.154E-3	14.0156E-3
4.39970E-3	173.149E-12	684.623E-3	-15.0071E-3	171.475E-12	636.200E-3	-4.20452E-3
4.39470E-3	172.428E-12	675.727E-3	-42.4051E-3	170.642E-12	662.347E-3	-24.3579E-3
4.38969E-3	171.569E-12	665.478E-3	-52.4233E-3	171.016E-12	662.045E-3	-4.98813E-3
4.38469E-3	170.786E-12	681.926E-3	-37.0949E-3	169.985E-12	657.599E-3	6.41657E-3
4.37969E-3	170.527E-12	689.917E-3	-20.0135E-3	170.284E-12	659.941E-3	-11.8601E-3
4.37469E-3	169.442E-12	676.739E-3	-15.2266E-3	170.493E-12	646.228E-3	-31.5651E-3
4.36968E-3	169.083E-12	674.652E-3	-11.2209E-3	170.670E-12	643.467E-3	-40.0873E-3
4.36468E-3	169.297E-12	673.928E-3	-792.236E-6	170.175E-12	675.786E-3	-36.7571E-3
4.35968E-3	168.988E-12	653.137E-3	6.02656E-3	170.772E-12	691.637E-3	-12.5789E-3
4.35468E-3	168.178E-12	638.272E-3	2.62744E-3	171.333E-12	669.396E-3	10.0633E-3
4.34967E-3	168.945E-12	636.032E-3	-3.33245E-3	170.883E-12	659.843E-3	8.90248E-3
4.34467E-3	168.825E-12	632.236E-3	-10.5872E-3	170.966E-12	661.358E-3	9.89384E-3
4.33967E-3	168.582E-12	620.735E-3	-13.4064E-3	170.742E-12	659.982E-3	12.1024E-3
4.33467E-3	168.907E-12	610.552E-3	-11.8467E-3	170.398E-12	667.757E-3	5.59243E-3
4.32966E-3	169.729E-12	610.313E-3	-15.3364E-3	169.960E-12	693.242E-3	-839.329E-6
4.32466E-3	169.331E-12	627.770E-3	-9.48086E-3	169.564E-12	714.932E-3	-12.6196E-3
4.31966E-3	169.671E-12	643.422E-3	-7.76927E-3	169.154E-12	706.106E-3	-26.9538E-3
4.31466E-3	169.754E-12	638.629E-3	-14.8780E-3	169.038E-12	684.316E-3	-16.6028E-3
4.30965E-3	170.033E-12	639.832E-3	-24.4689E-3	168.567E-12	658.882E-3	2.08553E-3
4.30465E-3	170.162E-12	653.099E-3	-47.3514E-3	167.996E-12	645.605E-3	-7.30203E-3
4.29965E-3	169.378E-12	674.820E-3	-71.3296E-3	167.687E-12	648.872E-3	-41.5878E-3
4.29465E-3	168.912E-12	691.837E-3	-71.1638E-3	167.524E-12	658.496E-3	-53.3945E-3
4.28964E-3	169.609E-12	683.880E-3	-49.8899E-3	167.064E-12	659.809E-3	-28.0458E-3
4.28464E-3	168.993E-12	663.253E-3	-31.1989E-3	167.073E-12	638.094E-3	-2.67597E-3
4.27964E-3	167.255E-12	658.322E-3	-20.5608E-3	167.652E-12	624.884E-3	4.37049E-3
4.27464E-3	167.163E-12	652.504E-3	-314.427E-6	167.693E-12	644.194E-3	-18.2480E-3
4.26963E-3	166.557E-12	638.956E-3	4.44575E-3	168.191E-12	669.367E-3	-45.3923E-3
4.26463E-3	165.684E-12	643.183E-3	-13.9183E-3	168.528E-12	673.754E-3	-42.2596E-3
4.25963E-3	165.001E-12	640.174E-3	-18.9383E-3	168.353E-12	678.103E-3	-16.4510E-3
4.25463E-3	165.568E-12	627.873E-3	-5.65831E-3	168.024E-12	679.077E-3	2.23421E-3
4.24962E-3	164.750E-12	637.997E-3	10.4324E-3	167.782E-12	672.901E-3	-959.822E-6
4.24462E-3	164.953E-12	654.106E-3	19.0574E-3	167.892E-12	678.106E-3	-11.3501E-3
4.23962E-3	165.684E-12	650.000E-3	24.4783E-3	167.199E-12	672.876E-3	-24.0007E-3
4.23462E-3	166.349E-12	645.589E-3	6.81299E-3	166.226E-12	655.560E-3	-39.5621E-3
4.22961E-3	165.710E-12	654.307E-3	-22.7033E-3	166.169E-12	655.306E-3	-33.7489E-3
4.22461E-3	166.391E-12	663.992E-3	-21.4941E-3	165.445E-12	651.473E-3	-10.4689E-3
4.21961E-3	167.158E-12	667.701E-3	-7.53379E-3	164.477E-12	647.215E-3	11.7974E-3
4.21461E-3	166.762E-12	654.238E-3	-6.59297E-3	163.353E-12	659.846E-3	19.8292E-3
4.20960E-3	166.390E-12	640.968E-3	-2.21067E-3	163.350E-12	655.644E-3	4.93870E-3
4.20460E-3	166.248E-12	657.931E-3	3.03568E-3	162.933E-12	638.145E-3	-2.26252E-3
4.19960E-3	165.758E-12	675.622E-3	-5.47450E-3	162.278E-12	641.530E-3	-4.42916E-3
4.19460E-3	164.683E-12	671.818E-3	-23.3477E-3	162.206E-12	657.214E-3	-23.4718E-3
4.18959E-3	164.271E-12	669.892E-3	-40.3661E-3	162.189E-12	657.365E-3	-37.5208E-3
4.18459E-3	163.709E-12	686.356E-3	-27.4521E-3	161.746E-12	644.137E-3	-32.7306E-3
4.17959E-3	162.820E-12	676.465E-3	-5.89947E-3	161.867E-12	632.871E-3	-16.1320E-3
4.17459E-3	161.882E-12	635.251E-3	-14.3785E-3	162.218E-12	628.854E-3	-663.173E-6
4.16958E-3	161.577E-12	631.791E-3	-25.8314E-3	162.263E-12	641.589E-3	-2.94214E-3
4.16458E-3	161.066E-12	649.131E-3	-9.34072E-3	162.484E-12	649.542E-3	-7.28158E-3
4.15958E-3	160.442E-12	645.263E-3	-3.26052E-3	162.384E-12	647.860E-3	15.4027E-3
4.15458E-3	160.843E-12	628.406E-3	-22.3694E-3	162.150E-12	652.775E-3	39.7327E-3
4.14957E-3	161.343E-12	617.212E-3	-36.6111E-3	162.435E-12	646.333E-3	24.7702E-3
4.14457E-3	160.841E-12	632.050E-3	-45.3029E-3	161.842E-12	641.496E-3	-8.89755E-3
4.13957E-3	161.459E-12	661.744E-3	-40.1471E-3	162.021E-12	658.167E-3	-14.7314E-3
4.13457E-3	162.689E-12	654.969E-3	-18.4335E-3	162.016E-12	656.221E-3	2.94114E-3
4.12956E-3	162.814E-12	629.246E-3	-9.18142E-3	161.738E-12	625.976E-3	21.9554E-3
4.12456E-3	163.098E-12	631.373E-3	-5.94022E-3	160.801E-12	619.777E-3	39.8591E-3
4.11956E-3	163.487E-12	637.245E-3	10.0114E-3	160.778E-12	644.440E-3	29.1010E-3
4.11456E-3	163.654E-12	646.483E-3	2.40261E-3	160.123E-12	661.268E-3	-5.15969E-3
4.10955E-3	163.309E-12	657.187E-3	-10.2482E-3	159.480E-12	665.183E-3	-19.4346E-3
4.10455E-3	162.662E-12	654.825E-3	-2.90330E-3	159.092E-12	662.405E-3	-20.5077E-3
4.09955E-3	162.698E-12	642.919E-3	-426.392E-6	159.347E-12	644.391E-3	-19.3632E-3
4.09455E-3	161.389E-12	628.456E-3	-4.40554E-3	159.164E-12	635.545E-3	-31.7904E-3
4.08954E-3	160.420E-12	621.605E-3	-10.1482E-3	159.135E-12	663.821E-3	-55.9381E-3
4.08454E-3	159.616E-12	614.648E-3	-1.81600E-3	159.647E-12	694.273E-3	-59.2026E-3
4.07954E-3	158.900E-12	615.997E-3	14.6415E-3	159.661E-12	691.654E-3	-43.4760E-3
4.07454E-3	158.194E-12	627.349E-3	10.8395E-3	159.265E-12	677.343E-3	-22.8556E-3
4.06953E-3	157.599E-12	633.897E-3	-5.50180E-3	159.859E-12	662.063E-3	-16.4047E-3
4.06453E-3	156.973E-12	636.391E-3	-16.5481E-3	159.426E-12	650.758E-3	-10.5450E-3
4.05953E-3	156.555E-12	619.959E-3	-21.5003E-3	159.198E-12	658.977E-3	-1.71818E-3
4.05453E-3	157.015E-12	586.368E-3	-15.1789E-3	159.520E-12	655.876E-3	-1.16473E-3
4.04952E-3	155.953E-12	594.499E-3	-10.3412E-3	159.287E-12	647.945E-3	-3.29954E-3
4.04452E-3	155.884E-12	638.944E-3	-10.8591E-3	158.950E-12	667.291E-3	-17.7747E-3
4.03952E-3	156.554E-12	654.616E-3	-9.19911E-3	158.478E-12	678.210E-3	-33.1455E-3
4.03452E-3	156.280E-12	642.640E-3	-14.6028E-3	158.439E-12	657.936E-3	-37.2820E-3
4.02951E-3	155.578E-12	630.385E-3	-22.6175E-3	157.942E-12	642.369E-3	-34.4795E-3
4.02451E-3	156.219E-12	636.066E-3	-34.0263E-3	157.347E-12	636.806E-3	-25.7053E-3
4.01951E-3	156.614E-12	657.214E-3	-38.6129E-3	157.229E-12	632.995E-3	-16.1638E-3
4.01451E-3	156.130E-12	648.351E-3	-31.6908E-3	156.549E-12	658.690E-3	-7.40579E-3
4.00950E-3	156.579E-12	624.887E-3	-32.2481E-3	156.460E-12	674.406E-3	-8.54066E-3
4.00450E-3	155.974E-12	645.147E-3	-32.0257E-3	155.462E-12	668.142E-3	-21.8422E-3
3.99950E-3	155.978E-12	659.444E-3	-664.133E-6	155.018E-12	671.984E-3	-22.0803E-3
3.99450E-3	155.347E-12	649.535E-3	24.0392E-3	154.453E-12	667.672E-3	-17.6496E-3
3.98949E-3	155.057E-12	648.283E-3	-3.09757E-3	154.787E-12	655.349E-3	-12.9295E-3
3.98449E-3	154.188E-12	647.282E-3	-37.3893E-3	153.989E-12	641.882E-3	1.80197E-3
3.97949E-3	154.374E-12	647.487E-3	-46.0180E-3	153.151E-12	634.736E-3	-3.64419E-3
3.97449E-3	153.948E-12	640.140E-3	-30.7401E-3	153.579E-12	623.953E-3	-19.6794E-3
3.96948E-3	153.227E-12	633.537E-3	-8.54436E-3	152.865E-12	617.110E-3	-19.8979E-3
3.96448E-3	153.312E-12	655.294E-3	478.018E-6	152.726E-12	626.547E-3	-10.3401E-3
3.95948E-3	152.482E-12	678.432E-3	-8.94447E-3	152.304E-12	634.087E-3	-4.89056E-3
3.95448E-3	152.297E-12	668.957E-3	-33.0832E-3	152.760E-12	632.488E-3	-2.14736E-3
3.94947E-3	151.988E-12	654.170E-3	-39.7674E-3	152.458E-12	639.435E-3	-8.92798E-3
3.94447E-3	151.776E-12	662.179E-3	-12.1847E-3	152.754E-12	650.408E-3	-19.9649E-3
3.93947E-3	151.351E-12	677.009E-3	10.2885E-3	152.685E-12	651.222E-3	-17.7643E-3
3.93447E-3	151.131E-12	667.193E-3	-6.93332E-3	152.529E-12	659.195E-3	-10.8541E-3
3.92946E-3	151.287E-12	643.734E-3	-27.9829E-3	152.202E-12	658.104E-3	-6.48891E-3
3.92446E-3	151.838E-12	638.378E-3	-19.9892E-3	151.896E-12	648.164E-3	-12.5115E-3
3.91946E-3	151.664E-12	669.185E-3	-12.9773E-3	152.022E-12	641.809E-3	-29.2907E-3
3.91446E-3	152.038E-12	697.005E-3	-12.4507E-3	151.876E-12	638.569E-3	-30.6951E-3
3.90945E-3	152.399E-12	684.738E-3	-9.85619E-3	150.905E-12	661.847E-3	-23.6384E-3
3.90445E-3	152.849E-12	646.088E-3	-18.8730E-3	151.040E-12	675.678E-3	-24.2672E-3
3.89945E-3	152.095E-12	616.108E-3	-28.7606E-3	151.569E-12	651.592E-3	-11.6424E-3
3.89445E-3	152.469E-12	621.659E-3	-23.4045E-3	150.252E-12	635.072E-3	10.6030E-3
3.88944E-3	152.320E-12	633.933E-3	-4.50480E-3	149.979E-12	657.218E-3	4.72913E-3
3.88444E-3	152.525E-12	655.162E-3	-1.79979E-3	150.153E-12	689.952E-3	-18.8321E-3
3.87944E-3	151.627E-12	676.957E-3	-10.2472E-3	149.962E-12	685.357E-3	-23.7396E-3
3.87444E-3	152.353E-12	677.423E-3	-8.16497E-3	149.528E-12	678.447E-3	-36.4276E-3
3.86943E-3	151.271E-12	678.884E-3	-5.66602E-3	150.029E-12	696.724E-3	-54.0795E-3
3.86443E-3	150.520E-12	684.481E-3	912.258E-6	149.775E-12	696.422E-3	-38.3306E-3
3.85943E-3	150.612E-12	687.719E-3	-5.36188E-3	149.894E-12	688.547E-3	-13.4179E-3
3.85443E-3	149.650E-12	679.983E-3	-24.5411E-3	150.491E-12	678.616E-3	-3.29326E-3
3.84942E-3	147.916E-12	655.025E-3	-36.7543E-3	150.662E-12	660.335E-3	-2.68266E-3
3.84442E-3	147.625E-12	634.070E-3	-34.5448E-3	150.095E-12	650.533E-3	-1.12901E-3
3.83942E-3	147.546E-12	631.860E-3	-25.9406E-3	150.206E-12	642.559E-3	3.75130E-3
3.83442E-3	146.870E-12	655.816E-3	-36.3477E-3	150.424E-12	645.854E-3	-176.217E-6
3.82941E-3	146.206E-12	678.222E-3	-36.2591E-3	149.960E-12	658.882E-3	-7.23623E-3
3.82441E-3	146.231E-12	663.462E-3	-29.2382E-3	149.949E-12	664.209E-3	-6.84643E-3
3.81941E-3	146.186E-12	643.431E-3	-28.7778E-3	150.051E-12	667.061E-3	-18.2272E-3
3.81441E-3	145.611E-12	638.764E-3	-6.72700E-3	148.825E-12	672.677E-3	-39.2777E-3
3.80940E-3	146.567E-12	637.941E-3	7.22626E-3	149.032E-12	679.391E-3	-41.6967E-3
3.80440E-3	146.699E-12	642.331E-3	-10.2597E-3	148.746E-12	679.111E-3	-34.5506E-3
3.79940E-3	146.382E-12	649.181E-3	-22.6541E-3	147.457E-12	669.475E-3	-28.8419E-3
3.79440E-3	147.136E-12	655.443E-3	-28.5223E-3	147.026E-12	662.092E-3	-13.5492E-3
3.78939E-3	148.066E-12	687.647E-3	-43.1844E-3	147.419E-12	659.395E-3	6.58432E-3
3.78439E-3	147.606E-12	720.220E-3	-36.0494E-3	145.908E-12	664.158E-3	8.61442E-3
3.77939E-3	147.022E-12	704.818E-3	-14.4013E-3	144.847E-12	674.197E-3	-8.94012E-3
3.77439E-3	146.981E-12	688.280E-3	-12.8298E-3	145.347E-12	669.655E-3	-20.2339E-3
3.76938E-3	146.987E-12	697.022E-3	-10.5471E-3	144.676E-12	661.529E-3	-22.2510E-3
3.76438E-3	146.105E-12	685.446E-3	13.9076E-3	143.869E-12	663.288E-3	-28.1033E-3
3.75938E-3	144.993E-12	673.526E-3	31.6149E-3	144.092E-12	676.223E-3	-33.7439E-3
3.75438E-3	144.032E-12	690.754E-3	16.7545E-3	144.135E-12	685.921E-3	-30.0359E-3
3.74937E-3	143.753E-12	691.098E-3	-5.46947E-3	143.067E-12	687.163E-3	-28.4532E-3
3.74437E-3	143.228E-12	678.186E-3	-10.1606E-3	143.351E-12	672.097E-3	-27.7955E-3
3.73937E-3	142.428E-12	668.261E-3	-17.0839E-3	143.864E-12	632.337E-3	-25.4308E-3
3.73437E-3	141.987E-12	644.242E-3	-39.8576E-3	143.650E-12	626.118E-3	-35.9391E-3
3.72936E-3	141.991E-12	625.394E-3	-50.7537E-3	143.089E-12	646.480E-3	-44.8670E-3
3.72436E-3	141.939E-12	629.097E-3	-36.1279E-3	143.397E-12	649.457E-3	-28.2489E-3
3.71936E-3	142.299E-12	639.742E-3	-21.4239E-3	143.272E-12	644.294E-3	-12.3677E-3
3.71436E-3	142.912E-12	647.014E-3	-16.4697E-3	142.541E-12	647.979E-3	-29.7212E-3
3.70935E-3	143.469E-12	666.855E-3	-10.0032E-3	142.123E-12	652.833E-3	-38.5873E-3
3.70435E-3	143.926E-12	680.050E-3	1.26647E-3	141.949E-12	663.346E-3	-19.0737E-3
3.69935E-3	144.474E-12	672.181E-3	-14.0793E-3	141.619E-12	689.045E-3	2.19920E-3
3.69435E-3	144.835E-12	660.788E-3	-46.5689E-3	140.768E-12	694.656E-3	6.07021E-3
3.68934E-3	143.959E-12	645.095E-3	-42.2079E-3	140.657E-12	663.642E-3	-11.6483E-3
3.68434E-3	143.776E-12	642.362E-3	-9.46568E-3	140.289E-12	630.614E-3	-27.1147E-3
3.67934E-3	143.775E-12	663.319E-3	2.09101E-3	140.028E-12	634.585E-3	-25.8867E-3
3.67434E-3	142.940E-12	670.499E-3	-11.3241E-3	139.364E-12	651.406E-3	-8.71890E-3
3.66933E-3	142.339E-12	656.215E-3	-27.7226E-3	139.297E-12	639.497E-3	-6.64760E-3
3.66433E-3	141.551E-12	642.938E-3	-24.3291E-3	139.098E-12	628.551E-3	-30.3828E-3
3.65933E-3	140.431E-12	641.372E-3	-6.98917E-3	139.467E-12	642.770E-3	-48.0286E-3
3.65433E-3	139.536E-12	648.863E-3	-7.18669E-3	139.517E-12	647.345E-3	-49.1379E-3
3.64932E-3	139.012E-12	649.625E-3	-9.54616E-3	139.132E-12	640.253E-3	-37.1062E-3
3.64432E-3	137.726E-12	647.264E-3	-3.46246E-3	139.879E-12	653.701E-3	-22.6395E-3
3.63932E-3	137.207E-12	644.369E-3	-5.50315E-3	139.683E-12	669.720E-3	-17.0131E-3
3.63432E-3	136.782E-12	644.273E-3	-6.66692E-3	139.870E-12	671.122E-3	-25.1668E-3
3.62931E-3	136.331E-12	642.716E-3	-1.85932E-3	140.718E-12	671.377E-3	-30.3969E-3
3.62431E-3	135.878E-12	644.701E-3	-5.60366E-3	141.240E-12	683.499E-3	-36.2685E-3
3.61931E-3	136.215E-12	656.814E-3	-12.9992E-3	140.316E-12	709.411E-3	-40.5728E-3
3.61431E-3	136.535E-12	658.790E-3	-8.08520E-3	140.539E-12	720.411E-3	-21.1020E-3
3.60930E-3	136.868E-12	656.570E-3	4.17153E-3	141.067E-12	707.970E-3	-2.21528E-3
3.60430E-3	137.052E-12	663.899E-3	11.2368E-3	140.658E-12	685.972E-3	-4.38973E-3
3.59930E-3	137.745E-12	670.593E-3	-2.66963E-3	140.033E-12	663.792E-3	-9.39865E-3
3.59430E-3	137.627E-12	671.327E-3	-20.7111E-3	139.845E-12	661.238E-3	-9.81434E-3
3.58929E-3	137.991E-12	662.636E-3	-37.2841E-3	139.287E-12	671.774E-3	-18.3112E-3
3.58429E-3	137.818E-12	664.957E-3	-49.8838E-3	138.348E-12	671.988E-3	-29.2984E-3
3.57929E-3	137.935E-12	684.483E-3	-50.7245E-3	138.210E-12	671.695E-3	-21.4257E-3
3.57429E-3	137.868E-12	691.203E-3	-33.4734E-3	137.342E-12	666.529E-3	3.60803E-3
3.56928E-3	137.553E-12	678.488E-3	-3.81585E-3	136.099E-12	649.643E-3	19.3090E-3
3.56428E-3	137.476E-12	645.978E-3	9.56606E-3	135.767E-12	644.111E-3	3.05402E-3
3.55928E-3	137.078E-12	628.897E-3	20.4275E-3	136.102E-12	659.108E-3	-21.3486E-3
3.55428E-3	136.551E-12	636.531E-3	10.2698E-3	135.413E-12	682.211E-3	-14.1517E-3
3.54927E-3	136.248E-12	642.940E-3	-15.9171E-3	134.779E-12	691.238E-3	-1.06143E-3
3.54427E-3	135.797E-12	666.022E-3	-17.6765E-3	135.358E-12	679.672E-3	2.76602E-3
3.53927E-3	135.609E-12	680.275E-3	1.55378E-3	135.434E-12	667.902E-3	15.5624E-3
3.53427E-3	135.359E-12	668.201E-3	12.3923E-3	134.884E-12	677.540E-3	4.08552E-3
3.52926E-3	135.822E-12	661.431E-3	-1.68298E-3	135.315E-12	702.421E-3	-45.0448E-3
3.52426E-3	135.213E-12	657.250E-3	-23.0951E-3	135.563E-12	706.213E-3	-59.1558E-3
3.51926E-3	135.168E-12	647.828E-3	-27.5571E-3	135.240E-12	687.133E-3	-19.8169E-3
3.51426E-3	135.340E-12	647.625E-3	-19.9670E-3	135.072E-12	673.776E-3	1.91082E-3
3.50925E-3	135.283E-12	670.196E-3	-22.0060E-3	134.902E-12	667.109E-3	-11.5950E-3
3.50425E-3	134.513E-12	695.016E-3	-33.8397E-3	134.561E-12	656.698E-3	-22.3916E-3
3.49925E-3	134.718E-12	690.986E-3	-38.0365E-3	134.441E-12	642.247E-3	-23.3203E-3
3.49425E-3	134.419E-12	679.240E-3	-16.2289E-3	133.941E-12	624.022E-3	-7.54974E-3
3.48924E-3	134.387E-12	678.100E-3	21.5069E-3	133.034E-12	628.717E-3	7.64898E-3
3.48424E-3	133.686E-12	680.383E-3	31.6979E-3	132.669E-12	650.755E-3	-7.46928E-3
3.47924E-3	133.474E-12	684.454E-3	12.6193E-3	131.560E-12	657.491E-3	-21.9963E-3
3.47424E-3	132.708E-12	677.196E-3	-2.78959E-3	130.801E-12	656.332E-3	-26.6779E-3
3.46923E-3	132.605E-12	650.392E-3	-13.6400E-3	130.633E-12	651.393E-3	-32.4859E-3
3.46423E-3	132.220E-12	628.113E-3	-14.5299E-3	130.043E-12	650.497E-3	-34.0055E-3
3.45923E-3	131.442E-12	642.614E-3	4.46354E-3	129.319E-12	656.861E-3	-41.9434E-3
3.45423E-3	131.253E-12	663.850E-3	19.2260E-3	129.061E-12	663.969E-3	-45.9430E-3
3.44922E-3	130.889E-12	657.848E-3	5.75251E-3	129.829E-12	677.510E-3	-25.9878E-3
3.44422E-3	130.525E-12	639.596E-3	-10.7002E-3	129.606E-12	690.017E-3	-1.93178E-3
3.43922E-3	130.117E-12	638.820E-3	-11.9262E-3	129.434E-12	687.442E-3	3.25562E-3
3.43422E-3	128.921E-12	659.183E-3	-11.0615E-3	129.555E-12	672.957E-3	821.611E-6
3.42921E-3	128.611E-12	667.438E-3	-9.02223E-3	130.070E-12	658.417E-3	-17.4377E-3
3.42421E-3	128.233E-12	665.770E-3	-15.0750E-3	130.169E-12	661.584E-3	-44.0268E-3
3.41921E-3	127.716E-12	668.247E-3	-24.0947E-3	130.309E-12	667.533E-3	-40.1068E-3
3.41421E-3	127.100E-12	673.433E-3	-28.7287E-3	130.083E-12	660.308E-3	-30.2691E-3
3.40920E-3	126.931E-12	681.040E-3	-34.3749E-3	130.375E-12	654.195E-3	-24.8747E-3
3.40420E-3	126.348E-12	674.871E-3	-22.8912E-3	130.065E-12	659.641E-3	-11.0142E-3
3.39920E-3	126.648E-12	659.443E-3	-10.7271E-3	129.764E-12	655.962E-3	-8.91846E-3
3.39420E-3	126.496E-12	647.219E-3	-29.9533E-3	129.348E-12	635.573E-3	-4.18914E-3
3.38919E-3	126.528E-12	645.044E-3	-46.0457E-3	128.854E-12	634.813E-3	-1.48517E-3
3.38419E-3	126.816E-12	661.358E-3	-47.0289E-3	128.440E-12	648.186E-3	-20.8206E-3
3.37919E-3	126.883E-12	674.899E-3	-57.1249E-3	128.411E-12	658.786E-3	-34.1289E-3
3.37419E-3	126.773E-12	676.319E-3	-52.1516E-3	128.111E-12	670.694E-3	-25.7213E-3
3.36918E-3	127.495E-12	658.803E-3	-27.1991E-3	127.685E-12	677.422E-3	-10.0139E-3
3.36418E-3	127.781E-12	638.497E-3	-12.9466E-3	126.825E-12	681.635E-3	3.08132E-3
3.35918E-3	128.147E-12	634.919E-3	-13.5877E-3	126.965E-12	674.523E-3	-2.60896E-3
3.35418E-3	128.080E-12	637.114E-3	-14.4375E-3	126.890E-12	655.817E-3	-15.3768E-3
3.34917E-3	127.982E-12	662.923E-3	-21.5752E-3	126.671E-12	648.971E-3	-23.0799E-3
3.34417E-3	127.561E-12	682.180E-3	-44.5236E-3	125.905E-12	647.408E-3	-21.8010E-3
3.33917E-3	127.178E-12	678.117E-3	-60.8473E-3	125.802E-12	659.850E-3	-7.27935E-3
3.33417E-3	126.998E-12	687.914E-3	-48.2040E-3	126.267E-12	694.461E-3	-10.3730E-3
3.32916E-3	126.482E-12	696.910E-3	-22.9349E-3	126.224E-12	701.115E-3	-20.9409E-3
3.32416E-3	125.727E-12	679.567E-3	-15.9380E-3	125.821E-12	673.098E-3	-11.0977E-3
3.31916E-3	125.374E-12	663.185E-3	-18.8510E-3	125.927E-12	649.890E-3	796.351E-6
3.31416E-3	125.302E-12	665.007E-3	-14.3615E-3	126.022E-12	639.052E-3	3.27595E-3
3.30915E-3	125.128E-12	678.645E-3	-1.36828E-3	125.840E-12	649.899E-3	15.2115E-3
3.30415E-3	124.728E-12	689.509E-3	-709.700E-6	125.799E-12	667.176E-3	19.4789E-3
3.29915E-3	124.920E-12	686.248E-3	-24.4443E-3	125.373E-12	673.143E-3	6.53417E-3
3.29415E-3	124.557E-12	680.078E-3	-28.8160E-3	124.997E-12	682.424E-3	12.8386E-3
3.28914E-3	124.424E-12	678.854E-3	-16.4506E-3	124.869E-12	693.416E-3	16.9289E-3
3.28414E-3	124.812E-12	672.089E-3	-24.5071E-3	124.897E-12	689.723E-3	148.159E-6
3.27914E-3	124.404E-12	663.771E-3	-26.1185E-3	123.922E-12	685.228E-3	-5.41170E-3
3.27414E-3	124.900E-12	671.423E-3	-16.0693E-3	123.672E-12	685.226E-3	-8.78194E-3
3.26913E-3	124.723E-12	673.488E-3	-22.3808E-3	123.402E-12	678.041E-3	-19.1800E-3
3.26413E-3	125.323E-12	669.722E-3	-34.9334E-3	123.359E-12	678.200E-3	-10.3843E-3
3.25913E-3	124.690E-12	676.446E-3	-27.7579E-3	122.168E-12	681.587E-3	8.88755E-3
3.25413E-3	124.223E-12	685.295E-3	-4.07051E-3	122.098E-12	667.513E-3	12.8247E-3
3.24912E-3	123.299E-12	692.288E-3	15.5702E-3	121.612E-12	641.693E-3	-925.520E-6
3.24412E-3	122.899E-12	697.069E-3	12.4927E-3	121.515E-12	638.271E-3	-8.32024E-3
3.23912E-3	122.076E-12	702.679E-3	-7.40411E-3	120.817E-12	654.777E-3	-5.92016E-3
3.23412E-3	121.212E-12	713.154E-3	-18.4540E-3	121.140E-12	657.292E-3	-11.1864E-3
3.22911E-3	120.524E-12	709.115E-3	-18.0748E-3	120.737E-12	658.396E-3	-29.5944E-3
3.22411E-3	119.773E-12	688.352E-3	-7.64167E-3	120.752E-12	678.332E-3	-51.3314E-3
3.21911E-3	119.136E-12	673.581E-3	687.020E-6	120.256E-12	689.843E-3	-58.0471E-3
3.21411E-3	118.593E-12	668.874E-3	-6.13256E-3	120.915E-12	682.637E-3	-44.1462E-3
3.20910E-3	117.867E-12	665.563E-3	-20.6409E-3	120.419E-12	678.178E-3	-28.4810E-3
3.20410E-3	117.863E-12	658.800E-3	-28.9438E-3	120.365E-12	676.989E-3	-26.2312E-3
3.19910E-3	117.619E-12	660.593E-3	-29.1494E-3	120.418E-12	686.120E-3	-25.9949E-3
3.19410E-3	117.764E-12	660.599E-3	-34.0866E-3	120.738E-12	704.772E-3	-18.0332E-3
3.18909E-3	117.920E-12	646.965E-3	-34.2969E-3	120.372E-12	709.254E-3	-12.6313E-3
3.18409E-3	118.299E-12	652.447E-3	-24.6739E-3	120.201E-12	718.841E-3	-9.60740E-3
3.17909E-3	118.239E-12	675.288E-3	-23.7535E-3	119.713E-12	729.064E-3	-5.96930E-3
3.17409E-3	118.755E-12	682.461E-3	-29.7232E-3	119.661E-12	710.240E-3	-15.8118E-3
3.16908E-3	118.647E-12	688.736E-3	-25.6288E-3	119.028E-12	686.354E-3	-24.2151E-3
3.16408E-3	118.485E-12	685.934E-3	-17.4256E-3	118.375E-12	677.976E-3	-10.6491E-3
3.15908E-3	118.388E-12	659.948E-3	-316.293E-6	118.126E-12	669.539E-3	-4.26855E-3
3.15408E-3	118.267E-12	649.995E-3	13.3791E-3	117.614E-12	648.974E-3	-12.5826E-3
3.14907E-3	117.648E-12	661.908E-3	-5.25129E-3	116.748E-12	635.469E-3	-8.97013E-3
3.14407E-3	117.157E-12	683.214E-3	-27.6303E-3	116.104E-12	653.219E-3	7.48557E-3
3.13907E-3	117.007E-12	696.741E-3	-22.9265E-3	115.772E-12	686.854E-3	16.5450E-3
3.13407E-3	117.502E-12	678.683E-3	-4.21200E-3	115.383E-12	692.673E-3	-907.706E-6
3.12906E-3	117.035E-12	646.652E-3	5.29435E-3	115.116E-12	660.204E-3	-30.2309E-3
3.12406E-3	116.637E-12	633.134E-3	11.4000E-3	115.252E-12	631.558E-3	-35.1168E-3
3.11906E-3	116.242E-12	640.508E-3	9.23955E-3	115.162E-12	636.639E-3	-34.5483E-3
3.11406E-3	116.420E-12	648.717E-3	792.533E-6	115.020E-12	648.865E-3	-55.4254E-3
3.10905E-3	116.019E-12	648.537E-3	-936.951E-6	115.398E-12	656.384E-3	-54.8097E-3
3.10405E-3	115.690E-12	644.183E-3	-7.88537E-3	115.764E-12	682.325E-3	-32.2450E-3
3.09905E-3	115.616E-12	645.690E-3	-20.6811E-3	116.063E-12	710.562E-3	-26.7178E-3
3.09405E-3	115.885E-12	643.187E-3	-19.1868E-3	115.754E-12	713.732E-3	-30.4433E-3
3.08904E-3	115.857E-12	643.044E-3	-70.9841E-6	115.652E-12	700.436E-3	-37.6213E-3
3.08404E-3	115.749E-12	661.877E-3	6.49540E-3	115.368E-12	691.756E-3	-28.6358E-3
3.07904E-3	115.401E-12	676.091E-3	-4.79348E-3	115.721E-12	684.365E-3	5.62754E-3
3.07404E-3	115.367E-12	679.608E-3	-15.5732E-3	114.829E-12	680.059E-3	20.5185E-3
3.06903E-3	114.837E-12	688.377E-3	-22.1202E-3	114.604E-12	682.971E-3	6.82542E-3
3.06403E-3	114.832E-12	700.864E-3	-26.4677E-3	114.522E-12	688.346E-3	3.07874E-3
3.05903E-3	114.161E-12	705.599E-3	-26.7231E-3	113.822E-12	704.941E-3	11.0599E-3
3.05403E-3	113.714E-12	698.044E-3	-32.3622E-3	113.167E-12	701.414E-3	640.834E-6
3.04902E-3	113.319E-12	687.835E-3	-37.1336E-3	113.054E-12	664.005E-3	-6.50871E-3
3.04402E-3	113.528E-12	678.494E-3	-41.6618E-3	112.402E-12	659.628E-3	-1.63831E-3
3.03902E-3	112.753E-12	674.642E-3	-52.9911E-3	112.156E-12	685.148E-3	-9.03353E-3
3.03402E-3	112.171E-12	681.717E-3	-45.2475E-3	112.319E-12	682.519E-3	-15.4089E-3
3.02901E-3	111.766E-12	685.841E-3	-16.0572E-3	112.490E-12	673.885E-3	-17.7528E-3
3.02401E-3	111.459E-12	691.471E-3	10.4017E-3	111.831E-12	667.208E-3	-25.9371E-3
3.01901E-3	111.019E-12	705.195E-3	20.4427E-3	112.473E-12	652.271E-3	-22.2553E-3
3.01401E-3	111.031E-12	701.417E-3	16.4931E-3	112.515E-12	663.638E-3	-8.62219E-3
3.00900E-3	110.795E-12	679.818E-3	-3.11657E-3	112.302E-12	693.761E-3	-10.6055E-3
3.00400E-3	109.917E-12	655.681E-3	-24.0511E-3	112.268E-12	699.650E-3	-7.51529E-3
2.99900E-3	109.823E-12	653.306E-3	-28.5270E-3	112.654E-12	695.710E-3	5.89084E-3
2.99400E-3	109.512E-12	676.992E-3	-27.9857E-3	112.386E-12	695.737E-3	2.62837E-3
2.98899E-3	109.208E-12	690.505E-3	-17.1866E-3	112.233E-12	688.531E-3	-4.95926E-3
2.98399E-3	108.713E-12	685.765E-3	3.06026E-3	111.916E-12	690.461E-3	-162.737E-6
2.97899E-3	108.688E-12	686.381E-3	5.51733E-3	111.575E-12	700.089E-3	3.27841E-3
2.97399E-3	108.735E-12	684.237E-3	-6.42733E-3	111.216E-12	694.539E-3	-3.48178E-3
2.96898E-3	108.714E-12	674.993E-3	-11.4201E-3	110.948E-12	682.462E-3	-13.1843E-3
2.96398E-3	108.947E-12	668.437E-3	-23.0940E-3	110.016E-12	690.060E-3	-25.8083E-3
2.95898E-3	109.163E-12	663.199E-3	-40.1827E-3	109.756E-12	708.468E-3	-16.7818E-3
2.95398E-3	109.243E-12	676.986E-3	-46.6573E-3	109.156E-12	705.020E-3	3.95358E-3
2.94897E-3	109.277E-12	689.643E-3	-35.3948E-3	108.463E-12	677.888E-3	-12.0907E-3
2.94397E-3	109.277E-12	696.524E-3	-14.1383E-3	108.276E-12	648.158E-3	-29.6207E-3
2.93897E-3	109.253E-12	717.466E-3	-509.487E-6	107.875E-12	644.786E-3	-22.4603E-3
2.93397E-3	108.852E-12	720.134E-3	-3.27264E-3	107.577E-12	671.594E-3	-19.6527E-3
2.92896E-3	108.554E-12	692.731E-3	-12.8197E-3	107.450E-12	685.181E-3	-16.7145E-3
2.92396E-3	108.351E-12	670.739E-3	-19.7191E-3	107.509E-12	686.097E-3	-4.96883E-3
2.91896E-3	108.079E-12	666.132E-3	-19.7556E-3	107.056E-12	693.523E-3	-4.11489E-3
2.91396E-3	107.893E-12	675.930E-3	-18.7842E-3	106.936E-12	692.819E-3	-24.7855E-3
2.90895E-3	107.467E-12	687.777E-3	-30.9254E-3	107.132E-12	688.711E-3	-41.1583E-3
2.90395E-3	107.030E-12	690.710E-3	-36.5134E-3	107.085E-12	691.124E-3	-40.0023E-3
2.89895E-3	106.500E-12	687.245E-3	-26.0391E-3	107.129E-12	681.206E-3	-37.1157E-3
2.89395E-3	106.103E-12	677.117E-3	-11.1030E-3	106.866E-12	662.349E-3	-18.1536E-3
2.88894E-3	105.097E-12	675.505E-3	-6.24038E-3	106.583E-12	669.443E-3	13.6219E-3
2.88394E-3	104.964E-12	677.025E-3	-19.3378E-3	106.315E-12	694.874E-3	17.3544E-3
2.87894E-3	105.080E-12	663.477E-3	-35.4988E-3	105.889E-12	707.183E-3	21.2386E-3
2.87394E-3	105.196E-12	655.313E-3	-40.2282E-3	105.312E-12	698.270E-3	30.0311E-3
2.86893E-3	105.031E-12	666.856E-3	-46.2729E-3	104.959E-12	686.553E-3	-790.650E-6
2.86393E-3	105.155E-12	678.055E-3	-48.6763E-3	104.307E-12	680.373E-3	-34.4396E-3
2.85893E-3	105.235E-12	678.106E-3	-33.1769E-3	103.909E-12	679.677E-3	-32.9825E-3
2.85393E-3	104.739E-12	691.342E-3	-17.7941E-3	103.385E-12	672.249E-3	-23.7930E-3
2.84892E-3	104.518E-12	717.728E-3	-12.7414E-3	103.399E-12	651.363E-3	-15.2060E-3
2.84392E-3	104.394E-12	714.356E-3	-5.89926E-3	102.820E-12	652.196E-3	-6.50094E-3
2.83892E-3	104.440E-12	690.153E-3	-749.992E-6	102.546E-12	663.172E-3	-12.0674E-3
2.83392E-3	103.942E-12	675.310E-3	-17.6653E-3	102.710E-12	665.858E-3	-5.49915E-3
2.82891E-3	103.573E-12	670.130E-3	-31.8749E-3	102.333E-12	682.567E-3	6.13401E-3
2.82391E-3	103.179E-12	679.353E-3	-22.9190E-3	101.889E-12	695.921E-3	-15.9011E-3
2.81891E-3	102.717E-12	696.217E-3	-13.1333E-3	101.713E-12	683.905E-3	-34.8948E-3
2.81391E-3	101.806E-12	699.500E-3	-10.2300E-3	101.726E-12	685.786E-3	-18.7617E-3
2.80890E-3	101.116E-12	683.979E-3	-551.270E-6	101.513E-12	701.429E-3	-9.77423E-3
2.80390E-3	100.464E-12	674.645E-3	9.11611E-3	101.450E-12	693.397E-3	-21.4534E-3
2.79890E-3	99.6851E-12	687.795E-3	7.38028E-3	101.124E-12	685.237E-3	-17.1272E-3
2.79390E-3	99.0579E-12	702.505E-3	6.88525E-3	101.789E-12	693.583E-3	-13.3877E-3
2.78889E-3	99.0506E-12	690.211E-3	1.79415E-3	101.790E-12	700.253E-3	-26.5934E-3
2.78389E-3	98.4292E-12	655.149E-3	-13.5749E-3	101.413E-12	707.144E-3	-16.1338E-3
2.77889E-3	98.5807E-12	638.316E-3	-18.7876E-3	101.335E-12	715.789E-3	-8.21000E-3
2.77389E-3	98.6241E-12	648.891E-3	-17.4669E-3	101.168E-12	703.287E-3	-23.6168E-3
2.76888E-3	98.7446E-12	670.602E-3	-36.6064E-3	100.897E-12	681.489E-3	-19.3179E-3
2.76388E-3	99.2156E-12	690.191E-3	-45.2505E-3	100.848E-12	681.753E-3	-8.28329E-3
2.75888E-3	99.3384E-12	690.028E-3	-29.1038E-3	100.631E-12	686.756E-3	-8.39666E-3
2.75388E-3	99.3831E-12	676.087E-3	-17.9109E-3	100.565E-12	693.748E-3	1.75041E-3
2.74887E-3	99.7071E-12	664.631E-3	-11.7758E-3	100.114E-12	702.450E-3	7.76694E-3
2.74387E-3	100.035E-12	668.669E-3	-1.50124E-3	99.7482E-12	683.878E-3	-7.43427E-3
2.73887E-3	99.8497E-12	691.274E-3	7.91096E-3	99.5087E-12	658.183E-3	-20.5778E-3
2.73387E-3	99.6813E-12	717.296E-3	1.67344E-3	99.0845E-12	669.443E-3	-19.0446E-3
2.72886E-3	99.7206E-12	724.447E-3	-14.5236E-3	98.7014E-12	691.452E-3	-18.0466E-3
2.72386E-3	99.2280E-12	721.711E-3	-28.5126E-3	98.0275E-12	678.849E-3	-14.0435E-3
2.71886E-3	99.0018E-12	718.116E-3	-31.5834E-3	97.4610E-12	663.072E-3	-13.8709E-3
2.71386E-3	98.5248E-12	705.918E-3	-23.0510E-3	97.3250E-12	668.053E-3	-24.9291E-3
2.70885E-3	97.9427E-12	689.774E-3	-14.9997E-3	97.0676E-12	678.672E-3	-28.4595E-3
2.70385E-3	97.5000E-12	685.039E-3	-22.1568E-3	97.2086E-12	694.435E-3	-22.2929E-3
2.69885E-3	97.2574E-12	695.115E-3	-29.9090E-3	97.2665E-12	707.595E-3	-24.6946E-3
2.69385E-3	97.3388E-12	709.945E-3	-24.8284E-3	97.3863E-12	703.503E-3	-32.8554E-3
2.68884E-3	96.6268E-12	718.565E-3	-28.7763E-3	97.8863E-12	709.710E-3	-28.6534E-3
2.68384E-3	96.7210E-12	706.423E-3	-32.4694E-3	98.1250E-12	724.464E-3	-29.9246E-3
2.67884E-3	96.6542E-12	686.071E-3	-16.7415E-3	97.6795E-12	704.545E-3	-22.5707E-3
2.67384E-3	96.7679E-12	683.988E-3	9.57885E-3	97.5546E-12	695.808E-3	8.83182E-3
2.66883E-3	96.4613E-12	686.126E-3	19.6882E-3	97.5633E-12	719.415E-3	8.40872E-3
2.66383E-3	96.5406E-12	689.058E-3	5.91122E-3	97.6148E-12	719.265E-3	-15.4082E-3
2.65883E-3	96.4814E-12	699.081E-3	-1.30123E-3	97.0882E-12	706.871E-3	-21.7493E-3
2.65383E-3	96.4347E-12	697.509E-3	-4.26191E-3	96.8471E-12	704.628E-3	-30.3620E-3
2.64882E-3	96.4709E-12	695.623E-3	-14.1732E-3	96.6643E-12	696.980E-3	-41.1930E-3
2.64382E-3	96.3022E-12	703.607E-3	-15.2371E-3	95.6804E-12	688.455E-3	-29.6617E-3
2.63882E-3	95.9488E-12	711.215E-3	-23.2572E-3	94.8612E-12	683.114E-3	-9.69945E-3
2.63382E-3	95.6247E-12	724.054E-3	-43.8006E-3	94.3361E-12	678.238E-3	-2.04327E-3
2.62881E-3	95.1822E-12	723.604E-3	-46.0723E-3	94.0109E-12	689.510E-3	1.58416E-3
2.62381E-3	95.0910E-12	708.994E-3	-27.8759E-3	93.0631E-12	708.937E-3	1.04914E-3
2.61881E-3	94.0089E-12	707.117E-3	-13.5942E-3	92.6250E-12	701.884E-3	-4.22460E-3
2.61381E-3	93.6754E-12	709.830E-3	-12.4133E-3	92.0544E-12	682.621E-3	-8.07790E-3
2.60880E-3	93.2005E-12	710.876E-3	-17.4903E-3	92.1071E-12	679.228E-3	-15.1123E-3
2.60380E-3	92.7327E-12	714.071E-3	-21.7149E-3	91.7912E-12	683.958E-3	-15.3557E-3
2.59880E-3	92.1635E-12	710.279E-3	-28.2042E-3	92.0067E-12	680.250E-3	-2.12154E-3
2.59380E-3	91.5356E-12	700.026E-3	-26.1930E-3	91.9117E-12	686.916E-3	-5.31239E-3
2.58879E-3	90.7600E-12	699.080E-3	-18.9948E-3	91.9365E-12	705.612E-3	-23.5490E-3
2.58379E-3	90.5777E-12	700.200E-3	-20.5523E-3	91.6759E-12	700.291E-3	-20.7545E-3
2.57879E-3	89.8932E-12	705.914E-3	-32.5747E-3	92.0092E-12	684.210E-3	-8.96184E-3
2.57379E-3	89.6411E-12	714.019E-3	-43.4668E-3	91.6661E-12	681.045E-3	-5.18626E-3
2.56878E-3	89.2783E-12	700.931E-3	-33.3941E-3	91.2522E-12	686.986E-3	-3.26909E-3
2.56378E-3	89.4688E-12	679.405E-3	-13.3368E-3	91.3469E-12	691.025E-3	-9.94412E-3
2.55878E-3	89.0055E-12	663.645E-3	-11.5743E-3	90.8464E-12	686.113E-3	-30.2198E-3
2.55378E-3	88.9126E-12	673.414E-3	-18.7749E-3	90.0689E-12	675.107E-3	-33.4059E-3
2.54877E-3	89.0632E-12	698.323E-3	-8.10666E-3	89.8737E-12	673.539E-3	-3.39546E-3
2.54377E-3	89.3074E-12	701.912E-3	-5.43262E-3	89.4572E-12	671.646E-3	6.89770E-3
2.53877E-3	89.0791E-12	703.670E-3	-14.7487E-3	88.8160E-12	663.159E-3	-5.91690E-3
2.53377E-3	89.0858E-12	711.411E-3	-8.15387E-3	88.2936E-12	675.104E-3	2.58234E-3
2.52876E-3	88.8914E-12	711.498E-3	-2.92396E-3	87.8250E-12	691.545E-3	6.45588E-3
2.52376E-3	89.2207E-12	717.061E-3	-14.3285E-3	87.4641E-12	691.704E-3	-4.71741E-3
2.51876E-3	89.2229E-12	721.321E-3	-26.1179E-3	87.1947E-12	700.437E-3	-7.13843E-3
2.51376E-3	89.1208E-12	710.867E-3	-32.0257E-3	87.2723E-12	710.901E-3	-17.6842E-3
2.50875E-3	88.9950E-12	705.257E-3	-36.9202E-3	86.8247E-12	704.762E-3	-29.2086E-3
2.50375E-3	88.6406E-12	709.865E-3	-35.3969E-3	86.7568E-12	696.699E-3	-30.1291E-3
2.49875E-3	88.4033E-12	711.088E-3	-24.0712E-3	87.0671E-12	697.720E-3	-34.9137E-3
2.49375E-3	88.1844E-12	709.844E-3	-16.5132E-3	87.0653E-12	700.539E-3	-24.2038E-3
2.48874E-3	88.0071E-12	717.335E-3	-13.8992E-3	86.8765E-12	704.136E-3	-5.81414E-3
2.48374E-3	87.1393E-12	736.215E-3	-3.79284E-3	87.3872E-12	720.953E-3	-25.3176E-3
2.47874E-3	87.3622E-12	750.527E-3	7.29575E-3	87.3620E-12	740.366E-3	-45.5891E-3
2.47374E-3	87.0107E-12	746.071E-3	2.20640E-3	87.1410E-12	754.702E-3	-22.4999E-3
2.46873E-3	86.5358E-12	731.052E-3	-19.0733E-3	87.0861E-12	762.806E-3	-10.8755E-3
2.46373E-3	86.3351E-12	720.744E-3	-39.3407E-3	87.2542E-12	749.028E-3	-23.8270E-3
2.45873E-3	86.1320E-12	716.869E-3	-43.4958E-3	86.4808E-12	734.631E-3	-31.3575E-3
2.45373E-3	85.7382E-12	720.321E-3	-37.2484E-3	86.3558E-12	740.839E-3	-36.8867E-3
2.44872E-3	85.8114E-12	739.682E-3	-33.0718E-3	86.3344E-12	741.154E-3	-22.2888E-3
2.44372E-3	85.7156E-12	761.550E-3	-29.6701E-3	85.9265E-12	729.248E-3	14.8398E-3
2.43872E-3	85.6925E-12	763.296E-3	-27.5379E-3	85.5137E-12	723.802E-3	18.1637E-3
2.43372E-3	85.2795E-12	754.517E-3	-29.5933E-3	85.3300E-12	718.044E-3	-16.3533E-3
2.42871E-3	85.7482E-12	749.444E-3	-27.8262E-3	85.1384E-12	721.084E-3	-32.6911E-3
2.42371E-3	85.4436E-12	743.162E-3	-25.6936E-3	84.8341E-12	737.584E-3	-26.5404E-3
2.41871E-3	84.7541E-12	736.326E-3	-23.2416E-3	84.4200E-12	732.660E-3	-18.0395E-3
2.41371E-3	84.8266E-12	728.406E-3	-8.68938E-3	83.8865E-12	715.222E-3	-7.65913E-3
2.40870E-3	84.4841E-12	720.006E-3	-3.80299E-3	83.3334E-12	718.818E-3	-15.5084E-3
2.40370E-3	83.7749E-12	717.775E-3	-17.6093E-3	83.1182E-12	731.301E-3	-36.1977E-3
2.39870E-3	83.6126E-12	719.547E-3	-35.0683E-3	83.2934E-12	730.825E-3	-35.5400E-3
2.39370E-3	83.0332E-12	718.572E-3	-42.5024E-3	82.9604E-12	731.420E-3	-22.1318E-3
2.38869E-3	82.4345E-12	719.537E-3	-28.5889E-3	82.8957E-12	731.427E-3	-17.6670E-3
2.38369E-3	81.6351E-12	725.421E-3	-9.55022E-3	82.5589E-12	720.395E-3	-23.4798E-3
2.37869E-3	81.0628E-12	721.711E-3	-4.20496E-3	82.5888E-12	723.602E-3	-22.5911E-3
2.37369E-3	80.5201E-12	709.220E-3	-15.1273E-3	82.2587E-12	741.983E-3	-11.4796E-3
2.36868E-3	80.1216E-12	710.927E-3	-18.1743E-3	82.0628E-12	739.402E-3	2.17400E-3
2.36368E-3	79.6027E-12	717.159E-3	-9.97504E-3	81.8432E-12	718.782E-3	4.22027E-3
2.35868E-3	79.2960E-12	719.089E-3	-17.1253E-3	81.5268E-12	712.138E-3	-22.5179E-3
2.35368E-3	79.1401E-12	726.524E-3	-27.1352E-3	81.2691E-12	721.570E-3	-38.5091E-3
2.34867E-3	79.0101E-12	731.491E-3	-19.7632E-3	81.1793E-12	732.689E-3	-18.5678E-3
2.34367E-3	78.7847E-12	732.100E-3	-24.1939E-3	80.7561E-12	733.472E-3	-12.6846E-3
2.33867E-3	78.9249E-12	726.710E-3	-34.9419E-3	80.3475E-12	717.483E-3	-18.9633E-3
2.33367E-3	78.8802E-12	713.729E-3	-20.8473E-3	80.0051E-12	710.652E-3	-15.6748E-3
2.32866E-3	78.7832E-12	713.858E-3	-12.3019E-3	79.6879E-12	719.474E-3	-18.6071E-3
2.32366E-3	78.9399E-12	736.603E-3	-22.1811E-3	78.9971E-12	716.006E-3	-16.5155E-3
2.31866E-3	78.9560E-12	744.953E-3	-16.2213E-3	78.7286E-12	715.873E-3	-4.35790E-3
2.31366E-3	78.5071E-12	740.084E-3	-764.962E-6	78.4022E-12	730.591E-3	-4.91021E-3
2.30865E-3	78.5887E-12	736.756E-3	-7.91770E-3	77.9715E-12	726.990E-3	-13.9492E-3
2.30365E-3	78.3859E-12	726.379E-3	-22.1217E-3	77.7086E-12	723.374E-3	-10.3964E-3
2.29865E-3	78.2209E-12	717.788E-3	-11.9849E-3	77.4381E-12	745.095E-3	-11.6480E-3
2.29365E-3	77.9907E-12	721.836E-3	9.79041E-3	77.2087E-12	753.259E-3	-21.1319E-3
2.28864E-3	77.8333E-12	733.678E-3	6.68932E-3	77.0560E-12	735.881E-3	-9.74577E-3
2.28364E-3	77.7234E-12	738.624E-3	-13.0136E-3	76.9862E-12	717.998E-3	2.69283E-3
2.27864E-3	77.1997E-12	743.035E-3	-24.0400E-3	76.7793E-12	706.586E-3	3.95050E-3
2.27364E-3	76.9031E-12	741.107E-3	-25.2179E-3	76.3066E-12	708.820E-3	4.33817E-3
2.26863E-3	76.8493E-12	731.895E-3	-29.5971E-3	76.3239E-12	733.622E-3	-19.5353E-3
2.26363E-3	76.6785E-12	736.524E-3	-23.8771E-3	76.4841E-12	749.587E-3	-43.1322E-3
2.25863E-3	76.5044E-12	752.043E-3	-10.1552E-3	76.0131E-12	744.326E-3	-29.7426E-3
2.25363E-3	76.5269E-12	756.335E-3	-21.2495E-3	76.2169E-12	754.469E-3	-22.5004E-3
2.24862E-3	76.3694E-12	746.574E-3	-35.0016E-3	76.1676E-12	771.672E-3	-29.5441E-3
2.24362E-3	76.1183E-12	728.191E-3	-19.1801E-3	76.1836E-12	774.250E-3	-1.25078E-3
2.23862E-3	76.1130E-12	719.126E-3	-4.46468E-3	75.9059E-12	772.516E-3	17.4091E-3
2.23362E-3	76.0107E-12	734.419E-3	-1.50973E-3	75.4661E-12	758.868E-3	-7.89925E-3
2.22861E-3	75.9710E-12	749.364E-3	18.3336E-3	75.4654E-12	752.233E-3	-7.31426E-3
2.22361E-3	75.8535E-12	752.630E-3	20.0788E-3	75.2048E-12	775.126E-3	8.56955E-3
2.21861E-3	75.5277E-12	752.654E-3	-5.20395E-3	74.5904E-12	783.001E-3	-6.21978E-3
2.21361E-3	74.8822E-12	759.290E-3	-5.82185E-3	74.3086E-12	765.411E-3	-13.5968E-3
2.20860E-3	74.9707E-12	760.567E-3	3.94611E-3	74.0921E-12	763.263E-3	-3.94336E-3
2.20360E-3	74.4235E-12	751.051E-3	-10.0012E-3	73.6280E-12	770.263E-3	-7.92095E-3
2.19860E-3	73.8863E-12	756.035E-3	-29.1000E-3	73.4423E-12	771.585E-3	-11.6500E-3
2.19360E-3	73.5509E-12	769.046E-3	-32.1209E-3	73.3929E-12	773.796E-3	103.184E-6
2.18859E-3	73.0778E-12	761.967E-3	-23.8692E-3	72.7653E-12	761.977E-3	61.4187E-6
2.18359E-3	72.3135E-12	754.941E-3	-16.5759E-3	72.3928E-12	738.947E-3	-13.7396E-3
2.17859E-3	71.7244E-12	759.055E-3	-20.9245E-3	72.2219E-12	744.349E-3	-28.7728E-3
2.17359E-3	71.8127E-12	759.865E-3	-26.9182E-3	71.9825E-12	767.476E-3	-39.8111E-3
2.16858E-3	70.9903E-12	769.713E-3	-21.1358E-3	71.5724E-12	765.885E-3	-29.6522E-3
2.16358E-3	70.5313E-12	780.321E-3	-13.9347E-3	71.5477E-12	754.680E-3	-8.47548E-3
2.15858E-3	70.0770E-12	774.198E-3	-12.8022E-3	71.0880E-12	749.267E-3	1.95048E-3
2.15358E-3	69.9216E-12	759.231E-3	-16.4711E-3	70.9895E-12	744.035E-3	4.32063E-3
2.14857E-3	69.4629E-12	746.302E-3	-17.3465E-3	70.9239E-12	759.374E-3	4.04453E-3
2.14357E-3	69.0101E-12	743.657E-3	-18.8673E-3	70.5448E-12	779.686E-3	2.23739E-3
2.13857E-3	68.7845E-12	751.258E-3	-20.6147E-3	70.0501E-12	773.544E-3	9.52092E-3
2.13357E-3	68.5708E-12	757.300E-3	-22.6676E-3	69.8489E-12	761.360E-3	17.7809E-3
2.12856E-3	68.2410E-12	755.329E-3	-35.4335E-3	69.4165E-12	753.886E-3	-5.66276E-3
2.12356E-3	68.1688E-12	751.057E-3	-32.0335E-3	68.9649E-12	744.606E-3	-37.8187E-3
2.11856E-3	68.1782E-12	752.658E-3	-6.18105E-3	68.6923E-12	750.678E-3	-24.7923E-3
2.11356E-3	68.1532E-12	756.224E-3	633.127E-6	68.4046E-12	773.783E-3	449.541E-6
2.10855E-3	67.9470E-12	763.513E-3	-16.2835E-3	67.7965E-12	778.499E-3	-14.3553E-3
2.10355E-3	67.9580E-12	778.710E-3	-23.2749E-3	67.6003E-12	771.057E-3	-32.2670E-3
2.09855E-3	67.9962E-12	788.186E-3	-6.95537E-3	67.2286E-12	779.360E-3	-28.5700E-3
2.09355E-3	67.7574E-12	782.000E-3	7.42432E-3	67.1473E-12	785.324E-3	-18.6765E-3
2.08854E-3	67.3306E-12	769.151E-3	594.744E-6	66.9193E-12	781.943E-3	2.74392E-3
2.08354E-3	67.4938E-12	769.037E-3	-15.1416E-3	66.7968E-12	791.133E-3	9.04148E-3
2.07854E-3	67.3925E-12	778.533E-3	-13.0480E-3	66.5793E-12	789.227E-3	-14.9515E-3
2.07354E-3	66.9300E-12	780.707E-3	-3.59855E-3	66.4114E-12	776.569E-3	-23.9265E-3
2.06853E-3	66.7045E-12	772.182E-3	-14.2915E-3	66.4267E-12	788.313E-3	-16.9134E-3
2.06353E-3	66.5772E-12	766.951E-3	-25.8531E-3	66.5751E-12	798.751E-3	-19.4424E-3
2.05853E-3	66.2264E-12	772.521E-3	-23.0408E-3	66.1925E-12	789.232E-3	-12.4909E-3
2.05353E-3	66.1372E-12	782.411E-3	-24.7205E-3	66.1585E-12	793.081E-3	-2.75518E-3
2.04852E-3	65.5705E-12	797.511E-3	-31.1469E-3	66.1708E-12	813.009E-3	-8.62138E-3
2.04352E-3	65.3502E-12	808.941E-3	-17.8092E-3	66.2198E-12	816.353E-3	-10.0303E-3
2.03852E-3	65.3068E-12	804.830E-3	1.12381E-3	65.7984E-12	809.778E-3	-9.04592E-3
2.03352E-3	65.3140E-12	799.416E-3	-3.16745E-3	65.7589E-12	803.363E-3	-17.2648E-3
2.02851E-3	65.0443E-12	806.043E-3	-10.4952E-3	65.4163E-12	794.766E-3	-24.5589E-3
2.02351E-3	64.8665E-12	817.872E-3	-2.41922E-3	64.9424E-12	794.078E-3	-38.2312E-3
2.01851E-3	64.6824E-12	824.532E-3	2.67601E-3	64.4689E-12	796.408E-3	-43.9134E-3
2.01351E-3	64.4809E-12	811.403E-3	792.175E-6	64.2937E-12	791.987E-3	-21.9163E-3
2.00850E-3	64.1030E-12	794.445E-3	-7.04980E-3	63.8408E-12	798.815E-3	-11.8666E-3
2.00350E-3	64.1179E-12	794.209E-3	-29.2330E-3	63.2384E-12	802.510E-3	-27.0997E-3
1.99850E-3	63.9335E-12	796.360E-3	-36.6871E-3	62.9060E-12	786.255E-3	-22.5479E-3
1.99350E-3	63.6483E-12	805.406E-3	-13.6886E-3	62.9505E-12	784.882E-3	536.560E-6
1.98849E-3	63.4785E-12	825.194E-3	-9.84929E-3	62.4114E-12	801.529E-3	-2.27334E-3
1.98349E-3	62.8980E-12	832.274E-3	-22.0843E-3	62.0983E-12	807.983E-3	-13.1248E-3
1.97849E-3	62.6239E-12	818.499E-3	-14.7685E-3	62.0818E-12	811.460E-3	-20.0803E-6
1.97349E-3	61.9735E-12	803.496E-3	-12.8448E-3	61.6895E-12	824.905E-3	3.51177E-3
1.96848E-3	61.3807E-12	800.191E-3	-11.6672E-3	61.3197E-12	833.112E-3	-7.45896E-3
1.96348E-3	60.8061E-12	806.731E-3	-4.78174E-3	61.3019E-12	842.246E-3	2.53918E-3
1.95848E-3	60.5844E-12	818.545E-3	-14.8982E-3	60.7419E-12	851.578E-3	14.6874E-3
1.95348E-3	59.8601E-12	822.517E-3	-17.8440E-3	60.4446E-12	835.874E-3	7.31885E-3
1.94847E-3	59.4361E-12	809.567E-3	2.80827E-3	60.2981E-12	812.258E-3	-6.79277E-3
1.94347E-3	59.3898E-12	801.431E-3	6.02950E-3	59.9914E-12	800.609E-3	-23.8321E-3
1.93847E-3	59.0833E-12	808.533E-3	-4.89663E-3	59.6941E-12	799.511E-3	-36.6712E-3
1.93347E-3	58.5900E-12	808.479E-3	-2.90703E-3	59.4668E-12	808.723E-3	-26.9989E-3
1.92846E-3	58.2843E-12	807.503E-3	-7.86301E-3	58.9740E-12	819.425E-3	-18.0075E-3
1.92346E-3	58.0833E-12	812.141E-3	-17.3377E-3	58.6263E-12	818.524E-3	-31.8167E-3
1.91846E-3	57.9158E-12	816.462E-3	-18.6184E-3	58.1717E-12	815.515E-3	-26.6398E-3
1.91346E-3	57.5600E-12	825.305E-3	-13.2171E-3	57.8219E-12	826.710E-3	-382.324E-6
1.90845E-3	57.3847E-12	834.251E-3	-2.97356E-3	57.3439E-12	834.391E-3	6.81506E-3
1.90345E-3	57.4080E-12	834.565E-3	-1.54690E-3	57.0341E-12	837.900E-3	-6.56781E-3
1.89845E-3	57.2382E-12	838.427E-3	-6.22578E-3	56.7445E-12	853.916E-3	-25.9816E-3
1.89345E-3	56.8237E-12	854.624E-3	6.67044E-3	56.3651E-12	861.750E-3	-36.4587E-3
1.88844E-3	56.5466E-12	856.500E-3	13.6363E-3	56.1630E-12	852.520E-3	-28.6752E-3
1.88344E-3	56.4508E-12	846.197E-3	-10.5766E-3	55.8309E-12	843.164E-3	-19.0049E-3
1.87844E-3	56.0414E-12	848.288E-3	-24.2883E-3	55.6880E-12	834.535E-3	-25.0256E-3
1.87344E-3	55.7043E-12	857.527E-3	-10.4780E-3	55.5572E-12	839.293E-3	-22.2804E-3
1.86843E-3	55.4397E-12	853.817E-3	2.43293E-3	55.2049E-12	863.374E-3	-7.99206E-3
1.86343E-3	55.3471E-12	843.789E-3	5.54304E-3	55.0060E-12	874.191E-3	-1.45974E-3
1.85843E-3	54.8126E-12	848.926E-3	3.16359E-3	54.9842E-12	865.563E-3	12.0241E-3
1.85343E-3	54.7128E-12	859.239E-3	-14.2804E-3	54.7983E-12	867.101E-3	13.5003E-3
1.84842E-3	54.5230E-12	864.081E-3	-41.4641E-3	54.5737E-12	881.298E-3	-12.5424E-3
1.84342E-3	54.2253E-12	873.582E-3	-45.4438E-3	54.3155E-12	892.463E-3	-21.8772E-3
1.83842E-3	53.8012E-12	875.973E-3	-31.0223E-3	54.1261E-12	900.459E-3	-13.5066E-3
1.83342E-3	53.8046E-12	875.769E-3	-32.7487E-3	54.2641E-12	903.987E-3	-11.4113E-3
1.82841E-3	53.5924E-12	884.909E-3	-36.4599E-3	53.9255E-12	887.779E-3	408.543E-6
1.82341E-3	53.2933E-12	879.160E-3	-28.7499E-3	53.3424E-12	876.309E-3	6.04118E-3
1.81841E-3	52.8380E-12	872.846E-3	-21.0765E-3	53.0785E-12	897.206E-3	-15.7901E-3
1.81341E-3	52.7268E-12	889.580E-3	-19.0168E-3	52.9167E-12	914.803E-3	-25.6319E-3
1.80840E-3	52.5678E-12	901.332E-3	-26.8696E-3	52.3596E-12	912.329E-3	-12.6419E-3
1.80340E-3	52.2453E-12	897.600E-3	-33.8530E-3	51.9435E-12	904.285E-3	-8.93499E-3
1.79840E-3	51.7296E-12	896.119E-3	-31.3486E-3	51.6925E-12	886.586E-3	-12.3840E-3
1.79340E-3	51.5863E-12	888.365E-3	-21.9885E-3	51.3099E-12	884.412E-3	-14.1583E-3
1.78839E-3	51.1311E-12	882.533E-3	-14.7790E-3	51.0388E-12	910.300E-3	-21.0129E-3
1.78339E-3	50.7989E-12	893.735E-3	-14.9338E-3	50.6568E-12	914.393E-3	-28.1542E-3
1.77839E-3	50.3176E-12	898.642E-3	-21.0037E-3	50.3579E-12	893.626E-3	-22.0168E-3
1.77339E-3	49.9404E-12	897.688E-3	-18.1410E-3	49.9359E-12	893.822E-3	-9.69019E-3
1.76838E-3	49.4218E-12	904.448E-3	-6.12056E-3	49.5887E-12	903.984E-3	-11.5149E-3
1.76338E-3	49.2353E-12	906.267E-3	-8.44197E-3	49.3391E-12	910.896E-3	-15.3220E-3
1.75838E-3	48.6801E-12	915.220E-3	-22.2375E-3	49.0165E-12	933.767E-3	-13.3488E-3
1.75338E-3	48.2755E-12	935.434E-3	-29.2852E-3	48.5718E-12	943.162E-3	-21.8048E-3
1.74837E-3	47.7065E-12	932.452E-3	-22.3971E-3	48.2485E-12	930.984E-3	-33.8598E-3
1.74337E-3	47.4333E-12	919.291E-3	-11.6130E-3	48.0422E-12	939.442E-3	-39.8120E-3
1.73837E-3	46.8309E-12	921.669E-3	-6.99306E-3	47.5963E-12	958.933E-3	-41.6757E-3
1.73337E-3	46.5701E-12	918.352E-3	-1.00107E-3	47.3201E-12	972.176E-3	-26.9942E-3
1.72836E-3	46.2582E-12	910.007E-3	8.32733E-3	47.2120E-12	984.913E-3	-6.91834E-3
1.72336E-3	45.9144E-12	907.432E-3	10.2603E-3	46.7476E-12	982.722E-3	-722.891E-6
1.71836E-3	45.5450E-12	905.495E-3	14.5873E-6	46.4550E-12	969.536E-3	-4.39992E-3
1.71336E-3	45.4618E-12	914.445E-3	-10.0887E-3	46.3315E-12	970.439E-3	-9.63064E-3
1.70835E-3	45.1000E-12	936.609E-3	-19.2927E-3	45.7396E-12	981.637E-3	-6.86151E-3
1.70335E-3	44.6531E-12	949.811E-3	-25.1159E-3	45.3905E-12	982.880E-3	-1.21191E-3
1.69835E-3	44.6724E-12	947.401E-3	-26.1236E-3	45.1577E-12	974.576E-3	493.905E-6
1.69335E-3	44.5820E-12	956.524E-3	-28.3085E-3	44.7209E-12	968.812E-3	-13.4779E-3
1.68834E-3	44.4978E-12	972.230E-3	-24.2869E-3	44.2151E-12	970.606E-3	-28.7200E-3
1.68334E-3	44.3277E-12	971.023E-3	-21.3513E-3	43.8826E-12	986.423E-3	-20.7697E-3
1.67834E-3	44.1774E-12	981.231E-3	-22.7342E-3	43.6007E-12	994.722E-3	-12.7541E-3
1.67334E-3	44.1462E-12	1.00736E+0	-22.5257E-3	43.2076E-12	984.581E-3	-13.3606E-3
1.66833E-3	43.8955E-12	1.01669E+0	-23.5644E-3	42.8739E-12	984.782E-3	-13.1442E-3
1.66333E-3	43.5460E-12	1.00728E+0	-26.1930E-3	42.5353E-12	993.874E-3	-30.1979E-3
1.65833E-3	43.2540E-12	1.00056E+0	-24.8533E-3	42.3135E-12	999.575E-3	-39.0029E-3
1.65333E-3	42.9838E-12	1.01278E+0	-19.7255E-3	41.8189E-12	1.00514E+0	-16.8823E-3
1.64832E-3	42.6597E-12	1.03062E+0	-23.3953E-3	41.6042E-12	1.01252E+0	-11.0713E-3
1.64332E-3	42.1866E-12	1.03893E+0	-23.4015E-3	41.2996E-12	1.02755E+0	-29.4414E-3
1.63832E-3	41.7071E-12	1.03690E+0	-9.61430E-3	41.1460E-12	1.05243E+0	-35.9573E-3
1.63332E-3	41.4386E-12	1.03539E+0	-4.59729E-3	40.8212E-12	1.06896E+0	-27.0808E-3
1.62831E-3	41.3027E-12	1.03180E+0	-9.47974E-3	40.6184E-12	1.07112E+0	-17.4821E-3
1.62331E-3	40.7541E-12	1.01893E+0	-11.2446E-3	40.4057E-12	1.07555E+0	-16.9620E-3
1.61831E-3	40.3864E-12	1.02008E+0	-11.5133E-3	40.1180E-12	1.07187E+0	-24.7436E-3
1.61331E-3	40.2475E-12	1.04107E+0	-9.92713E-3	39.8067E-12	1.05854E+0	-30.1671E-3
1.60830E-3	40.0303E-12	1.05798E+0	-12.5024E-3	39.6422E-12	1.06022E+0	-19.0540E-3
1.60330E-3	39.4908E-12	1.07000E+0	-19.9475E-3	39.4180E-12	1.07181E+0	-908.910E-6
1.59830E-3	39.2114E-12	1.07364E+0	-11.8253E-3	38.8960E-12	1.07222E+0	-2.38934E-3
1.59330E-3	39.0645E-12	1.07582E+0	-2.62086E-3	38.4061E-12	1.06965E+0	-19.8624E-3
1.58829E-3	38.8413E-12	1.09698E+0	-7.53846E-3	38.0974E-12	1.08320E+0	-29.5904E-3
1.58329E-3	38.4105E-12	1.11246E+0	-7.91009E-3	37.7062E-12	1.10564E+0	-25.0265E-3
1.57829E-3	38.2239E-12	1.10764E+0	-4.17551E-3	37.3477E-12	1.11625E+0	-10.0730E-3
1.57329E-3	37.7765E-12	1.10347E+0	-9.13718E-3	36.7191E-12	1.11271E+0	-4.47646E-3
1.56828E-3	37.1662E-12	1.11559E+0	-18.4859E-3	36.2715E-12	1.10230E+0	-20.4141E-3
1.56328E-3	36.6800E-12	1.11715E+0	-23.6918E-3	35.9456E-12	1.09454E+0	-31.2113E-3
1.55828E-3	36.2603E-12	1.10078E+0	-28.1213E-3	35.5099E-12	1.10772E+0	-30.6434E-3
1.55328E-3	35.6754E-12	1.10482E+0	-23.0433E-3	35.0897E-12	1.12116E+0	-23.4001E-3
1.54827E-3	34.9875E-12	1.11257E+0	-7.45496E-3	34.7308E-12	1.12007E+0	-18.3613E-3
1.54327E-3	34.3696E-12	1.11547E+0	-10.9919E-3	34.4870E-12	1.12948E+0	-26.7085E-3
1.53827E-3	34.0137E-12	1.13440E+0	-28.1683E-3	34.1371E-12	1.13785E+0	-24.4511E-3
1.53327E-3	33.4791E-12	1.13581E+0	-19.5224E-3	33.7559E-12	1.13627E+0	-1.57372E-3
1.52826E-3	32.9783E-12	1.11421E+0	-11.0929E-3	33.4517E-12	1.14481E+0	4.73845E-3
1.52326E-3	32.3441E-12	1.10563E+0	-28.8384E-3	33.0470E-12	1.14497E+0	-9.88299E-3
1.51826E-3	31.9442E-12	1.10565E+0	-31.3599E-3	32.6392E-12	1.12529E+0	-8.53989E-3
1.51326E-3	31.6027E-12	1.10441E+0	-21.4588E-3	32.3524E-12	1.12953E+0	-4.56893E-3
1.50825E-3	30.9688E-12	1.11365E+0	-27.3300E-3	31.9023E-12	1.15922E+0	-4.40781E-3
1.50325E-3	30.5653E-12	1.12357E+0	-30.5139E-3	31.6225E-12	1.17215E+0	3.10645E-3
1.49825E-3	30.6261E-12	1.11350E+0	-24.0238E-3	31.0467E-12	1.16017E+0	178.136E-6
1.49325E-3	30.2186E-12	1.09879E+0	-17.2940E-3	30.6604E-12	1.13953E+0	-8.95687E-3
1.48824E-3	29.7283E-12	1.09694E+0	-6.59510E-3	30.3203E-12	1.12947E+0	-6.18182E-3
1.48324E-3	29.5520E-12	1.11115E+0	-12.5076E-3	30.0359E-12	1.14283E+0	-1.68338E-3
1.47824E-3	29.2006E-12	1.13183E+0	-27.9895E-3	29.4566E-12	1.15636E+0	-11.4409E-3
1.47324E-3	28.7879E-12	1.13066E+0	-20.2973E-3	29.0211E-12	1.14401E+0	-16.6415E-3
1.46823E-3	28.4140E-12	1.11378E+0	-8.15334E-3	28.6819E-12	1.13538E+0	-10.0529E-3
1.46323E-3	28.0484E-12	1.10856E+0	-15.5458E-3	28.2794E-12	1.14785E+0	-18.1113E-3
1.45823E-3	27.7580E-12	1.11095E+0	-18.9197E-3	27.7456E-12	1.14779E+0	-29.9657E-3
1.45323E-3	27.4022E-12	1.11204E+0	-13.9912E-3	27.4186E-12	1.13817E+0	-24.3239E-3
1.44822E-3	26.9011E-12	1.11570E+0	-18.7648E-3	27.1742E-12	1.14174E+0	-16.3896E-3
1.44322E-3	26.5184E-12	1.12265E+0	-18.4274E-3	26.7471E-12	1.14298E+0	-11.6406E-3
1.43822E-3	26.3273E-12	1.12908E+0	-15.5790E-3	26.4152E-12	1.14615E+0	-19.2101E-3
1.43322E-3	25.9767E-12	1.12736E+0	-20.7670E-3	26.1583E-12	1.15470E+0	-37.9636E-3
1.42821E-3	25.5927E-12	1.12117E+0	-27.2676E-3	25.7922E-12	1.15049E+0	-33.8066E-3
1.42321E-3	25.2687E-12	1.11026E+0	-22.2504E-3	25.4463E-12	1.14570E+0	-13.0953E-3
1.41821E-3	25.0227E-12	1.10883E+0	-7.06075E-3	24.8872E-12	1.13644E+0	-14.4350E-3
1.41321E-3	24.5521E-12	1.13606E+0	-2.26866E-3	24.5757E-12	1.11313E+0	-35.9420E-3
1.40820E-3	24.3558E-12	1.15130E+0	-8.29197E-3	24.3229E-12	1.10207E+0	-50.1830E-3
1.40320E-3	24.1085E-12	1.13990E+0	-22.3845E-3	23.9699E-12	1.11149E+0	-48.0887E-3
1.39820E-3	23.8183E-12	1.13525E+0	-31.7442E-3	23.4844E-12	1.11735E+0	-39.7808E-3
1.39320E-3	23.4621E-12	1.13626E+0	-16.9850E-3	23.3786E-12	1.10952E+0	-33.4264E-3
1.38819E-3	23.0819E-12	1.13550E+0	-10.9947E-3	23.0162E-12	1.10348E+0	-27.6989E-3
1.38319E-3	22.7986E-12	1.13895E+0	-21.1068E-3	22.5651E-12	1.08784E+0	-21.4259E-3
1.37819E-3	22.5781E-12	1.13802E+0	-19.2019E-3	22.2140E-12	1.06288E+0	-1.57576E-3
1.37319E-3	22.1644E-12	1.12275E+0	-19.5823E-3	21.9119E-12	1.05141E+0	18.7979E-3
1.36818E-3	21.6779E-12	1.11621E+0	-23.8510E-3	21.5306E-12	1.05237E+0	9.35562E-3
1.36318E-3	21.4580E-12	1.12339E+0	-17.2486E-3	20.9081E-12	1.05319E+0	-10.6781E-3
1.35818E-3	21.1467E-12	1.12276E+0	-17.0921E-3	20.6029E-12	1.05089E+0	-28.8780E-3
1.35318E-3	20.6997E-12	1.12107E+0	-23.6864E-3	20.3754E-12	1.04699E+0	-42.5887E-3
1.34817E-3	20.1977E-12	1.11320E+0	-16.9227E-3	19.9483E-12	1.03455E+0	-30.1411E-3
1.34317E-3	19.9647E-12	1.09310E+0	-14.8623E-3	19.4238E-12	1.01379E+0	-9.76670E-3
1.33817E-3	19.4752E-12	1.07838E+0	-17.0857E-3	19.2251E-12	991.869E-3	-12.8414E-3
1.33317E-3	18.9839E-12	1.06471E+0	-5.11745E-3	18.9481E-12	979.601E-3	-19.4389E-3
1.32816E-3	18.5996E-12	1.04736E+0	-8.79823E-3	18.5461E-12	990.137E-3	-16.6703E-3
1.32316E-3	18.3060E-12	1.03589E+0	-26.2101E-3	18.1036E-12	989.241E-3	-19.8989E-3
1.31816E-3	17.7911E-12	1.02252E+0	-23.5767E-3	17.6727E-12	951.947E-3	-18.7168E-3
1.31316E-3	17.4170E-12	996.026E-3	-12.5235E-3	17.4968E-12	927.342E-3	-19.3525E-3
1.30815E-3	17.1280E-12	975.185E-3	-14.4632E-3	17.2817E-12	929.910E-3	-35.5964E-3
1.30315E-3	16.8593E-12	963.436E-3	-19.3371E-3	16.8327E-12	930.659E-3	-37.4791E-3
1.29815E-3	16.4613E-12	952.378E-3	-13.3003E-3	16.4970E-12	921.161E-3	-22.6121E-3
1.29315E-3	16.1505E-12	945.898E-3	-18.7645E-3	16.3944E-12	899.376E-3	-21.6924E-3
1.28814E-3	15.7933E-12	926.080E-3	-32.5590E-3	16.0619E-12	873.012E-3	-23.5008E-3
1.28314E-3	15.5748E-12	895.985E-3	-24.6676E-3	15.6816E-12	857.814E-3	-27.0729E-3
1.27814E-3	15.2478E-12	886.270E-3	-10.5391E-3	15.4011E-12	851.493E-3	-38.1653E-3
1.27314E-3	14.9352E-12	893.747E-3	-2.39062E-3	15.2064E-12	837.635E-3	-30.9903E-3
1.26813E-3	14.6118E-12	883.680E-3	7.75392E-3	14.7476E-12	814.390E-3	-11.8543E-3
1.26313E-3	14.5033E-12	856.663E-3	6.18251E-3	14.5231E-12	787.728E-3	-3.54002E-3
1.25813E-3	14.1978E-12	840.487E-3	-8.72110E-3	14.2172E-12	757.690E-3	587.201E-6
1.25313E-3	13.8192E-12	836.501E-3	-18.0753E-3	13.9326E-12	745.220E-3	4.73617E-3
1.24812E-3	13.7283E-12	832.965E-3	-23.7696E-3	13.5573E-12	755.297E-3	-2.21237E-3
1.24312E-3	13.4926E-12	822.823E-3	-30.6181E-3	13.2261E-12	750.383E-3	-16.5192E-3
1.23812E-3	13.2680E-12	800.335E-3	-27.5683E-3	13.0384E-12	726.904E-3	-25.3264E-3
1.23312E-3	12.9832E-12	777.938E-3	-21.9143E-3	12.9618E-12	714.840E-3	-36.6900E-3
1.22811E-3	12.7153E-12	771.564E-3	-20.0996E-3	12.6164E-12	704.876E-3	-40.9737E-3
1.22311E-3	12.4722E-12	763.426E-3	-21.3777E-3	12.2676E-12	687.397E-3	-21.3163E-3
1.21811E-3	12.2059E-12	747.265E-3	-34.2077E-3	12.1536E-12	670.786E-3	-6.50759E-3
1.21311E-3	11.9857E-12	733.962E-3	-33.1841E-3	11.9923E-12	649.896E-3	-8.20061E-3
1.20810E-3	11.6680E-12	703.623E-3	-15.1920E-3	11.6063E-12	637.966E-3	-16.9049E-3
1.20310E-3	11.4723E-12	668.231E-3	-10.5833E-3	11.4043E-12	638.333E-3	-24.7974E-3
1.19810E-3	11.2120E-12	668.142E-3	-12.8942E-3	11.3006E-12	627.398E-3	-17.4083E-3
1.19310E-3	11.0516E-12	675.783E-3	-10.1701E-3	11.1052E-12	606.700E-3	-4.08164E-3
1.18809E-3	10.8363E-12	658.318E-3	-11.5005E-3	10.7886E-12	591.022E-3	-10.1119E-3
1.18309E-3	10.6464E-12	635.068E-3	-20.4602E-3	10.6480E-12	588.251E-3	-23.5705E-3
1.17809E-3	10.5529E-12	618.752E-3	-17.8272E-3	10.4309E-12	590.430E-3	-17.3214E-3
1.17309E-3	10.3588E-12	620.298E-3	-4.90737E-3	10.3420E-12	576.197E-3	-12.5317E-3
1.16808E-3	10.2581E-12	623.644E-3	-1.17722E-3	10.0340E-12	549.621E-3	-19.9585E-3
1.16308E-3	10.0084E-12	598.938E-3	2.35067E-3	9.84098E-12	520.122E-3	-13.6701E-3
1.15808E-3	9.83571E-12	568.417E-3	8.31883E-3	9.69677E-12	494.791E-3	-8.59419E-3
1.15308E-3	9.67254E-12	554.895E-3	2.56009E-3	9.49644E-12	490.549E-3	-12.0159E-3
1.14807E-3	9.45208E-12	545.751E-3	-2.00088E-3	9.26646E-12	492.347E-3	-2.47080E-3
1.14307E-3	9.29668E-12	535.382E-3	-6.71885E-3	9.10065E-12	473.328E-3	380.013E-6
1.13807E-3	9.06322E-12	527.440E-3	-19.4928E-3	8.93320E-12	439.911E-3	-2.67357E-3
1.13307E-3	8.98699E-12	515.911E-3	-15.6087E-3	8.78991E-12	418.808E-3	2.92630E-3
1.12806E-3	8.84452E-12	502.562E-3	-2.89835E-3	8.63690E-12	426.064E-3	-6.34560E-3
1.12306E-3	8.58578E-12	497.387E-3	-8.68860E-3	8.49751E-12	435.371E-3	-26.8894E-3
1.11806E-3	8.33422E-12	491.502E-3	-20.3928E-3	8.32912E-12	422.466E-3	-22.9022E-3
1.11306E-3	8.20889E-12	465.634E-3	-22.3806E-3	8.19692E-12	405.307E-3	-1.33237E-3
1.10805E-3	7.98736E-12	440.808E-3	-16.3580E-3	8.02577E-12	387.113E-3	772.592E-6
1.10305E-3	7.86634E-12	436.555E-3	-6.83791E-3	7.96844E-12	364.255E-3	-10.6958E-3
1.09805E-3	7.70991E-12	425.899E-3	-10.3870E-3	7.88608E-12	359.034E-3	-14.1593E-3
1.09305E-3	7.50881E-12	404.436E-3	-16.0383E-3	7.68760E-12	356.703E-3	-14.9209E-3
1.08804E-3	7.42699E-12	395.048E-3	-5.16501E-3	7.46631E-12	332.411E-3	-18.5358E-3
1.08304E-3	7.41114E-12	377.918E-3	4.19487E-3	7.52224E-12	318.245E-3	-21.3389E-3
1.07804E-3	7.22338E-12	350.482E-3	1.88595E-3	7.40299E-12	324.957E-3	-27.7032E-3
1.07304E-3	7.06215E-12	346.341E-3	-73.8873E-6	7.16682E-12	328.081E-3	-34.3929E-3
1.06803E-3	6.98576E-12	344.663E-3	2.45422E-3	6.96998E-12	322.281E-3	-30.4815E-3
1.06303E-3	6.89462E-12	328.814E-3	-9.74401E-3	6.97531E-12	309.349E-3	-26.4098E-3
1.05803E-3	6.83681E-12	325.328E-3	-19.7899E-3	6.88880E-12	287.860E-3	-22.5631E-3
1.05303E-3	6.77153E-12	322.479E-3	-10.9206E-3	6.70252E-12	270.736E-3	-20.0963E-3
1.04802E-3	6.59658E-12	302.783E-3	-18.6909E-3	6.52515E-12	274.752E-3	-33.0518E-3
1.04302E-3	6.69763E-12	290.451E-3	-31.4496E-3	6.59261E-12	284.278E-3	-38.3699E-3
1.03802E-3	6.54569E-12	281.119E-3	-15.9415E-3	6.46754E-12	273.724E-3	-15.3071E-3
1.03302E-3	6.25353E-12	265.084E-3	-6.44233E-3	6.18507E-12	243.262E-3	2.44006E-3
1.02801E-3	6.11968E-12	260.628E-3	-20.7433E-3	6.00002E-12	214.851E-3	-6.91626E-3
1.02301E-3	5.96876E-12	260.705E-3	-27.1384E-3	5.90143E-12	209.027E-3	-14.2111E-3
1.01801E-3	5.87962E-12	260.577E-3	-28.4200E-3	5.77497E-12	216.260E-3	-14.9827E-3
1.01301E-3	5.73735E-12	263.166E-3	-29.5558E-3	5.68012E-12	218.590E-3	-16.2542E-3
1.00800E-3	5.65295E-12	258.250E-3	-25.0619E-3	5.64886E-12	216.680E-3	-6.15402E-3
1.00300E-3	5.54893E-12	244.108E-3	-20.3634E-3	5.55309E-12	214.538E-3	-7.76991E-3
997.999E-6	5.49908E-12	229.651E-3	-8.79524E-3	5.53416E-12	211.228E-3	-25.9774E-3
992.997E-6	5.40040E-12	223.533E-3	8.48642E-3	5.41530E-12	209.058E-3	-26.3222E-3
987.994E-6	5.34438E-12	215.739E-3	5.57509E-3	5.41212E-12	210.285E-3	-12.8649E-3
982.991E-6	5.32308E-12	205.451E-3	-9.82764E-3	5.31761E-12	201.426E-3	-4.42118E-3
977.989E-6	5.21750E-12	201.291E-3	-9.01294E-3	5.31353E-12	180.427E-3	-363.142E-6
972.986E-6	5.15727E-12	199.110E-3	-12.1944E-3	5.13840E-12	172.354E-3	-7.19972E-3
967.984E-6	5.19221E-12	201.505E-3	-26.6879E-3	5.09817E-12	173.226E-3	-17.7668E-3
962.981E-6	5.14192E-12	203.639E-3	-31.7846E-3	5.09004E-12	160.170E-3	-8.27528E-3
957.979E-6	5.00761E-12	186.482E-3	-31.3487E-3	4.96174E-12	150.067E-3	706.857E-6
952.976E-6	4.92837E-12	171.984E-3	-28.3830E-3	4.87897E-12	158.842E-3	-17.3460E-3
947.974E-6	4.97145E-12	177.545E-3	-15.8241E-3	4.83596E-12	171.014E-3	-25.5858E-3
942.971E-6	4.92609E-12	177.157E-3	-11.5400E-3	4.84967E-12	177.040E-3	-10.5065E-3
937.969E-6	4.81521E-12	182.395E-3	-28.2530E-3	4.67889E-12	169.706E-3	-11.4289E-3
932.966E-6	4.69110E-12	199.879E-3	-37.3912E-3	4.61341E-12	150.866E-3	-17.5322E-3
927.964E-6	4.66626E-12	191.412E-3	-22.1564E-3	4.57619E-12	137.938E-3	-6.12948E-3
922.961E-6	4.59077E-12	170.168E-3	-7.97042E-3	4.61468E-12	135.266E-3	-8.58453E-3
917.959E-6	4.51029E-12	167.767E-3	-6.94086E-3	4.50638E-12	140.795E-3	-13.0436E-3
912.956E-6	4.43211E-12	165.034E-3	-9.50356E-3	4.36541E-12	150.114E-3	-1.08119E-3
907.954E-6	4.37263E-12	152.989E-3	-18.1531E-3	4.40756E-12	153.334E-3	-590.742E-6
902.951E-6	4.32932E-12	144.364E-3	-22.5575E-3	4.37978E-12	140.174E-3	-8.37388E-3
897.949E-6	4.23726E-12	133.139E-3	-14.3352E-3	4.32581E-12	129.536E-3	-14.7614E-3
892.946E-6	4.20282E-12	129.159E-3	-6.07513E-3	4.17297E-12	133.777E-3	-20.0816E-3
887.944E-6	4.13528E-12	145.960E-3	2.32089E-3	4.23266E-12	136.622E-3	-12.5140E-3
882.941E-6	4.07059E-12	160.582E-3	7.41711E-3	4.20889E-12	136.491E-3	-1.70446E-3
877.939E-6	4.04245E-12	153.088E-3	-5.01809E-3	4.11522E-12	133.128E-3	-15.0342E-3
872.936E-6	3.97543E-12	140.521E-3	-21.4471E-3	4.02466E-12	126.960E-3	-34.6616E-3
867.934E-6	3.96411E-12	137.492E-3	-20.1250E-3	3.99834E-12	128.383E-3	-28.6543E-3
862.931E-6	3.91341E-12	137.441E-3	-15.6250E-3	3.91495E-12	133.207E-3	-10.8884E-3
857.929E-6	3.82375E-12	138.253E-3	-19.3363E-3	3.89836E-12	118.019E-3	-11.4223E-3
852.926E-6	3.85219E-12	128.755E-3	-18.9016E-3	3.88867E-12	100.306E-3	-13.8469E-3
847.924E-6	3.82309E-12	110.424E-3	-20.8404E-3	3.85087E-12	105.013E-3	-11.9024E-3
842.921E-6	3.77588E-12	109.261E-3	-26.4236E-3	3.82375E-12	106.014E-3	-15.8905E-3
837.919E-6	3.67345E-12	121.551E-3	-24.8218E-3	3.73513E-12	101.388E-3	-8.85895E-3
832.916E-6	3.71469E-12	116.613E-3	-25.1420E-3	3.75492E-12	106.771E-3	-6.92297E-3
827.914E-6	3.74017E-12	104.140E-3	-28.9307E-3	3.67621E-12	107.849E-3	-11.1350E-3
822.911E-6	3.55934E-12	105.499E-3	-27.8031E-3	3.57773E-12	108.652E-3	-2.47181E-3
817.909E-6	3.53583E-12	111.867E-3	-28.6591E-3	3.53488E-12	117.575E-3	-5.92627E-3
812.906E-6	3.55838E-12	123.724E-3	-25.6582E-3	3.56122E-12	111.691E-3	-24.3617E-3
807.904E-6	3.58158E-12	136.841E-3	-13.6548E-3	3.53096E-12	98.8993E-3	-25.1470E-3
802.901E-6	3.47457E-12	133.059E-3	-12.4228E-3	3.47930E-12	99.2526E-3	-18.1166E-3
797.899E-6	3.42169E-12	121.292E-3	-30.3004E-3	3.38600E-12	97.8014E-3	-19.1825E-3
792.896E-6	3.38803E-12	112.799E-3	-38.8720E-3	3.34094E-12	101.884E-3	-12.3829E-3
787.894E-6	3.36141E-12	102.957E-3	-24.9877E-3	3.40464E-12	124.119E-3	-12.5749E-3
782.891E-6	3.28362E-12	103.518E-3	-18.2760E-3	3.27908E-12	124.287E-3	-22.3162E-3
777.889E-6	3.23027E-12	112.986E-3	-14.9305E-3	3.25534E-12	99.2498E-3	-21.3605E-3
772.886E-6	3.27699E-12	105.199E-3	1.75187E-3	3.25036E-12	101.861E-3	-17.4641E-3
767.884E-6	3.20932E-12	93.0794E-3	1.51560E-3	3.25999E-12	116.869E-3	-18.0357E-3
762.881E-6	3.15048E-12	101.632E-3	-8.23172E-3	3.23066E-12	110.140E-3	-18.1943E-3
757.879E-6	3.09637E-12	109.347E-3	213.004E-6	3.11790E-12	98.6337E-3	-15.7527E-3
752.876E-6	3.07879E-12	101.529E-3	3.68284E-3	3.17123E-12	89.0829E-3	-17.1087E-3
747.874E-6	3.09149E-12	94.3769E-3	5.23612E-3	3.13383E-12	83.4941E-3	-22.4645E-3
742.871E-6	3.00713E-12	85.5274E-3	4.99471E-3	3.06629E-12	88.0918E-3	-29.9080E-3
737.869E-6	3.02682E-12	79.0162E-3	-20.7698E-3	3.05487E-12	83.3476E-3	-30.6080E-3
732.866E-6	3.06088E-12	81.0216E-3	-37.3530E-3	2.99164E-12	69.2559E-3	-13.4007E-3
727.864E-6	2.96213E-12	72.4429E-3	-24.5389E-3	2.98660E-12	72.2200E-3	-1.29579E-3
722.861E-6	2.91280E-12	61.2295E-3	-24.7041E-3	2.92921E-12	86.0526E-3	-8.93019E-3
717.859E-6	2.98248E-12	76.2917E-3	-34.3025E-3	2.84130E-12	86.0531E-3	-8.75818E-3
712.856E-6	2.96148E-12	96.2629E-3	-17.9175E-3	2.84887E-12	73.7096E-3	2.09866E-3
707.854E-6	2.81233E-12	94.3462E-3	3.61033E-3	2.76961E-12	70.5373E-3	1.60592E-3
702.851E-6	2.75027E-12	87.9328E-3	1.92136E-3	2.79419E-12	74.6626E-3	-4.41445E-3
697.849E-6	2.80275E-12	81.7989E-3	-4.36449E-3	2.73721E-12	79.2683E-3	-1.61435E-3
692.846E-6	2.78563E-12	81.2302E-3	-5.09310E-3	2.74279E-12	82.8846E-3	-5.07735E-3
687.844E-6	2.66374E-12	94.9509E-3	-10.2360E-3	2.70102E-12	81.4998E-3	-14.0753E-3
682.841E-6	2.57329E-12	102.240E-3	-11.1814E-3	2.67105E-12	85.5466E-3	-6.32122E-3
677.839E-6	2.61903E-12	96.3623E-3	-12.9782E-3	2.61195E-12	87.4002E-3	-1.32557E-3
672.836E-6	2.58652E-12	90.5951E-3	-18.6429E-3	2.68069E-12	77.8570E-3	-10.5318E-3
667.834E-6	2.58812E-12	83.2332E-3	-17.9598E-3	2.64755E-12	75.6700E-3	-15.2733E-3
662.831E-6	2.46953E-12	68.8127E-3	-16.0477E-3	2.51653E-12	89.8654E-3	-20.8290E-3
657.829E-6	2.51479E-12	60.1612E-3	-9.19168E-3	2.57373E-12	95.5448E-3	-26.3555E-3
652.826E-6	2.51193E-12	63.4933E-3	3.83392E-3	2.55389E-12	83.7238E-3	-15.1046E-3
647.824E-6	2.46214E-12	63.9657E-3	5.49648E-3	2.52095E-12	74.0176E-3	-12.0431E-3
642.821E-6	2.39853E-12	63.7930E-3	-4.65286E-3	2.44645E-12	63.0370E-3	-34.6850E-3
637.819E-6	2.47593E-12	66.8812E-3	-5.28224E-3	2.41784E-12	60.6385E-3	-38.2888E-3
632.816E-6	2.46042E-12	62.5461E-3	-6.66533E-3	2.41709E-12	81.9394E-3	-25.1203E-3
627.814E-6	2.36912E-12	59.7301E-3	-20.7973E-3	2.34470E-12	87.6544E-3	-25.0583E-3
622.811E-6	2.36644E-12	68.2751E-3	-24.9482E-3	2.30566E-12	71.8397E-3	-22.0335E-3
617.809E-6	2.35234E-12	74.7916E-3	-30.0494E-3	2.25599E-12	75.3392E-3	-19.0732E-3
612.806E-6	2.29227E-12	82.8435E-3	-39.6925E-3	2.23826E-12	89.0900E-3	-31.1775E-3
607.804E-6	2.22987E-12	88.3783E-3	-25.9764E-3	2.22849E-12	89.7625E-3	-30.4195E-3
602.801E-6	2.27451E-12	74.9795E-3	-10.8920E-3	2.19714E-12	82.1497E-3	-14.7104E-3
597.799E-6	2.18745E-12	64.9613E-3	-14.0875E-3	2.24069E-12	74.9939E-3	-16.0167E-3
592.796E-6	2.08426E-12	79.4450E-3	-14.6086E-3	2.19998E-12	77.8184E-3	-17.1384E-3
587.794E-6	2.07239E-12	98.0949E-3	-4.62145E-3	2.12620E-12	88.5444E-3	-3.89989E-3
582.791E-6	2.15081E-12	98.7243E-3	-6.51592E-3	2.15243E-12	89.3151E-3	6.29225E-3
577.789E-6	2.10974E-12	95.5144E-3	-14.2316E-3	2.12349E-12	68.9173E-3	9.28319E-3
572.786E-6	1.99043E-12	101.033E-3	-8.58629E-3	2.06248E-12	58.8886E-3	2.94547E-3
567.784E-6	1.93311E-12	100.492E-3	2.77082E-3	2.01169E-12	72.5581E-3	-12.6262E-3
562.781E-6	2.01642E-12	95.2661E-3	11.6199E-3	1.97560E-12	78.5212E-3	-20.0702E-3
557.779E-6	2.04493E-12	84.1616E-3	-595.232E-6	1.99486E-12	78.1773E-3	-18.5881E-3
552.776E-6	1.96552E-12	74.0865E-3	-25.0771E-3	1.99089E-12	74.1967E-3	-27.6846E-3
547.774E-6	1.91489E-12	79.4909E-3	-28.1897E-3	1.87782E-12	58.9648E-3	-32.1738E-3
542.771E-6	1.90069E-12	74.8627E-3	-19.7339E-3	1.92072E-12	63.6432E-3	-24.5496E-3
537.769E-6	1.94435E-12	58.0112E-3	-20.0128E-3	1.90097E-12	80.7045E-3	-23.6263E-3
532.766E-6	1.84217E-12	70.7756E-3	-20.7487E-3	1.80177E-12	71.7006E-3	-14.0130E-3
527.764E-6	1.79990E-12	88.7991E-3	-19.7523E-3	1.76179E-12	60.8088E-3	1.10362E-3
522.761E-6	1.79914E-12	76.0880E-3	-22.3039E-3	1.80861E-12	67.7342E-3	-8.72410E-3
517.759E-6	1.78804E-12	73.6483E-3	-21.5119E-3	1.77894E-12	74.0474E-3	-22.6724E-3
512.756E-6	1.71329E-12	82.0588E-3	-14.2764E-3	1.75288E-12	82.1972E-3	-19.2411E-3
507.754E-6	1.68726E-12	69.9397E-3	-20.0609E-3	1.64255E-12	93.2236E-3	-19.2134E-3
502.751E-6	1.66988E-12	67.2515E-3	-35.2014E-3	1.65777E-12	88.8777E-3	-15.0329E-3
497.749E-6	1.63158E-12	76.9316E-3	-33.7359E-3	1.67705E-12	85.0609E-3	1.64704E-3
492.746E-6	1.58670E-12	69.7043E-3	-28.6035E-3	1.63773E-12	92.0075E-3	549.996E-6
487.744E-6	1.55887E-12	75.3380E-3	-22.9854E-3	1.59467E-12	81.2153E-3	-20.4719E-3
482.741E-6	1.54627E-12	92.9208E-3	-13.7924E-3	1.56774E-12	67.1048E-3	-32.0779E-3
477.739E-6	1.50330E-12	80.8107E-3	-17.3791E-3	1.57378E-12	69.6823E-3	-29.4899E-3
472.736E-6	1.38295E-12	62.7495E-3	-29.8804E-3	1.50489E-12	67.7385E-3	-29.0481E-3
467.734E-6	1.46064E-12	73.9163E-3	-25.2617E-3	1.51894E-12	67.4186E-3	-26.5099E-3
462.731E-6	1.44173E-12	79.4162E-3	-7.06246E-3	1.47061E-12	79.7697E-3	-18.5293E-3
457.729E-6	1.36508E-12	60.6855E-3	-3.19667E-3	1.40108E-12	81.9660E-3	-17.5068E-3
452.726E-6	1.33421E-12	55.3450E-3	-1.16970E-3	1.40602E-12	73.5941E-3	-16.8718E-3
447.724E-6	1.36128E-12	70.5397E-3	3.15398E-3	1.38563E-12	73.3213E-3	-12.0678E-3
442.721E-6	1.36011E-12	77.2630E-3	-585.772E-6	1.34623E-12	76.4092E-3	-12.8818E-3
437.719E-6	1.26556E-12	69.9276E-3	-1.11922E-3	1.28183E-12	84.1869E-3	-14.6032E-3
432.716E-6	1.18263E-12	63.7377E-3	-3.04078E-3	1.19712E-12	99.2622E-3	-17.7059E-3
427.714E-6	1.23632E-12	69.3326E-3	-10.8432E-3	1.21545E-12	100.127E-3	-16.5838E-3
422.711E-6	1.22242E-12	83.8614E-3	-11.3245E-3	1.23727E-12	82.5364E-3	-7.75222E-3
417.709E-6	1.21813E-12	86.5137E-3	-4.64519E-3	1.16496E-12	75.8633E-3	-13.8372E-3
412.706E-6	1.09145E-12	78.8637E-3	-6.68347E-3	1.08458E-12	80.4324E-3	-22.1178E-3
407.704E-6	1.14093E-12	76.4737E-3	-15.7972E-3	1.10848E-12	78.8207E-3	-13.8442E-3
402.701E-6	1.12654E-12	73.1496E-3	-11.9524E-3	1.14095E-12	86.2593E-3	-9.32453E-3
397.699E-6	1.05596E-12	75.7239E-3	-4.46793E-3	1.07498E-12	102.661E-3	-11.2719E-3
392.696E-6	1.04249E-12	92.0276E-3	-3.50901E-3	1.00957E-12	101.333E-3	-10.6850E-3
387.694E-6	1.03275E-12	91.5304E-3	2.01704E-3	981.312E-15	91.3715E-3	-16.8985E-3
382.691E-6	981.164E-15	77.8196E-3	-220.416E-6	974.302E-15	90.0163E-3	-28.9502E-3
377.689E-6	933.164E-15	76.5117E-3	-9.48413E-3	982.960E-15	90.0244E-3	-23.5808E-3
372.686E-6	934.577E-15	78.8712E-3	-6.80427E-3	923.669E-15	87.6423E-3	-4.02028E-3
367.684E-6	956.061E-15	89.1666E-3	-6.21183E-3	888.809E-15	80.9586E-3	-9.62946E-3
362.681E-6	902.359E-15	104.301E-3	-11.8372E-3	892.210E-15	69.8053E-3	-20.7108E-3
357.679E-6	820.738E-15	94.6355E-3	-3.69162E-3	840.243E-15	71.1942E-3	-3.62561E-3
352.676E-6	835.543E-15	73.7484E-3	-1.93722E-3	830.686E-15	84.8456E-3	1.96732E-3
347.674E-6	834.331E-15	71.4758E-3	-17.6080E-3	793.900E-15	82.0764E-3	-13.0688E-3
342.671E-6	698.772E-15	79.9308E-3	-24.4282E-3	826.213E-15	71.7739E-3	-14.7625E-3
337.669E-6	675.683E-15	80.2428E-3	-27.2615E-3	703.507E-15	78.0161E-3	-9.68028E-3
332.666E-6	726.761E-15	74.9843E-3	-29.1605E-3	711.293E-15	89.8187E-3	-8.52815E-3
327.664E-6	742.447E-15	78.1032E-3	-15.1208E-3	711.790E-15	92.6525E-3	-2.90854E-3
322.661E-6	647.084E-15	75.3424E-3	-9.05738E-3	671.821E-15	85.0143E-3	-5.74329E-3
317.659E-6	607.542E-15	70.5011E-3	-10.7881E-3	623.237E-15	63.7524E-3	-31.4675E-3
312.656E-6	624.684E-15	76.8187E-3	3.44627E-3	652.481E-15	48.7878E-3	-48.7895E-3
307.654E-6	621.894E-15	73.2654E-3	8.11324E-3	620.106E-15	57.6917E-3	-40.9142E-3
302.651E-6	559.158E-15	68.3143E-3	-516.410E-6	576.475E-15	61.7681E-3	-21.5023E-3
297.649E-6	565.654E-15	72.8913E-3	-4.91407E-3	518.866E-15	56.2786E-3	464.818E-6
292.646E-6	548.974E-15	64.0135E-3	-14.4019E-3	520.384E-15	60.4033E-3	101.353E-6
287.644E-6	513.687E-15	57.2190E-3	-22.2650E-3	547.222E-15	62.8873E-3	-14.6064E-3
282.641E-6	524.752E-15	67.5289E-3	-18.7362E-3	509.737E-15	60.0996E-3	-16.1203E-3
277.639E-6	464.388E-15	69.3603E-3	-5.95663E-3	390.239E-15	60.2428E-3	-16.9874E-3
272.636E-6	467.082E-15	62.0076E-3	495.797E-6	427.619E-15	47.8543E-3	-23.4201E-3
267.634E-6	463.856E-15	62.9121E-3	-5.79841E-3	484.669E-15	31.2395E-3	-20.3711E-3
262.631E-6	374.510E-15	57.6424E-3	-18.5650E-3	446.043E-15	35.3122E-3	-14.6459E-3
257.629E-6	371.013E-15	51.9939E-3	-34.8004E-3	382.174E-15	47.4846E-3	-17.3559E-3
252.626E-6	361.300E-15	61.6566E-3	-37.2911E-3	355.100E-15	45.4960E-3	-12.8322E-3
247.624E-6	357.803E-15	59.0837E-3	-22.0855E-3	361.553E-15	40.9522E-3	-13.4028E-3
242.621E-6	311.670E-15	39.6381E-3	-13.7040E-3	373.899E-15	37.5393E-3	-30.6504E-3
237.619E-6	309.071E-15	31.8525E-3	-18.5519E-3	349.799E-15	30.3380E-3	-28.9619E-3
232.616E-6	367.273E-15	35.6154E-3	-14.4018E-3	300.491E-15	34.7831E-3	-14.8531E-3
227.614E-6	297.945E-15	41.7817E-3	-13.3419E-3	337.505E-15	43.0965E-3	-16.3184E-3
222.611E-6	220.945E-15	45.7844E-3	-24.6972E-3	256.005E-15	40.3522E-3	-16.9314E-3
217.609E-6	295.984E-15	45.5617E-3	-18.7140E-3	275.467E-15	30.4964E-3	-12.5889E-3
212.606E-6	288.494E-15	51.6902E-3	-11.0729E-3	258.639E-15	26.2622E-3	-20.6444E-3
207.604E-6	201.745E-15	61.9176E-3	-17.6001E-3	213.150E-15	24.7453E-3	-28.5069E-3
202.601E-6	157.626E-15	55.9166E-3	-22.0365E-3	168.716E-15	23.5481E-3	-25.4656E-3
197.599E-6	248.812E-15	38.6929E-3	-27.3675E-3	207.448E-15	27.3910E-3	-19.6328E-3
192.596E-6	237.494E-15	38.9185E-3	-36.5992E-3	195.947E-15	21.7369E-3	-10.0941E-3
187.594E-6	139.053E-15	38.7101E-3	-33.3705E-3	163.180E-15	13.3914E-3	-4.43992E-3
182.591E-6	119.836E-15	26.3371E-3	-17.7684E-3	131.206E-15	16.6257E-3	-17.9005E-3
177.589E-6	141.495E-15	33.7365E-3	-16.4032E-3	135.880E-15	16.7887E-3	-26.3741E-3
172.586E-6	190.846E-15	42.4356E-3	-24.1597E-3	151.147E-15	19.6878E-3	-16.2947E-3
167.584E-6	151.932E-15	26.8163E-3	-27.9380E-3	123.934E-15	27.1489E-3	-25.1888E-3
162.581E-6	89.9376E-15	19.1706E-3	-34.3490E-3	40.8304E-15	22.5249E-3	-37.9417E-3
157.579E-6	81.6716E-15	23.6266E-3	-38.5327E-3	95.0645E-15	21.0264E-3	-22.6014E-3
152.576E-6	100.314E-15	21.6145E-3	-37.2114E-3	127.526E-15	27.6234E-3	-21.0923E-3
147.574E-6	63.0734E-15	22.1786E-3	-24.2725E-3	92.0127E-15	23.6561E-3	-35.3005E-3
142.571E-6	40.4468E-15	30.6939E-3	-3.55238E-3	9.92919E-15	17.9721E-3	-28.5547E-3
137.569E-6	59.0799E-15	34.6932E-3	886.789E-6	38.0838E-15	20.0465E-3	-20.8841E-3
132.566E-6	36.7847E-15	30.3828E-3	-8.66309E-3	47.5007E-15	23.4805E-3	-23.3709E-3
127.564E-6	33.5149E-15	29.3259E-3	-11.6913E-3	14.3237E-15	33.4328E-3	-22.3460E-3
122.561E-6	27.9171E-15	26.8457E-3	-11.4294E-3	62.7682E-15	35.4625E-3	-12.0808E-3
117.559E-6	-30.0488E-15	18.6645E-3	-14.5540E-3	15.3357E-18	20.0600E-3	2.15863E-3
112.556E-6	34.8402E-15	14.6358E-3	-18.3182E-3	-8.70397E-15	9.31335E-3	2.45036E-3
107.554E-6	-65.4754E-15	11.2160E-3	-17.6430E-3	-42.6744E-15	13.3881E-3	-14.7557E-3
102.551E-6	-16.3857E-15	13.0096E-3	-10.6187E-3	-29.5780E-15	16.9477E-3	-28.2640E-3
97.5488E-6	37.2206E-15	20.5946E-3	-5.72197E-3	-21.6696E-15	13.2483E-3	-22.1823E-3
92.5463E-6	-46.5196E-15	16.6105E-3	-9.81215E-3	-29.0810E-15	14.8861E-3	-14.2708E-3
87.5438E-6	-74.0726E-15	17.2358E-3	-13.9399E-3	-66.7048E-15	19.9310E-3	-17.9270E-3
82.5413E-6	-40.4335E-15	27.4892E-3	1.16762E-3	-41.6281E-15	22.1407E-3	-15.4362E-3
77.5388E-6	-10.9187E-15	21.0292E-3	13.2226E-3	-47.9060E-15	27.0240E-3	-5.63365E-3
72.5363E-6	-136.172E-15	16.6089E-3	-4.04398E-3	-100.326E-15	28.7720E-3	-2.87036E-3
67.5338E-6	-139.764E-15	27.3127E-3	-21.7547E-3	-115.760E-15	16.0224E-3	-9.79946E-3
62.5313E-6	-77.5865E-15	28.3276E-3	-28.2435E-3	-92.3483E-15	9.35142E-3	-22.3924E-3
57.5288E-6	-39.8755E-15	15.5394E-3	-29.3271E-3	-60.0258E-15	15.1553E-3	-30.3462E-3
52.5263E-6	-89.0437E-15	10.6976E-3	-10.0136E-3	-64.2460E-15	8.08342E-3	-28.5923E-3
47.5238E-6	-152.546E-15	18.5153E-3	961.530E-6	-124.767E-15	3.92091E-3	-26.0026E-3
42.5213E-6	-124.095E-15	16.8132E-3	-14.6768E-3	-106.657E-15	11.3529E-3	-20.9940E-3
37.5188E-6	-123.093E-15	14.3176E-3	-26.9597E-3	-61.2901E-15	5.37355E-3	-16.1859E-3
32.5163E-6	-124.078E-15	9.80131E-3	-23.9098E-3	-132.509E-15	9.06682E-3	-24.7652E-3
27.5138E-6	-135.186E-15	-5.85259E-3	-12.9767E-3	-191.443E-15	24.6186E-3	-34.9315E-3
22.5113E-6	-128.359E-15	-1.35114E-3	-4.24822E-3	-141.482E-15	23.2825E-3	-31.0704E-3
17.5088E-6	-127.496E-15	8.89724E-3	-3.53124E-3	-135.221E-15	26.6179E-3	-16.3794E-3
12.5063E-6	-179.663E-15	2.48506E-3	-17.3688E-3	-130.844E-15	37.1890E-3	-11.8726E-3
7.50375E-6	-154.203E-15	5.04653E-3	-32.7332E-3	-208.054E-15	30.1776E-3	-23.8915E-3
2.50125E-6	-160.472E-15	8.34614E-3	-25.0623E-3	-151.831E-15	17.9850E-3	-35.8957E-3
-2.50125E-6	-161.867E-15	7.45978E-3	-10.7539E-3	-196.736E-15	18.9601E-3	-39.9996E-3
-7.50375E-6	-200.921E-15	20.7710E-3	-13.6493E-3	-149.451E-15	12.9390E-3	-30.2665E-3
-12.5063E-6	-181.050E-15	24.3978E-3	-22.4065E-3	-209.501E-15	2.54885E-3	-14.1184E-3
-17.5088E-6	-143.156E-15	13.6938E-3	-29.3504E-3	-223.574E-15	6.13295E-3	-8.02400E-3
-22.5113E-6	-232.346E-15	14.8355E-3	-32.0581E-3	-206.876E-15	6.35474E-3	-11.2442E-3
-27.5138E-6	-252.260E-15	17.0812E-3	-22.3669E-3	-222.161E-15	6.01839E-3	-10.4551E-3
-32.5163E-6	-197.006E-15	5.04969E-3	-12.5769E-3	-236.365E-15	16.9214E-3	-4.58395E-3
-37.5188E-6	-173.577E-15	4.91569E-3	-12.9438E-3	-235.824E-15	18.3685E-3	-3.50895E-3
-42.5213E-6	-251.981E-15	25.1512E-3	-12.2862E-3	-240.254E-15	10.8121E-3	-1.21623E-3
-47.5238E-6	-277.407E-15	30.0466E-3	-9.48521E-3	-257.640E-15	10.8764E-3	-3.00292E-3
-52.5263E-6	-218.700E-15	18.9681E-3	-10.6402E-3	-229.538E-15	13.3279E-3	-19.5018E-3
-57.5288E-6	-243.314E-15	15.8087E-3	-4.33615E-3	-258.905E-15	19.4227E-3	-24.8163E-3
-62.5313E-6	-268.818E-15	19.6297E-3	-4.13558E-3	-263.683E-15	25.7781E-3	-16.5658E-3
-67.5338E-6	-289.631E-15	24.2824E-3	-20.9900E-3	-316.574E-15	23.1281E-3	-23.2145E-3
-72.5363E-6	-251.127E-15	31.7523E-3	-25.2643E-3	-280.729E-15	23.7650E-3	-37.3067E-3
-77.5388E-6	-252.260E-15	40.0440E-3	-22.2855E-3	-269.647E-15	29.3909E-3	-39.1740E-3
-82.5413E-6	-291.192E-15	39.0092E-3	-30.4714E-3	-284.452E-15	27.4902E-3	-33.2905E-3
-87.5438E-6	-301.629E-15	35.9640E-3	-29.1913E-3	-353.971E-15	23.4897E-3	-25.1566E-3
-92.5463E-6	-329.880E-15	33.3774E-3	-20.0279E-3	-323.227E-15	31.2258E-3	-19.1538E-3
-97.5488E-6	-274.774E-15	24.8609E-3	-16.6481E-3	-307.009E-15	36.0505E-3	-27.2178E-3
-102.551E-6	-363.083E-15	18.4881E-3	-9.25613E-3	-323.366E-15	34.6796E-3	-34.9941E-3
-107.554E-6	-378.342E-15	13.1441E-3	-8.34855E-3	-394.751E-15	45.3325E-3	-30.7290E-3
-112.556E-6	-384.463E-15	16.8196E-3	-21.7122E-3	-410.437E-15	46.2054E-3	-27.3468E-3
-117.559E-6	-360.092E-15	28.4382E-3	-18.8946E-3	-369.134E-15	29.5470E-3	-23.8423E-3
-122.561E-6	-411.745E-15	25.9470E-3	-4.29186E-3	-394.193E-15	22.8752E-3	-25.4526E-3
-127.564E-6	-386.372E-15	22.4110E-3	-6.84420E-3	-433.012E-15	27.5411E-3	-34.6772E-3
-132.566E-6	-384.306E-15	32.2533E-3	-20.3972E-3	-411.362E-15	30.1887E-3	-32.4603E-3
-137.569E-6	-449.648E-15	37.8968E-3	-29.6256E-3	-433.544E-15	36.2229E-3	-23.4127E-3
-142.571E-6	-490.167E-15	36.6160E-3	-29.7700E-3	-462.570E-15	42.1317E-3	-27.9969E-3
-147.574E-6	-466.093E-15	33.1761E-3	-23.0083E-3	-484.935E-15	40.8512E-3	-25.6625E-3
-152.576E-6	-396.486E-15	25.7874E-3	-13.2895E-3	-441.783E-15	39.1936E-3	-12.5702E-3
-157.579E-6	-457.243E-15	29.0808E-3	-15.6317E-3	-472.188E-15	30.7820E-3	-10.3129E-3
-162.581E-6	-500.229E-15	42.2520E-3	-24.1085E-3	-510.151E-15	28.1596E-3	-4.38839E-3
-167.584E-6	-524.451E-15	46.0861E-3	-21.6022E-3	-492.608E-15	47.6619E-3	-2.17519E-3
-172.586E-6	-444.478E-15	41.3382E-3	-17.3227E-3	-500.098E-15	53.7198E-3	-21.7835E-3
-177.589E-6	-580.202E-15	43.2356E-3	-15.9151E-3	-562.084E-15	41.5231E-3	-27.3322E-3
-182.591E-6	-606.849E-15	51.6168E-3	-10.0737E-3	-607.093E-15	48.9351E-3	-10.9223E-3
-187.594E-6	-567.603E-15	50.7185E-3	-8.82444E-3	-571.274E-15	63.3915E-3	1.03998E-3
-192.596E-6	-553.347E-15	43.6195E-3	-20.5229E-3	-571.701E-15	57.7474E-3	3.57543E-3
-197.599E-6	-646.861E-15	45.6469E-3	-21.2202E-3	-622.596E-15	51.5032E-3	-2.97312E-3
-202.601E-6	-674.885E-15	49.8693E-3	-9.65949E-3	-670.508E-15	58.9876E-3	-18.8566E-3
-207.604E-6	-670.090E-15	46.8317E-3	-10.4145E-3	-700.415E-15	60.6013E-3	-26.8802E-3
-212.606E-6	-660.559E-15	51.4342E-3	-6.71268E-3	-661.649E-15	64.1990E-3	-9.56267E-3
-217.609E-6	-675.530E-15	50.9885E-3	239.136E-6	-687.363E-15	77.9066E-3	139.448E-6
-222.611E-6	-737.281E-15	42.1925E-3	-4.90498E-3	-769.908E-15	71.1399E-3	-15.4098E-3
-227.614E-6	-715.273E-15	52.9977E-3	-9.58775E-3	-737.908E-15	52.9514E-3	-24.4087E-3
-232.616E-6	-788.698E-15	68.0611E-3	-16.0387E-3	-737.289E-15	48.1458E-3	-22.0396E-3
-237.619E-6	-778.976E-15	75.0158E-3	-21.2894E-3	-744.858E-15	44.7427E-3	-18.8360E-3
-242.621E-6	-810.924E-15	75.3749E-3	-19.6105E-3	-835.382E-15	52.7730E-3	-19.0421E-3
-247.624E-6	-856.465E-15	57.3991E-3	-22.3242E-3	-856.317E-15	70.4656E-3	-32.3565E-3
-252.626E-6	-865.515E-15	46.3379E-3	-31.1683E-3	-891.421E-15	74.6355E-3	-44.5192E-3
-257.629E-6	-878.891E-15	62.2741E-3	-27.3882E-3	-878.438E-15	85.5989E-3	-36.8962E-3
-262.631E-6	-935.671E-15	82.1048E-3	-13.0127E-3	-937.275E-15	111.150E-3	-29.4663E-3
-267.634E-6	-885.003E-15	91.3807E-3	-12.1295E-3	-928.940E-15	112.061E-3	-30.7068E-3
-272.636E-6	-965.517E-15	90.4496E-3	-21.4537E-3	-958.027E-15	92.8895E-3	-29.3045E-3
-277.639E-6	-1.02279E-12	82.9992E-3	-18.6393E-3	-1.03649E-12	84.0308E-3	-32.4333E-3
-282.641E-6	-1.00534E-12	77.5973E-3	-9.33333E-3	-1.04870E-12	85.9191E-3	-34.2147E-3
-287.644E-6	-995.128E-15	74.2423E-3	-12.0921E-3	-1.04692E-12	93.0011E-3	-18.9407E-3
-292.646E-6	-1.13116E-12	73.7133E-3	-20.8813E-3	-1.12233E-12	96.5856E-3	-2.67783E-3
-297.649E-6	-1.17420E-12	76.1128E-3	-23.0524E-3	-1.17199E-12	92.3963E-3	3.82911E-3
-302.651E-6	-1.16361E-12	84.2749E-3	-13.3897E-3	-1.14663E-12	87.9043E-3	-97.5345E-6
-307.654E-6	-1.16517E-12	100.173E-3	-1.72912E-3	-1.21486E-12	96.5966E-3	-14.1683E-3
-312.656E-6	-1.26352E-12	108.730E-3	-2.81567E-3	-1.25927E-12	106.673E-3	-21.0630E-3
-317.659E-6	-1.33720E-12	101.576E-3	-12.8231E-3	-1.27059E-12	90.6527E-3	-15.5874E-3
-322.661E-6	-1.33418E-12	92.9915E-3	-26.5407E-3	-1.30384E-12	78.5598E-3	-6.00255E-3
-327.664E-6	-1.29647E-12	93.5662E-3	-31.3614E-3	-1.25453E-12	96.3626E-3	-4.25031E-3
-332.666E-6	-1.36046E-12	99.3854E-3	-25.2502E-3	-1.34854E-12	109.594E-3	-10.6426E-3
-337.669E-6	-1.45845E-12	94.3199E-3	-18.3096E-3	-1.41208E-12	104.821E-3	-12.2379E-3
-342.671E-6	-1.45535E-12	86.4259E-3	-12.8592E-3	-1.43224E-12	99.8930E-3	-10.8995E-3
-347.674E-6	-1.46082E-12	92.9513E-3	-5.37691E-3	-1.44652E-12	95.7002E-3	-19.2146E-3
-352.676E-6	-1.46349E-12	98.9634E-3	20.6474E-6	-1.47673E-12	92.6075E-3	-25.6106E-3
-357.679E-6	-1.57431E-12	99.2613E-3	-10.5192E-3	-1.57685E-12	91.0374E-3	-22.8920E-3
-362.681E-6	-1.51200E-12	108.258E-3	-20.9027E-3	-1.58872E-12	89.6132E-3	-22.9242E-3
-367.684E-6	-1.62961E-12	113.677E-3	-23.1929E-3	-1.67427E-12	107.117E-3	-19.8351E-3
-372.686E-6	-1.62135E-12	103.156E-3	-27.2799E-3	-1.65969E-12	131.276E-3	-14.5943E-3
-377.689E-6	-1.66903E-12	102.464E-3	-20.9395E-3	-1.77956E-12	123.869E-3	-15.4250E-3
-382.691E-6	-1.73771E-12	114.804E-3	-7.91384E-3	-1.76724E-12	110.152E-3	-21.2711E-3
-387.694E-6	-1.76938E-12	110.874E-3	-7.59100E-3	-1.84688E-12	122.625E-3	-25.8095E-3
-392.696E-6	-1.81425E-12	104.913E-3	-16.0749E-3	-1.85782E-12	130.460E-3	-22.9683E-3
-397.699E-6	-1.85303E-12	117.189E-3	-21.7476E-3	-1.90373E-12	121.065E-3	-27.0656E-3
-402.701E-6	-1.87764E-12	119.837E-3	-25.7923E-3	-1.89900E-12	118.260E-3	-31.1135E-3
-407.704E-6	-1.97397E-12	115.250E-3	-26.3555E-3	-1.90339E-12	120.251E-3	-16.9303E-3
-412.706E-6	-2.03137E-12	114.520E-3	-13.0282E-3	-2.00341E-12	120.503E-3	-1.65301E-3
-417.709E-6	-2.02625E-12	109.534E-3	-3.07854E-3	-2.02061E-12	118.965E-3	975.281E-6
-422.711E-6	-2.06306E-12	104.135E-3	-14.4397E-3	-2.00126E-12	110.014E-3	-4.99498E-3
-427.714E-6	-2.13915E-12	102.128E-3	-27.2745E-3	-2.10847E-12	106.530E-3	-12.3829E-3
-432.716E-6	-2.20888E-12	111.595E-3	-20.3661E-3	-2.15477E-12	110.246E-3	-20.6207E-3
-437.719E-6	-2.19429E-12	127.978E-3	-10.7005E-3	-2.14457E-12	109.797E-3	-22.6928E-3
-442.721E-6	-2.19218E-12	132.659E-3	-18.9688E-3	-2.18658E-12	113.126E-3	-18.0218E-3
-447.724E-6	-2.30683E-12	124.351E-3	-22.2772E-3	-2.29620E-12	119.736E-3	-19.3661E-3
-452.726E-6	-2.36990E-12	116.934E-3	-13.6841E-3	-2.33507E-12	124.895E-3	-21.2127E-3
-457.729E-6	-2.34251E-12	121.958E-3	-8.94931E-3	-2.35718E-12	127.201E-3	-12.2287E-3
-462.731E-6	-2.35315E-12	125.125E-3	-6.38741E-3	-2.35752E-12	127.883E-3	-3.73182E-3
-467.734E-6	-2.44076E-12	126.347E-3	-12.9693E-3	-2.44293E-12	128.719E-3	-6.91672E-3
-472.736E-6	-2.52638E-12	134.470E-3	-18.9677E-3	-2.52440E-12	122.727E-3	-15.8117E-3
-477.739E-6	-2.53009E-12	125.648E-3	-12.1444E-3	-2.54305E-12	114.259E-3	-30.1798E-3
-482.741E-6	-2.58043E-12	111.405E-3	-9.59994E-3	-2.53028E-12	115.135E-3	-38.4384E-3
-487.744E-6	-2.61964E-12	110.562E-3	-17.6998E-3	-2.64278E-12	120.943E-3	-27.8627E-3
-492.746E-6	-2.62478E-12	115.597E-3	-18.4642E-3	-2.70015E-12	127.579E-3	-16.4236E-3
-497.749E-6	-2.72676E-12	125.871E-3	-15.1279E-3	-2.70416E-12	134.644E-3	-17.7502E-3
-502.751E-6	-2.75277E-12	125.447E-3	-19.0518E-3	-2.82462E-12	139.832E-3	-22.7251E-3
-507.754E-6	-2.80327E-12	116.977E-3	-24.5402E-3	-2.80676E-12	142.311E-3	-18.4724E-3
-512.756E-6	-2.81534E-12	114.943E-3	-28.8861E-3	-2.80445E-12	133.472E-3	-10.1083E-3
-517.759E-6	-2.89243E-12	110.761E-3	-27.3886E-3	-2.88359E-12	124.327E-3	-5.14860E-3
-522.761E-6	-2.91659E-12	109.845E-3	-28.5247E-3	-2.96522E-12	128.966E-3	-4.51541E-3
-527.764E-6	-3.00868E-12	117.557E-3	-27.6922E-3	-2.98253E-12	128.236E-3	-11.0188E-3
-532.766E-6	-3.06994E-12	128.081E-3	-8.13902E-3	-3.09600E-12	119.704E-3	-6.95202E-3
-537.769E-6	-3.01892E-12	135.678E-3	22.2354E-3	-3.08417E-12	120.088E-3	7.51546E-3
-542.771E-6	-3.10148E-12	135.119E-3	26.7407E-3	-3.13184E-12	123.510E-3	-688.118E-6
-547.774E-6	-3.18598E-12	139.173E-3	9.76329E-3	-3.22342E-12	125.487E-3	-14.1491E-3
-552.776E-6	-3.20504E-12	142.342E-3	1.21014E-3	-3.21108E-12	127.703E-3	-16.2296E-3
-557.779E-6	-3.20721E-12	133.777E-3	-9.73525E-3	-3.24717E-12	124.811E-3	-24.3230E-3
-562.781E-6	-3.30700E-12	127.544E-3	-25.0950E-3	-3.32092E-12	120.381E-3	-24.9739E-3
-567.784E-6	-3.39564E-12	123.672E-3	-32.1701E-3	-3.36557E-12	119.192E-3	-18.1233E-3
-572.786E-6	-3.44405E-12	121.547E-3	-27.1703E-3	-3.41843E-12	116.074E-3	-22.4939E-3
-577.789E-6	-3.42835E-12	120.781E-3	-13.7508E-3	-3.46009E-12	113.565E-3	-30.5773E-3
-582.791E-6	-3.46166E-12	114.585E-3	-10.7973E-3	-3.44125E-12	115.891E-3	-28.9733E-3
-587.794E-6	-3.52140E-12	110.503E-3	-25.3324E-3	-3.47291E-12	112.794E-3	-22.8429E-3
-592.796E-6	-3.55488E-12	118.456E-3	-32.9162E-3	-3.49278E-12	108.737E-3	-19.1121E-3
-597.799E-6	-3.55290E-12	121.531E-3	-21.6978E-3	-3.54090E-12	110.728E-3	-25.3890E-3
-602.801E-6	-3.60756E-12	113.297E-3	-5.78221E-3	-3.63241E-12	106.732E-3	-34.2013E-3
-607.804E-6	-3.65872E-12	109.292E-3	-2.79172E-3	-3.67031E-12	98.9946E-3	-31.9763E-3
-612.806E-6	-3.68301E-12	114.396E-3	-8.90470E-3	-3.70283E-12	99.6340E-3	-28.2122E-3
-617.809E-6	-3.73476E-12	120.327E-3	-17.7432E-3	-3.80272E-12	103.885E-3	-31.9677E-3
-622.811E-6	-3.79835E-12	125.490E-3	-30.1634E-3	-3.81919E-12	103.988E-3	-34.1240E-3
-627.814E-6	-3.81765E-12	129.108E-3	-30.6366E-3	-3.90744E-12	109.888E-3	-22.2402E-3
-632.816E-6	-3.90865E-12	118.902E-3	-16.4568E-3	-3.91230E-12	120.475E-3	-12.3618E-3
-637.819E-6	-3.92970E-12	102.003E-3	-5.00019E-3	-3.98228E-12	124.216E-3	-13.7943E-3
-642.821E-6	-3.99842E-12	103.834E-3	-5.24504E-3	-4.03565E-12	119.345E-3	-15.1429E-3
-647.824E-6	-4.06307E-12	118.588E-3	-11.2835E-3	-4.02895E-12	118.844E-3	-14.2472E-3
-652.826E-6	-4.06765E-12	118.212E-3	-14.4322E-3	-4.00918E-12	119.827E-3	-9.10469E-3
-657.829E-6	-4.11598E-12	110.126E-3	-9.89814E-3	-4.02823E-12	114.508E-3	-8.87882E-3
-662.831E-6	-4.20093E-12	103.879E-3	-4.93697E-3	-4.14471E-12	114.290E-3	-19.2212E-3
-667.834E-6	-4.17534E-12	96.0066E-3	-10.0216E-3	-4.14149E-12	114.438E-3	-21.7426E-3
-672.836E-6	-4.15381E-12	95.2254E-3	-17.1054E-3	-4.15971E-12	115.031E-3	-6.73696E-3
-677.839E-6	-4.25005E-12	101.595E-3	-18.2701E-3	-4.21129E-12	116.429E-3	1.82199E-3
-682.841E-6	-4.31070E-12	110.881E-3	-16.3479E-3	-4.26929E-12	113.236E-3	-5.35282E-3
-687.844E-6	-4.26684E-12	122.394E-3	-13.0397E-3	-4.28285E-12	113.909E-3	-17.2138E-3
-692.846E-6	-4.25230E-12	122.912E-3	-13.2021E-3	-4.33406E-12	120.460E-3	-16.7522E-3
-697.849E-6	-4.37723E-12	114.849E-3	-21.3088E-3	-4.40861E-12	134.626E-3	-2.54470E-3
-702.851E-6	-4.44113E-12	114.020E-3	-26.6601E-3	-4.47536E-12	140.414E-3	1.01259E-3
-707.854E-6	-4.44447E-12	115.417E-3	-19.9444E-3	-4.56941E-12	129.741E-3	-3.56607E-3
-712.856E-6	-4.44033E-12	115.143E-3	-9.64431E-3	-4.61374E-12	121.131E-3	-1.56732E-3
-717.859E-6	-4.55254E-12	118.850E-3	-16.1480E-3	-4.66716E-12	124.048E-3	-873.248E-6
-722.861E-6	-4.61211E-12	123.755E-3	-24.2665E-3	-4.80559E-12	142.437E-3	-8.35107E-3
-727.864E-6	-4.64119E-12	122.869E-3	-14.7518E-3	-4.76259E-12	153.132E-3	-10.7438E-3
-732.866E-6	-4.70280E-12	115.830E-3	-8.91580E-3	-4.69824E-12	142.454E-3	-6.62504E-3
-737.869E-6	-4.75550E-12	113.604E-3	-3.16951E-3	-4.81369E-12	135.311E-3	-8.26229E-3
-742.871E-6	-4.83571E-12	117.168E-3	-1.46862E-3	-4.80235E-12	138.269E-3	-17.3412E-3
-747.874E-6	-4.92692E-12	124.949E-3	-10.9311E-3	-4.82150E-12	140.212E-3	-13.9963E-3
-752.876E-6	-4.94116E-12	130.838E-3	-9.96668E-3	-4.88763E-12	145.227E-3	5.87072E-3
-757.879E-6	-4.96730E-12	128.132E-3	-7.50160E-3	-4.88882E-12	146.534E-3	6.76134E-3
-762.881E-6	-5.04689E-12	126.936E-3	-3.54532E-3	-4.90764E-12	141.348E-3	-10.7136E-3
-767.884E-6	-5.02236E-12	128.274E-3	5.13226E-3	-4.98598E-12	145.321E-3	-23.7199E-3
-772.886E-6	-5.03042E-12	124.683E-3	-4.42021E-3	-5.02633E-12	151.075E-3	-36.7794E-3
-777.889E-6	-5.11011E-12	123.690E-3	-14.9451E-3	-5.07466E-12	145.224E-3	-34.0473E-3
-782.891E-6	-5.10954E-12	134.200E-3	-4.62416E-3	-5.13931E-12	138.370E-3	-9.50973E-3
-787.894E-6	-5.07367E-12	146.206E-3	-722.255E-6	-5.19960E-12	135.124E-3	-5.85037E-3
-792.896E-6	-5.18035E-12	147.464E-3	-21.0077E-3	-5.29726E-12	138.957E-3	-24.0846E-3
-797.899E-6	-5.25683E-12	140.335E-3	-32.7950E-3	-5.37602E-12	148.971E-3	-29.4136E-3
-802.901E-6	-5.24459E-12	137.793E-3	-20.2979E-3	-5.41941E-12	148.681E-3	-23.9944E-3
-807.904E-6	-5.27932E-12	140.806E-3	-5.83962E-3	-5.45920E-12	146.796E-3	-17.4299E-3
-812.906E-6	-5.34947E-12	140.640E-3	-3.85969E-3	-5.57544E-12	154.523E-3	-17.7987E-3
-817.909E-6	-5.45859E-12	140.564E-3	-14.0345E-3	-5.65454E-12	156.216E-3	-27.9419E-3
-822.911E-6	-5.44428E-12	150.971E-3	-19.4542E-3	-5.63188E-12	154.020E-3	-34.2995E-3
-827.914E-6	-5.48709E-12	155.551E-3	-15.2849E-3	-5.61399E-12	157.240E-3	-23.4451E-3
-832.916E-6	-5.57113E-12	152.204E-3	-12.0921E-3	-5.70273E-12	157.434E-3	-7.39083E-3
-837.919E-6	-5.65702E-12	163.741E-3	-14.8133E-3	-5.76916E-12	162.361E-3	-3.27468E-3
-842.921E-6	-5.75619E-12	178.887E-3	-19.1364E-3	-5.72073E-12	164.089E-3	-7.31116E-3
-847.924E-6	-5.79099E-12	182.774E-3	-17.6596E-3	-5.75060E-12	154.520E-3	-19.7454E-3
-852.926E-6	-5.91802E-12	178.140E-3	-18.8556E-3	-5.85046E-12	155.051E-3	-22.5725E-3
-857.929E-6	-5.93876E-12	175.114E-3	-18.1705E-3	-5.91424E-12	165.139E-3	-7.69932E-3
-862.931E-6	-6.00504E-12	173.427E-3	-7.63293E-3	-5.90680E-12	170.614E-3	-16.4606E-3
-867.934E-6	-6.03506E-12	169.401E-3	-4.95042E-3	-6.02880E-12	179.600E-3	-46.0413E-3
-872.936E-6	-6.16918E-12	174.430E-3	-12.2211E-3	-6.10558E-12	194.968E-3	-43.2195E-3
-877.939E-6	-6.14871E-12	183.950E-3	-17.3624E-3	-6.13478E-12	204.540E-3	-11.0304E-3
-882.941E-6	-6.23709E-12	185.612E-3	-24.0917E-3	-6.21665E-12	207.206E-3	-3.26150E-3
-887.944E-6	-6.28674E-12	185.004E-3	-26.9646E-3	-6.30276E-12	207.374E-3	-16.6817E-3
-892.946E-6	-6.39228E-12	183.374E-3	-23.7342E-3	-6.38759E-12	205.921E-3	-22.3077E-3
-897.949E-6	-6.40189E-12	181.217E-3	-27.8526E-3	-6.45645E-12	209.913E-3	-22.8272E-3
-902.951E-6	-6.43834E-12	186.360E-3	-27.4723E-3	-6.54354E-12	213.325E-3	-16.2260E-3
-907.954E-6	-6.51347E-12	192.842E-3	-10.6221E-3	-6.53780E-12	201.678E-3	-13.8027E-3
-912.956E-6	-6.70408E-12	192.090E-3	-5.90119E-3	-6.66162E-12	181.680E-3	-21.8430E-3
-917.959E-6	-6.62273E-12	191.974E-3	-8.50022E-3	-6.75071E-12	172.467E-3	-25.0047E-3
-922.961E-6	-6.73923E-12	198.771E-3	-1.52796E-3	-6.77939E-12	180.631E-3	-22.0292E-3
-927.964E-6	-6.92110E-12	207.049E-3	-6.14936E-3	-6.80311E-12	193.897E-3	-17.5980E-3
-932.966E-6	-6.93557E-12	209.777E-3	-16.0388E-3	-6.95234E-12	212.376E-3	-11.1808E-3
-937.969E-6	-6.94256E-12	205.057E-3	-13.2447E-3	-6.92168E-12	230.411E-3	-7.74756E-3
-942.971E-6	-7.08713E-12	204.774E-3	-115.191E-6	-7.08701E-12	231.383E-3	-10.2558E-3
-947.974E-6	-7.18492E-12	213.883E-3	12.6384E-3	-7.15408E-12	225.938E-3	-15.8706E-3
-952.976E-6	-7.28151E-12	217.487E-3	6.77725E-3	-7.24011E-12	231.737E-3	-17.9616E-3
-957.979E-6	-7.32971E-12	216.233E-3	-10.5221E-3	-7.31082E-12	239.723E-3	-18.1254E-3
-962.981E-6	-7.38280E-12	226.464E-3	-18.4165E-3	-7.41941E-12	240.070E-3	-10.0586E-3
-967.984E-6	-7.47569E-12	243.067E-3	-17.7311E-3	-7.51028E-12	239.513E-3	1.42303E-3
-972.986E-6	-7.59093E-12	249.204E-3	-21.1618E-3	-7.64469E-12	251.199E-3	-6.72879E-3
-977.989E-6	-7.65923E-12	245.494E-3	-31.9743E-3	-7.74293E-12	258.879E-3	-16.7056E-3
-982.991E-6	-7.71487E-12	234.511E-3	-34.8371E-3	-7.75570E-12	258.677E-3	-9.96792E-3
-987.994E-6	-7.78646E-12	223.648E-3	-24.4299E-3	-7.94877E-12	263.759E-3	-12.4637E-3
-992.997E-6	-7.85878E-12	233.273E-3	-19.8115E-3	-7.99865E-12	260.282E-3	-26.2754E-3
-997.999E-6	-7.88344E-12	255.185E-3	-19.1981E-3	-8.04352E-12	259.746E-3	-24.5189E-3
-1.00300E-3	-7.86739E-12	258.303E-3	-7.69912E-3	-8.07253E-12	267.269E-3	-24.4703E-3
-1.00800E-3	-7.94022E-12	240.454E-3	-10.8095E-3	-8.23207E-12	271.848E-3	-26.4367E-3
-1.01301E-3	-8.00433E-12	234.866E-3	-29.9497E-3	-8.26306E-12	273.605E-3	-10.4668E-3
-1.01801E-3	-8.14099E-12	243.255E-3	-30.7616E-3	-8.28894E-12	270.579E-3	-9.18215E-3
-1.02301E-3	-8.21723E-12	240.592E-3	-17.8880E-3	-8.42960E-12	268.536E-3	-20.6156E-3
-1.02801E-3	-8.38240E-12	239.797E-3	-13.9785E-3	-8.56732E-12	274.503E-3	-4.53393E-3
-1.03302E-3	-8.46897E-12	245.064E-3	-20.2600E-3	-8.55785E-12	285.482E-3	6.35077E-3
-1.03802E-3	-8.55878E-12	252.170E-3	-30.7756E-3	-8.75338E-12	291.331E-3	-9.61901E-3
-1.04302E-3	-8.68439E-12	260.442E-3	-38.5591E-3	-8.90180E-12	299.845E-3	-14.9967E-3
-1.04802E-3	-8.85556E-12	264.741E-3	-26.5868E-3	-8.91576E-12	319.918E-3	-15.8299E-3
-1.05303E-3	-8.82602E-12	272.975E-3	-10.7521E-3	-9.01079E-12	329.910E-3	-21.6365E-3
-1.05803E-3	-9.01813E-12	286.693E-3	-16.7381E-3	-9.14378E-12	319.532E-3	-13.5192E-3
-1.06303E-3	-9.24176E-12	297.932E-3	-26.1106E-3	-9.28708E-12	308.954E-3	-4.00323E-3
-1.06803E-3	-9.33932E-12	308.134E-3	-29.2733E-3	-9.40485E-12	306.689E-3	-10.8605E-3
-1.07304E-3	-9.40316E-12	319.842E-3	-33.8517E-3	-9.43547E-12	319.029E-3	-17.4500E-3
-1.07804E-3	-9.51748E-12	326.443E-3	-27.4150E-3	-9.45217E-12	338.320E-3	-16.5945E-3
-1.08304E-3	-9.61596E-12	336.105E-3	-14.6269E-3	-9.59318E-12	344.655E-3	-23.7949E-3
-1.08804E-3	-9.73806E-12	353.404E-3	-9.34829E-3	-9.78738E-12	351.472E-3	-27.4120E-3
-1.09305E-3	-9.85994E-12	353.746E-3	-11.2998E-3	-9.79117E-12	367.455E-3	-16.3990E-3
-1.09805E-3	-9.95258E-12	343.045E-3	-19.8569E-3	-9.87747E-12	376.275E-3	-8.25311E-3
-1.10305E-3	-10.0078E-12	345.493E-3	-25.9707E-3	-10.0226E-12	380.553E-3	-5.85849E-3
-1.10805E-3	-10.1945E-12	351.716E-3	-25.5048E-3	-10.1947E-12	393.566E-3	-2.49721E-3
-1.11306E-3	-10.2798E-12	349.178E-3	-23.8782E-3	-10.2746E-12	406.363E-3	-3.43089E-3
-1.11806E-3	-10.2929E-12	349.427E-3	-22.4326E-3	-10.3902E-12	411.604E-3	-7.80436E-3
-1.12306E-3	-10.4807E-12	367.052E-3	-18.3801E-3	-10.6148E-12	431.364E-3	-6.77972E-3
-1.12806E-3	-10.7115E-12	387.385E-3	-23.6161E-3	-10.6832E-12	458.076E-3	-5.07965E-3
-1.13307E-3	-10.8869E-12	395.969E-3	-33.0903E-3	-10.7963E-12	463.935E-3	-1.64115E-3
-1.13807E-3	-10.9573E-12	408.165E-3	-37.9115E-3	-11.0156E-12	468.634E-3	3.12681E-3
-1.14307E-3	-11.0920E-12	427.329E-3	-41.0367E-3	-11.1976E-12	482.484E-3	-6.08831E-3
-1.14807E-3	-11.2220E-12	432.563E-3	-38.4332E-3	-11.3181E-12	491.171E-3	-18.2300E-3
-1.15308E-3	-11.4624E-12	427.134E-3	-29.7084E-3	-11.5252E-12	502.569E-3	-18.5436E-3
-1.15808E-3	-11.6664E-12	435.702E-3	-14.4873E-3	-11.7281E-12	521.575E-3	-18.8777E-3
-1.16308E-3	-11.8146E-12	456.226E-3	-3.50926E-3	-12.0183E-12	526.756E-3	-24.7607E-3
-1.16808E-3	-11.9125E-12	476.541E-3	-864.276E-6	-12.0180E-12	525.795E-3	-34.6918E-3
-1.17309E-3	-12.0161E-12	494.745E-3	-8.02467E-3	-12.0553E-12	545.646E-3	-45.0461E-3
-1.17809E-3	-12.2381E-12	512.454E-3	-15.7814E-3	-12.4682E-12	572.271E-3	-40.6396E-3
-1.18309E-3	-12.3945E-12	525.650E-3	-20.8225E-3	-12.5820E-12	590.538E-3	-22.0041E-3
-1.18809E-3	-12.4147E-12	523.705E-3	-36.8576E-3	-12.6798E-12	607.812E-3	-13.0518E-3
-1.19310E-3	-12.5809E-12	513.127E-3	-37.0054E-3	-12.9022E-12	618.680E-3	-7.84518E-3
-1.19810E-3	-12.7770E-12	514.367E-3	-20.1607E-3	-13.1182E-12	627.876E-3	-4.35377E-3
-1.20310E-3	-13.0130E-12	535.567E-3	-21.9641E-3	-13.3574E-12	641.823E-3	-20.1729E-3
-1.20810E-3	-13.0338E-12	562.894E-3	-26.5635E-3	-13.5648E-12	649.107E-3	-31.0934E-3
-1.21311E-3	-13.2350E-12	577.080E-3	-19.6655E-3	-13.6612E-12	658.802E-3	-19.4954E-3
-1.21811E-3	-13.3798E-12	579.482E-3	-15.2619E-3	-13.9489E-12	674.260E-3	-10.0969E-3
-1.22311E-3	-13.6048E-12	582.736E-3	-7.05559E-3	-14.4220E-12	691.177E-3	-10.2261E-3
-1.22811E-3	-13.7533E-12	604.433E-3	-1.99934E-3	-14.4377E-12	721.296E-3	-6.48797E-3
-1.23312E-3	-14.1322E-12	638.328E-3	-3.09895E-3	-14.5390E-12	748.921E-3	-6.86210E-3
-1.23812E-3	-14.3050E-12	654.891E-3	-4.80116E-3	-14.9171E-12	756.176E-3	-11.6024E-3
-1.24312E-3	-14.6092E-12	658.040E-3	-8.53183E-3	-15.3527E-12	755.225E-3	-7.82265E-3
-1.24812E-3	-14.9061E-12	660.925E-3	-11.4108E-3	-15.3921E-12	766.173E-3	-11.0051E-3
-1.25313E-3	-15.1611E-12	681.649E-3	-9.89702E-3	-15.4716E-12	783.717E-3	-27.8670E-3
-1.25813E-3	-15.4669E-12	716.385E-3	-4.92858E-3	-15.8031E-12	791.258E-3	-19.4653E-3
-1.26313E-3	-15.7866E-12	736.793E-3	-3.14649E-3	-16.0830E-12	806.213E-3	1.55716E-3
-1.26813E-3	-16.2263E-12	748.699E-3	-8.50657E-3	-16.1747E-12	822.663E-3	-10.1882E-3
-1.27314E-3	-16.6058E-12	762.161E-3	-15.3792E-3	-16.3961E-12	825.571E-3	-31.6733E-3
-1.27814E-3	-16.9872E-12	776.735E-3	-16.2299E-3	-16.7481E-12	851.231E-3	-32.6363E-3
-1.28314E-3	-17.2138E-12	805.095E-3	-17.5506E-3	-16.9471E-12	889.450E-3	-24.3012E-3
-1.28814E-3	-17.5381E-12	847.859E-3	-17.3505E-3	-17.1264E-12	897.632E-3	-21.7496E-3
-1.29315E-3	-17.9571E-12	875.685E-3	-8.92762E-3	-17.5512E-12	893.148E-3	-18.2972E-3
-1.29815E-3	-18.1640E-12	880.304E-3	-6.17993E-3	-17.9086E-12	900.170E-3	-23.7609E-3
-1.30315E-3	-18.2960E-12	885.563E-3	-10.5774E-3	-18.0539E-12	920.552E-3	-37.6402E-3
-1.30815E-3	-18.7128E-12	894.156E-3	-13.4534E-3	-18.3827E-12	947.911E-3	-27.4769E-3
-1.31316E-3	-19.0465E-12	902.339E-3	-21.2407E-3	-18.8149E-12	967.403E-3	-10.5111E-3
-1.31816E-3	-19.1762E-12	914.838E-3	-28.3233E-3	-19.1996E-12	974.334E-3	-6.79353E-3
-1.32316E-3	-19.4499E-12	927.789E-3	-23.1005E-3	-19.4958E-12	983.253E-3	-4.64506E-3
-1.32816E-3	-19.7774E-12	947.049E-3	-9.52829E-3	-19.8675E-12	1.00378E+0	-21.1339E-3
-1.33317E-3	-20.1648E-12	970.228E-3	-6.13005E-3	-20.1807E-12	1.02027E+0	-40.3101E-3
-1.33817E-3	-20.4467E-12	993.538E-3	-21.8705E-3	-20.6208E-12	1.02311E+0	-29.2793E-3
-1.34317E-3	-20.8455E-12	1.00654E+0	-43.3704E-3	-20.8757E-12	1.02241E+0	-15.5823E-3
-1.34817E-3	-21.1506E-12	999.273E-3	-47.8450E-3	-20.8994E-12	1.03262E+0	-24.3687E-3
-1.35318E-3	-21.3426E-12	1.00037E+0	-31.6576E-3	-21.2191E-12	1.05268E+0	-30.4958E-3
-1.35818E-3	-21.8868E-12	1.02204E+0	-15.1621E-3	-21.8533E-12	1.06857E+0	-22.5373E-3
-1.36318E-3	-22.4317E-12	1.04361E+0	-14.3146E-3	-22.0672E-12	1.08090E+0	-23.0453E-3
-1.36818E-3	-22.9526E-12	1.06136E+0	-25.3438E-3	-22.2182E-12	1.09731E+0	-18.4885E-3
-1.37319E-3	-23.1526E-12	1.07733E+0	-33.5336E-3	-22.8020E-12	1.10665E+0	-14.4202E-3
-1.37819E-3	-23.5819E-12	1.08675E+0	-23.8955E-3	-23.2822E-12	1.10940E+0	-31.9632E-3
-1.38319E-3	-24.0595E-12	1.09081E+0	-12.7509E-3	-23.4504E-12	1.11473E+0	-32.0870E-3
-1.38819E-3	-24.2646E-12	1.10010E+0	-20.7928E-3	-23.9330E-12	1.12394E+0	-18.4122E-3
-1.39320E-3	-24.5611E-12	1.12016E+0	-27.0916E-3	-24.4941E-12	1.13516E+0	-22.3592E-3
-1.39820E-3	-24.7001E-12	1.12522E+0	-19.4576E-3	-24.7889E-12	1.14574E+0	-20.7309E-3
-1.40320E-3	-24.9044E-12	1.11398E+0	-7.74216E-3	-25.1698E-12	1.16361E+0	-5.39996E-3
-1.40820E-3	-25.3076E-12	1.10987E+0	-5.84450E-3	-25.6852E-12	1.16812E+0	-1.17258E-3
-1.41321E-3	-25.5360E-12	1.11296E+0	-18.2929E-3	-26.2463E-12	1.16407E+0	-4.81935E-3
-1.41821E-3	-25.6730E-12	1.11303E+0	-38.3724E-3	-26.7471E-12	1.17134E+0	-11.4427E-3
-1.42321E-3	-26.0888E-12	1.11034E+0	-40.2594E-3	-26.9504E-12	1.17506E+0	-31.4081E-3
-1.42821E-3	-26.4557E-12	1.11914E+0	-25.0742E-3	-27.4411E-12	1.18300E+0	-46.1018E-3
-1.43322E-3	-26.6642E-12	1.13484E+0	-21.4293E-3	-27.7951E-12	1.19751E+0	-36.3535E-3
-1.43822E-3	-27.0008E-12	1.14482E+0	-20.3906E-3	-28.0455E-12	1.19837E+0	-16.1299E-3
-1.44322E-3	-27.3579E-12	1.15081E+0	-13.6715E-3	-28.2984E-12	1.18793E+0	-6.66983E-3
-1.44822E-3	-27.7592E-12	1.14851E+0	-8.24789E-3	-28.5136E-12	1.18319E+0	-12.6607E-3
-1.45323E-3	-28.2571E-12	1.14718E+0	-5.07282E-3	-28.9940E-12	1.18915E+0	-26.2907E-3
-1.45823E-3	-28.7245E-12	1.15581E+0	-12.0376E-3	-29.4049E-12	1.19506E+0	-22.7966E-3
-1.46323E-3	-29.3353E-12	1.16416E+0	-21.6838E-3	-29.6148E-12	1.20373E+0	-6.51913E-3
-1.46823E-3	-29.8110E-12	1.16031E+0	-17.2249E-3	-30.1131E-12	1.20344E+0	788.060E-6
-1.47324E-3	-30.2782E-12	1.15111E+0	-9.35408E-3	-30.6550E-12	1.18298E+0	9.37008E-3
-1.47824E-3	-30.7927E-12	1.16248E+0	-8.40797E-3	-30.7409E-12	1.17131E+0	8.70783E-3
-1.48324E-3	-31.3452E-12	1.19522E+0	-12.1916E-3	-31.1016E-12	1.17890E+0	-13.8281E-3
-1.48824E-3	-31.8380E-12	1.21323E+0	-10.7239E-3	-31.5964E-12	1.19115E+0	-20.7064E-3
-1.49325E-3	-32.1854E-12	1.21033E+0	-3.15248E-3	-32.0189E-12	1.20341E+0	1.12684E-3
-1.49825E-3	-32.5647E-12	1.21147E+0	-8.55789E-3	-32.4366E-12	1.20183E+0	4.80093E-3
-1.50325E-3	-32.9928E-12	1.21463E+0	-16.6121E-3	-32.7264E-12	1.17996E+0	-12.5722E-3
-1.50825E-3	-33.4786E-12	1.20634E+0	-8.10162E-3	-33.0713E-12	1.17506E+0	-15.8921E-3
-1.51326E-3	-33.6510E-12	1.19893E+0	-2.38778E-3	-33.6582E-12	1.18417E+0	-11.7762E-3
-1.51826E-3	-33.9560E-12	1.19812E+0	-17.9594E-3	-33.9881E-12	1.17679E+0	-10.1477E-3
-1.52326E-3	-34.3630E-12	1.19888E+0	-30.2490E-3	-34.1580E-12	1.17369E+0	-5.51007E-3
-1.52826E-3	-34.9101E-12	1.20914E+0	-24.5564E-3	-34.6003E-12	1.18011E+0	-4.05477E-3
-1.53327E-3	-35.0259E-12	1.21864E+0	-16.3284E-3	-35.0657E-12	1.17936E+0	-8.19787E-3
-1.53827E-3	-35.2885E-12	1.20809E+0	-14.5933E-3	-35.1839E-12	1.18271E+0	-10.0142E-3
-1.54327E-3	-35.8389E-12	1.17957E+0	-16.5389E-3	-35.5571E-12	1.19528E+0	-8.79844E-3
-1.54827E-3	-36.3645E-12	1.16062E+0	-20.7512E-3	-36.1113E-12	1.19861E+0	-2.78216E-3
-1.55328E-3	-36.4793E-12	1.16770E+0	-22.4851E-3	-36.6845E-12	1.18740E+0	-2.78016E-3
-1.55828E-3	-36.9242E-12	1.17709E+0	-14.7894E-3	-37.1222E-12	1.17493E+0	-28.7996E-3
-1.56328E-3	-37.5741E-12	1.18012E+0	-4.81498E-3	-37.6351E-12	1.17558E+0	-47.6422E-3
-1.56828E-3	-37.9496E-12	1.17870E+0	593.410E-6	-38.1852E-12	1.17835E+0	-31.8247E-3
-1.57329E-3	-38.2984E-12	1.16676E+0	-10.5001E-3	-38.6970E-12	1.16830E+0	-22.1630E-3
-1.57829E-3	-38.5325E-12	1.15286E+0	-29.0265E-3	-39.0726E-12	1.16341E+0	-36.9235E-3
-1.58329E-3	-39.2072E-12	1.14586E+0	-33.5983E-3	-39.3473E-12	1.17101E+0	-36.9744E-3
-1.58829E-3	-39.5243E-12	1.14566E+0	-30.9471E-3	-39.8410E-12	1.17764E+0	-17.1368E-3
-1.59330E-3	-39.9764E-12	1.14077E+0	-25.7369E-3	-40.3111E-12	1.16670E+0	-13.9791E-3
-1.59830E-3	-40.2171E-12	1.12820E+0	-17.3374E-3	-40.5883E-12	1.14831E+0	-11.3267E-3
-1.60330E-3	-40.7845E-12	1.11621E+0	-21.2469E-3	-40.8274E-12	1.14259E+0	-139.867E-6
-1.60830E-3	-41.2194E-12	1.11815E+0	-31.8576E-3	-41.3380E-12	1.13371E+0	-7.90281E-3
-1.61331E-3	-41.3889E-12	1.13342E+0	-22.3890E-3	-41.6359E-12	1.11776E+0	-14.7926E-3
-1.61831E-3	-41.6583E-12	1.14013E+0	-13.3509E-3	-41.7001E-12	1.11188E+0	-10.1578E-3
-1.62331E-3	-42.1953E-12	1.13440E+0	-21.6458E-3	-42.0763E-12	1.10548E+0	-21.9785E-3
-1.62831E-3	-42.3464E-12	1.12432E+0	-24.1277E-3	-42.6307E-12	1.09446E+0	-35.1507E-3
-1.63332E-3	-42.6469E-12	1.10592E+0	-20.2764E-3	-42.9221E-12	1.09388E+0	-27.8383E-3
-1.63832E-3	-42.8669E-12	1.09269E+0	-21.1761E-3	-43.2693E-12	1.09110E+0	-28.2303E-3
-1.64332E-3	-43.2378E-12	1.09612E+0	-26.6161E-3	-43.8596E-12	1.08025E+0	-32.9975E-3
-1.64832E-3	-43.4160E-12	1.08844E+0	-19.4577E-3	-44.3670E-12	1.07520E+0	-30.0114E-3
-1.65333E-3	-43.6150E-12	1.07322E+0	-1.02098E-3	-44.7494E-12	1.06747E+0	-37.1643E-3
-1.65833E-3	-44.0897E-12	1.07086E+0	611.999E-6	-45.0719E-12	1.06306E+0	-41.3213E-3
-1.66333E-3	-44.6028E-12	1.06160E+0	-8.23157E-3	-45.6723E-12	1.06520E+0	-23.1290E-3
-1.66833E-3	-44.8287E-12	1.04494E+0	-14.1892E-3	-46.0207E-12	1.05779E+0	-3.67755E-3
-1.67334E-3	-45.3348E-12	1.03705E+0	-20.4123E-3	-46.2064E-12	1.04844E+0	-4.58306E-3
-1.67834E-3	-46.0523E-12	1.03476E+0	-18.2817E-3	-46.4202E-12	1.04056E+0	-11.4884E-3
-1.68334E-3	-46.4999E-12	1.03726E+0	-12.9159E-3	-46.7428E-12	1.03100E+0	-16.2848E-3
-1.68834E-3	-46.7348E-12	1.04697E+0	-17.2188E-3	-46.8122E-12	1.02036E+0	-17.6450E-3
-1.69335E-3	-47.2631E-12	1.05284E+0	-24.8069E-3	-47.0193E-12	1.01284E+0	-7.80078E-3
-1.69835E-3	-47.9017E-12	1.04700E+0	-25.7000E-3	-47.2873E-12	1.00667E+0	-1.25334E-3
-1.70335E-3	-48.1818E-12	1.04470E+0	-17.9965E-3	-47.2724E-12	988.517E-3	-13.2099E-3
-1.70835E-3	-48.5612E-12	1.04200E+0	-10.5210E-3	-47.4515E-12	972.826E-3	-20.7650E-3
-1.71336E-3	-49.1756E-12	1.02538E+0	-14.8637E-3	-47.7547E-12	969.189E-3	-13.7659E-3
-1.71836E-3	-49.5095E-12	1.02185E+0	-25.4786E-3	-47.7156E-12	968.622E-3	-6.95442E-3
-1.72336E-3	-49.7225E-12	1.03720E+0	-33.0551E-3	-48.0921E-12	976.187E-3	2.56501E-3
-1.72836E-3	-50.1017E-12	1.03912E+0	-28.0248E-3	-48.7883E-12	985.402E-3	-1.36107E-3
-1.73337E-3	-50.1763E-12	1.02810E+0	-8.88321E-3	-49.0818E-12	982.082E-3	-22.6833E-3
-1.73837E-3	-50.4782E-12	1.01089E+0	-6.15025E-3	-49.6402E-12	977.156E-3	-34.6827E-3
-1.74337E-3	-50.8231E-12	1.00187E+0	-19.6908E-3	-50.4326E-12	983.762E-3	-40.6549E-3
-1.74837E-3	-50.7764E-12	1.00636E+0	-20.2395E-3	-50.7400E-12	986.159E-3	-39.1507E-3
-1.75338E-3	-50.9400E-12	991.293E-3	-11.6525E-3	-50.9290E-12	973.298E-3	-19.5982E-3
-1.75838E-3	-51.2553E-12	965.261E-3	-10.5312E-3	-51.5864E-12	963.378E-3	-10.7752E-3
-1.76338E-3	-51.4750E-12	953.827E-3	-24.2992E-3	-52.0543E-12	959.780E-3	-20.2739E-3
-1.76838E-3	-51.9766E-12	952.397E-3	-34.1480E-3	-52.3578E-12	957.144E-3	-15.6867E-3
-1.77339E-3	-52.1901E-12	957.287E-3	-22.6761E-3	-52.6414E-12	956.540E-3	158.194E-6
-1.77839E-3	-52.5175E-12	959.875E-3	-11.4438E-3	-53.2517E-12	952.013E-3	-9.66092E-3
-1.78339E-3	-53.1993E-12	947.971E-3	-7.28877E-3	-53.4835E-12	940.968E-3	-32.5615E-3
-1.78839E-3	-53.6230E-12	934.526E-3	-6.52544E-3	-53.6510E-12	923.796E-3	-36.1454E-3
-1.79340E-3	-53.9332E-12	942.436E-3	-19.6316E-3	-53.5976E-12	918.777E-3	-27.5530E-3
-1.79840E-3	-54.5837E-12	958.340E-3	-27.0247E-3	-54.0186E-12	924.614E-3	-18.3758E-3
-1.80340E-3	-54.8931E-12	952.410E-3	-5.01021E-3	-54.3990E-12	913.933E-3	-8.02961E-3
-1.80840E-3	-55.0072E-12	939.161E-3	16.9933E-3	-54.4587E-12	900.945E-3	-7.74545E-3
-1.81341E-3	-55.6371E-12	944.643E-3	23.2067E-3	-54.9484E-12	900.420E-3	-30.0371E-3
-1.81841E-3	-56.0041E-12	944.841E-3	20.4763E-3	-55.3782E-12	904.147E-3	-45.0250E-3
-1.82341E-3	-55.9332E-12	921.780E-3	-9.95874E-3	-55.9485E-12	901.085E-3	-34.2810E-3
-1.82841E-3	-55.8028E-12	906.671E-3	-38.0038E-3	-56.0348E-12	887.742E-3	-12.8464E-3
-1.83342E-3	-56.2433E-12	909.971E-3	-27.9126E-3	-56.6826E-12	892.461E-3	5.77170E-3
-1.83842E-3	-56.2005E-12	910.913E-3	-10.9783E-3	-57.2890E-12	919.219E-3	-5.71164E-3
-1.84342E-3	-56.1474E-12	911.245E-3	-10.2118E-3	-57.4677E-12	928.621E-3	-22.9414E-3
-1.84842E-3	-56.2565E-12	903.456E-3	-18.3761E-3	-57.7897E-12	910.988E-3	-10.1623E-3
-1.85343E-3	-56.5527E-12	872.982E-3	-14.9900E-3	-58.1596E-12	893.323E-3	1.14959E-3
-1.85843E-3	-56.8196E-12	850.893E-3	2.62994E-3	-58.4116E-12	885.462E-3	-7.18733E-3
-1.86343E-3	-56.9760E-12	852.369E-3	6.83431E-3	-58.6507E-12	881.821E-3	-14.5098E-3
-1.86843E-3	-57.2734E-12	859.866E-3	-9.66074E-3	-58.9042E-12	877.436E-3	-18.4344E-3
-1.87344E-3	-57.7211E-12	875.251E-3	-25.8751E-3	-59.0720E-12	863.304E-3	-20.4300E-3
-1.87844E-3	-58.1649E-12	882.031E-3	-22.8942E-3	-59.4232E-12	849.688E-3	-8.41122E-3
-1.88344E-3	-58.5111E-12	874.870E-3	-16.6159E-3	-59.5026E-12	852.093E-3	614.502E-6
-1.88844E-3	-58.8746E-12	868.231E-3	-16.2493E-3	-59.3449E-12	860.387E-3	-8.69262E-3
-1.89345E-3	-59.5212E-12	860.912E-3	-16.7898E-3	-59.6121E-12	862.263E-3	-11.3239E-3
-1.89845E-3	-59.9119E-12	857.779E-3	-21.3979E-3	-59.8586E-12	855.441E-3	-4.30063E-3
-1.90345E-3	-60.0081E-12	866.883E-3	-19.2958E-3	-59.8651E-12	835.275E-3	-7.03033E-3
-1.90845E-3	-60.5438E-12	879.559E-3	-15.6338E-3	-60.0930E-12	822.899E-3	-11.7895E-3
-1.91346E-3	-61.1770E-12	875.160E-3	-11.6861E-3	-60.6853E-12	834.745E-3	-17.9092E-3
-1.91846E-3	-61.3841E-12	859.548E-3	-4.64368E-3	-60.8053E-12	842.661E-3	-25.8221E-3
-1.92346E-3	-61.4397E-12	846.273E-3	-119.367E-6	-61.0741E-12	840.496E-3	-20.4554E-3
-1.92846E-3	-61.8641E-12	846.033E-3	110.491E-6	-61.5643E-12	847.091E-3	-14.3716E-3
-1.93347E-3	-62.3498E-12	853.135E-3	-1.40394E-3	-61.5584E-12	846.146E-3	-13.5952E-3
-1.93847E-3	-62.0664E-12	858.016E-3	1.00067E-3	-61.8156E-12	822.835E-3	4.83028E-3
-1.94347E-3	-62.5755E-12	861.568E-3	-4.91180E-3	-62.1648E-12	810.918E-3	12.0144E-3
-1.94847E-3	-62.6085E-12	858.994E-3	-23.1283E-3	-62.1161E-12	815.986E-3	-11.0143E-3
-1.95348E-3	-62.9853E-12	852.271E-3	-34.8526E-3	-62.6508E-12	810.557E-3	-23.4592E-3
-1.95848E-3	-63.1847E-12	847.070E-3	-24.6851E-3	-62.8166E-12	806.503E-3	-16.1021E-3
-1.96348E-3	-63.5852E-12	854.872E-3	-14.7329E-3	-63.1265E-12	814.156E-3	-12.0801E-3
-1.96848E-3	-64.0334E-12	869.450E-3	-16.5322E-3	-63.1081E-12	819.127E-3	-15.7056E-3
-1.97349E-3	-64.2935E-12	866.999E-3	-14.8622E-3	-63.3489E-12	822.144E-3	-11.5711E-3
-1.97849E-3	-64.5880E-12	853.413E-3	-1.82753E-3	-63.8143E-12	830.812E-3	-6.60638E-3
-1.98349E-3	-64.7745E-12	839.367E-3	11.5623E-3	-64.1471E-12	832.417E-3	-5.84479E-3
-1.98849E-3	-65.3210E-12	830.066E-3	2.66756E-3	-64.4511E-12	823.127E-3	-3.51035E-3
-1.99350E-3	-65.4347E-12	836.465E-3	-13.8487E-3	-65.0268E-12	816.173E-3	-4.09561E-3
-1.99850E-3	-65.7435E-12	847.105E-3	-23.9417E-3	-65.5845E-12	816.533E-3	-2.50259E-3
-2.00350E-3	-65.9390E-12	843.786E-3	-37.5302E-3	-65.9888E-12	821.022E-3	8.83871E-3
-2.00850E-3	-66.3906E-12	832.980E-3	-43.7475E-3	-66.3040E-12	821.353E-3	9.26836E-3
-2.01351E-3	-66.4586E-12	825.341E-3	-30.6214E-3	-67.0953E-12	821.095E-3	-4.60448E-3
-2.01851E-3	-66.8416E-12	821.053E-3	-19.1557E-3	-67.4242E-12	823.658E-3	-10.9779E-3
-2.02351E-3	-66.9614E-12	818.211E-3	-28.7921E-3	-67.7663E-12	820.199E-3	-22.4739E-3
-2.02851E-3	-67.1105E-12	811.215E-3	-36.2494E-3	-68.0453E-12	806.951E-3	-26.8689E-3
-2.03352E-3	-67.4361E-12	810.178E-3	-31.4904E-3	-68.6563E-12	797.611E-3	-11.5425E-3
-2.03852E-3	-67.4165E-12	806.620E-3	-33.1877E-3	-68.5382E-12	801.267E-3	-14.4490E-3
-2.04352E-3	-67.4004E-12	797.210E-3	-38.8431E-3	-68.7270E-12	800.585E-3	-37.1346E-3
-2.04852E-3	-67.7439E-12	790.080E-3	-35.7974E-3	-69.0845E-12	795.173E-3	-37.6511E-3
-2.05353E-3	-68.0976E-12	783.535E-3	-21.1756E-3	-69.2457E-12	792.875E-3	-27.3356E-3
-2.05853E-3	-68.1298E-12	781.675E-3	-8.81354E-3	-69.0545E-12	781.635E-3	-26.3872E-3
-2.06353E-3	-68.5491E-12	778.892E-3	1.97567E-3	-69.2982E-12	767.597E-3	-15.6952E-3
-2.06853E-3	-69.2634E-12	779.349E-3	11.3036E-3	-69.5205E-12	776.577E-3	-2.42230E-3
-2.07354E-3	-69.0386E-12	787.759E-3	986.564E-6	-69.6784E-12	787.808E-3	-1.93654E-3
-2.07854E-3	-69.4197E-12	792.725E-3	-19.3789E-3	-69.9161E-12	783.139E-3	-10.2244E-3
-2.08354E-3	-69.8924E-12	793.946E-3	-27.5248E-3	-70.1237E-12	781.940E-3	-17.2748E-3
-2.08854E-3	-70.1462E-12	793.361E-3	-21.2246E-3	-70.3970E-12	773.500E-3	-24.9694E-3
-2.09355E-3	-70.4315E-12	788.095E-3	-12.1003E-3	-71.0346E-12	763.834E-3	-24.8511E-3
-2.09855E-3	-70.9114E-12	783.249E-3	-17.8376E-3	-71.3547E-12	774.031E-3	-18.6484E-3
-2.10355E-3	-71.0164E-12	775.207E-3	-30.2186E-3	-71.3768E-12	790.569E-3	-28.0705E-3
-2.10855E-3	-71.6020E-12	764.063E-3	-22.4538E-3	-71.7446E-12	794.485E-3	-35.3541E-3
-2.11356E-3	-71.8999E-12	763.479E-3	-5.15016E-3	-72.0524E-12	781.904E-3	-25.1256E-3
-2.11856E-3	-72.4668E-12	786.919E-3	-7.56699E-3	-71.9079E-12	770.545E-3	-17.3542E-3
-2.12356E-3	-72.6401E-12	805.702E-3	-25.2043E-3	-72.2846E-12	773.442E-3	-24.6900E-3
-2.12856E-3	-73.3179E-12	785.962E-3	-31.2895E-3	-72.6526E-12	783.087E-3	-31.6358E-3
-2.13357E-3	-73.5478E-12	763.520E-3	-22.3678E-3	-72.5464E-12	782.915E-3	-28.8651E-3
-2.13857E-3	-73.4186E-12	760.330E-3	-13.9319E-3	-72.5490E-12	765.461E-3	-36.7633E-3
-2.14357E-3	-73.7755E-12	761.488E-3	-11.3651E-3	-72.5200E-12	754.752E-3	-37.4932E-3
-2.14857E-3	-73.9726E-12	770.381E-3	-22.3594E-3	-72.7387E-12	769.310E-3	-23.9955E-3
-2.15358E-3	-73.7090E-12	777.263E-3	-40.5030E-3	-72.7952E-12	784.664E-3	-24.8212E-3
-2.15858E-3	-74.3599E-12	762.925E-3	-43.5861E-3	-73.4825E-12	785.822E-3	-23.7959E-3
-2.16358E-3	-75.0150E-12	750.744E-3	-30.2502E-3	-73.7197E-12	781.278E-3	-16.1236E-3
-2.16858E-3	-74.8227E-12	761.150E-3	-7.07413E-3	-74.0598E-12	769.620E-3	-15.9262E-3
-2.17359E-3	-74.6207E-12	775.871E-3	1.77854E-3	-74.3490E-12	759.516E-3	-19.9933E-3
-2.17859E-3	-75.2025E-12	787.556E-3	-22.0719E-3	-75.1839E-12	763.910E-3	-17.1407E-3
-2.18359E-3	-75.1142E-12	783.823E-3	-40.0472E-3	-75.2460E-12	761.477E-3	-3.52391E-3
-2.18859E-3	-74.9326E-12	756.901E-3	-21.6222E-3	-75.6047E-12	745.069E-3	1.50609E-3
-2.19360E-3	-75.1211E-12	741.112E-3	-727.923E-6	-76.0282E-12	736.828E-3	-18.5070E-3
-2.19860E-3	-75.8152E-12	755.249E-3	-3.76233E-3	-76.2744E-12	739.579E-3	-42.6289E-3
-2.20360E-3	-75.9620E-12	765.534E-3	-9.10686E-3	-76.2309E-12	743.764E-3	-30.9758E-3
-2.20860E-3	-76.2353E-12	760.624E-3	-15.8235E-3	-76.5413E-12	735.078E-3	-14.7548E-3
-2.21361E-3	-76.6887E-12	756.735E-3	-30.3323E-3	-76.7328E-12	723.336E-3	-27.6114E-3
-2.21861E-3	-77.2831E-12	750.869E-3	-31.3167E-3	-76.7055E-12	736.738E-3	-32.8845E-3
-2.22361E-3	-77.5174E-12	754.437E-3	-21.8325E-3	-77.0056E-12	767.840E-3	-11.6162E-3
-2.22861E-3	-78.1139E-12	766.881E-3	-17.5196E-3	-77.1076E-12	776.137E-3	5.70234E-3
-2.23362E-3	-78.2009E-12	771.423E-3	-14.9681E-3	-77.3918E-12	761.093E-3	-2.29951E-3
-2.23862E-3	-78.5224E-12	771.216E-3	-14.9451E-3	-78.0427E-12	746.656E-3	-14.9415E-3
-2.24362E-3	-78.4096E-12	763.142E-3	-14.7024E-3	-78.0638E-12	731.432E-3	-28.9618E-3
-2.24862E-3	-78.2029E-12	749.942E-3	-9.64522E-3	-78.2992E-12	723.667E-3	-55.5605E-3
-2.25363E-3	-78.2364E-12	743.193E-3	-11.0328E-3	-79.3993E-12	733.555E-3	-59.2389E-3
-2.25863E-3	-78.3293E-12	741.295E-3	-17.7709E-3	-79.5660E-12	750.713E-3	-33.2916E-3
-2.26363E-3	-78.1889E-12	737.138E-3	-19.4032E-3	-79.5209E-12	751.249E-3	-14.6615E-3
-2.26863E-3	-78.2229E-12	727.519E-3	-22.9890E-3	-80.3015E-12	749.718E-3	-13.8985E-3
-2.27364E-3	-78.2703E-12	730.039E-3	-34.5992E-3	-80.6665E-12	753.935E-3	-18.7514E-3
-2.27864E-3	-78.4265E-12	738.257E-3	-43.0654E-3	-80.7035E-12	745.441E-3	-13.1379E-3
-2.28364E-3	-78.7473E-12	717.945E-3	-42.8135E-3	-80.9469E-12	746.551E-3	-9.75492E-3
-2.28864E-3	-78.9012E-12	699.494E-3	-37.1889E-3	-81.2802E-12	750.986E-3	-15.2870E-3
-2.29365E-3	-79.2124E-12	710.782E-3	-34.7639E-3	-81.2343E-12	740.364E-3	-28.6255E-3
-2.29865E-3	-79.5870E-12	720.047E-3	-28.2292E-3	-81.2168E-12	737.424E-3	-54.3767E-3
-2.30365E-3	-80.2383E-12	721.022E-3	-17.7398E-3	-81.0483E-12	751.769E-3	-65.2617E-3
-2.30865E-3	-80.8866E-12	719.317E-3	-16.3060E-3	-80.9829E-12	759.692E-3	-42.4263E-3
-2.31366E-3	-81.4132E-12	712.129E-3	-10.2627E-3	-80.8956E-12	739.806E-3	-20.0752E-3
-2.31866E-3	-82.0833E-12	718.815E-3	-805.882E-6	-80.7217E-12	722.271E-3	-16.2964E-3
-2.32366E-3	-82.6502E-12	734.517E-3	3.17457E-3	-80.9082E-12	729.315E-3	-27.6043E-3
-2.32866E-3	-83.0012E-12	750.918E-3	-1.34429E-3	-81.1023E-12	737.368E-3	-44.8099E-3
-2.33367E-3	-83.2894E-12	767.997E-3	-15.0966E-3	-81.2581E-12	731.470E-3	-40.2174E-3
-2.33867E-3	-83.6741E-12	764.810E-3	-20.6317E-3	-81.6050E-12	717.431E-3	-33.5261E-3
-2.34367E-3	-83.7296E-12	749.607E-3	-14.9867E-3	-82.0599E-12	713.561E-3	-47.7590E-3
-2.34867E-3	-83.8099E-12	740.612E-3	-3.93990E-3	-82.6566E-12	729.744E-3	-51.7375E-3
-2.35368E-3	-83.7572E-12	738.615E-3	5.74926E-3	-83.3561E-12	740.383E-3	-28.5611E-3
-2.35868E-3	-83.9738E-12	737.550E-3	-2.15518E-3	-83.9097E-12	740.260E-3	-1.69739E-3
-2.36368E-3	-83.7077E-12	726.815E-3	-22.6796E-3	-84.3531E-12	743.306E-3	7.02540E-3
-2.36868E-3	-83.9146E-12	710.443E-3	-32.9766E-3	-85.1055E-12	743.690E-3	-5.41027E-3
-2.37369E-3	-84.0982E-12	706.042E-3	-31.0393E-3	-85.3535E-12	737.422E-3	-20.0506E-3
-2.37869E-3	-84.1847E-12	709.886E-3	-30.1740E-3	-85.7248E-12	729.671E-3	-24.7158E-3
-2.38369E-3	-84.5101E-12	709.429E-3	-32.6233E-3	-85.8672E-12	730.999E-3	-17.4512E-3
-2.38869E-3	-84.7167E-12	714.534E-3	-24.6200E-3	-85.7266E-12	736.838E-3	3.33715E-3
-2.39370E-3	-85.3539E-12	733.297E-3	-9.31893E-3	-86.1022E-12	741.180E-3	4.82250E-3
-2.39870E-3	-85.8310E-12	749.552E-3	2.04772E-3	-85.7285E-12	741.330E-3	-10.7556E-3
-2.40370E-3	-86.4874E-12	746.956E-3	2.19431E-3	-85.8047E-12	734.412E-3	-11.9681E-3
-2.40870E-3	-86.9141E-12	741.909E-3	-5.74644E-3	-85.8071E-12	733.298E-3	-4.61730E-3
-2.41371E-3	-88.0183E-12	745.156E-3	-16.6924E-3	-85.9399E-12	739.599E-3	-8.49122E-3
-2.41871E-3	-88.2546E-12	746.686E-3	-25.6256E-3	-85.9585E-12	728.927E-3	-14.9879E-3
-2.42371E-3	-88.2736E-12	746.616E-3	-26.2846E-3	-86.1982E-12	699.661E-3	-10.2508E-3
-2.42871E-3	-88.7806E-12	753.041E-3	-32.7449E-3	-86.2748E-12	696.357E-3	-12.4798E-3
-2.43372E-3	-89.2077E-12	756.451E-3	-34.4838E-3	-86.8739E-12	710.256E-3	-30.1020E-3
-2.43872E-3	-89.0066E-12	749.590E-3	-26.3083E-3	-87.2400E-12	706.741E-3	-32.2365E-3
-2.44372E-3	-88.8339E-12	741.604E-3	-20.1495E-3	-87.5071E-12	699.172E-3	-15.6407E-3
-2.44872E-3	-89.2034E-12	736.470E-3	-14.4492E-3	-88.0395E-12	700.197E-3	-11.8673E-3
-2.45373E-3	-89.5398E-12	727.847E-3	-16.4033E-3	-88.8196E-12	719.004E-3	-21.6109E-3
-2.45873E-3	-89.0704E-12	717.698E-3	-28.3258E-3	-89.1137E-12	736.260E-3	-24.9303E-3
-2.46373E-3	-89.1786E-12	716.272E-3	-30.9325E-3	-89.4931E-12	725.197E-3	-24.5330E-3
-2.46873E-3	-89.1419E-12	712.833E-3	-17.0240E-3	-90.0344E-12	710.375E-3	-28.5653E-3
-2.47374E-3	-89.4442E-12	709.092E-3	-5.60735E-3	-90.4551E-12	710.701E-3	-24.5087E-3
-2.47874E-3	-89.1573E-12	719.037E-3	6.83112E-3	-90.5382E-12	712.002E-3	-10.1795E-3
-2.48374E-3	-88.9325E-12	729.080E-3	9.40824E-3	-90.8210E-12	722.804E-3	-2.86107E-3
-2.48874E-3	-89.8701E-12	722.683E-3	-8.46262E-3	-90.8403E-12	735.106E-3	-12.3624E-3
-2.49375E-3	-89.9695E-12	712.460E-3	-16.3481E-3	-90.9760E-12	712.137E-3	-21.3003E-3
-2.49875E-3	-89.7934E-12	712.894E-3	-12.1788E-3	-90.7403E-12	684.529E-3	-20.8292E-3
-2.50375E-3	-90.2736E-12	716.670E-3	-11.6248E-3	-90.7110E-12	683.738E-3	-19.6291E-3
-2.50875E-3	-91.0965E-12	712.221E-3	-6.39501E-3	-90.8973E-12	687.973E-3	-16.9199E-3
-2.51376E-3	-90.9553E-12	700.889E-3	5.11035E-3	-91.1684E-12	685.886E-3	-19.9082E-3
-2.51876E-3	-91.3598E-12	696.532E-3	2.31370E-3	-90.8066E-12	682.819E-3	-29.6216E-3
-2.52376E-3	-91.5937E-12	705.482E-3	-13.6007E-3	-91.3044E-12	690.905E-3	-33.0318E-3
-2.52876E-3	-91.8197E-12	708.543E-3	-20.5770E-3	-91.3457E-12	702.983E-3	-23.0158E-3
-2.53377E-3	-92.0380E-12	704.668E-3	-18.4957E-3	-91.6109E-12	706.055E-3	-16.7754E-3
-2.53877E-3	-92.5027E-12	703.116E-3	-18.5888E-3	-91.3853E-12	712.245E-3	-23.5795E-3
-2.54377E-3	-92.8013E-12	691.037E-3	-26.0133E-3	-91.7122E-12	714.422E-3	-29.1106E-3
-2.54877E-3	-93.1584E-12	682.283E-3	-34.5826E-3	-91.8665E-12	698.656E-3	-29.7788E-3
-2.55378E-3	-93.5086E-12	697.567E-3	-34.2997E-3	-92.1018E-12	681.282E-3	-38.9766E-3
-2.55878E-3	-93.6067E-12	705.525E-3	-16.7683E-3	-92.6382E-12	681.213E-3	-49.9628E-3
-2.56378E-3	-94.0881E-12	689.572E-3	3.21520E-3	-92.8143E-12	690.732E-3	-40.8048E-3
-2.56878E-3	-93.9716E-12	682.310E-3	10.0833E-3	-92.8409E-12	698.128E-3	-25.7813E-3
-2.57379E-3	-93.9299E-12	683.124E-3	9.03816E-3	-93.1144E-12	696.507E-3	-13.5022E-3
-2.57879E-3	-93.7947E-12	688.396E-3	-648.115E-6	-93.2577E-12	697.632E-3	-8.78288E-3
-2.58379E-3	-93.9769E-12	704.084E-3	-13.2205E-3	-93.9044E-12	712.873E-3	-25.9050E-3
-2.58879E-3	-94.0771E-12	713.157E-3	-22.5285E-3	-93.8678E-12	721.154E-3	-32.3217E-3
-2.59380E-3	-93.9888E-12	701.295E-3	-19.1689E-3	-94.3723E-12	714.929E-3	-10.8879E-3
-2.59880E-3	-94.2459E-12	674.767E-3	-3.75226E-3	-95.0559E-12	703.290E-3	-4.92518E-3
-2.60380E-3	-94.3738E-12	666.119E-3	3.15093E-3	-95.5287E-12	696.304E-3	-24.9186E-3
-2.60880E-3	-94.4327E-12	683.654E-3	-4.60294E-3	-95.8253E-12	701.658E-3	-27.8899E-3
-2.61381E-3	-94.9320E-12	695.122E-3	-13.3860E-3	-96.3984E-12	705.991E-3	-3.16282E-3
-2.61881E-3	-95.2944E-12	690.492E-3	-7.39437E-3	-96.7226E-12	695.270E-3	4.12323E-3
-2.62381E-3	-95.4249E-12	690.897E-3	1.41948E-3	-97.1570E-12	692.118E-3	-8.68733E-3
-2.62881E-3	-96.1960E-12	693.662E-3	-5.74761E-3	-97.0525E-12	704.564E-3	-6.75464E-3
-2.63382E-3	-96.8196E-12	699.490E-3	-9.78052E-3	-97.2154E-12	707.072E-3	-5.33548E-3
-2.63882E-3	-97.1067E-12	706.472E-3	-12.5511E-3	-97.4328E-12	700.854E-3	-9.32099E-3
-2.64382E-3	-97.6205E-12	699.991E-3	-24.8266E-3	-97.4683E-12	696.507E-3	-12.4186E-3
-2.64882E-3	-98.8160E-12	687.200E-3	-25.0907E-3	-97.3712E-12	695.975E-3	-16.8497E-3
-2.65383E-3	-98.8382E-12	685.835E-3	-19.1697E-3	-97.5273E-12	703.207E-3	-6.53177E-3
-2.65883E-3	-99.2497E-12	691.469E-3	-23.5357E-3	-97.7839E-12	714.106E-3	3.88075E-3
-2.66383E-3	-99.9541E-12	694.685E-3	-33.3899E-3	-98.0582E-12	714.805E-3	-2.35468E-3
-2.66883E-3	-100.259E-12	717.499E-3	-26.8196E-3	-98.1656E-12	699.543E-3	-5.15009E-3
-2.67384E-3	-99.8513E-12	745.926E-3	-2.27758E-3	-98.1007E-12	688.803E-3	-5.93550E-3
-2.67884E-3	-99.6293E-12	743.245E-3	9.45133E-3	-98.5766E-12	693.961E-3	-11.2501E-3
-2.68384E-3	-100.016E-12	713.276E-3	1.25367E-3	-99.2377E-12	702.884E-3	-8.32759E-3
-2.68884E-3	-99.5814E-12	689.393E-3	-10.0062E-3	-99.4184E-12	703.286E-3	-7.77116E-3
-2.69385E-3	-99.1913E-12	700.117E-3	-18.0440E-3	-100.396E-12	698.525E-3	-18.6983E-3
-2.69885E-3	-98.9866E-12	726.560E-3	-22.7791E-3	-100.672E-12	699.483E-3	-28.1852E-3
-2.70385E-3	-98.9269E-12	726.324E-3	-14.3562E-3	-101.537E-12	701.712E-3	-30.6978E-3
-2.70885E-3	-99.0255E-12	711.750E-3	-3.85417E-3	-102.033E-12	700.842E-3	-30.8596E-3
-2.71386E-3	-99.2330E-12	704.585E-3	-5.74495E-3	-101.881E-12	705.483E-3	-22.9594E-3
-2.71886E-3	-99.4831E-12	691.089E-3	-18.8344E-3	-102.199E-12	712.956E-3	75.9888E-6
-2.72386E-3	-99.8169E-12	666.685E-3	-31.6037E-3	-102.135E-12	719.747E-3	11.1672E-3
-2.72886E-3	-100.735E-12	641.942E-3	-27.5870E-3	-102.050E-12	709.954E-3	943.769E-6
-2.73387E-3	-100.989E-12	652.088E-3	-23.2724E-3	-101.748E-12	685.969E-3	-5.40323E-3
-2.73887E-3	-101.706E-12	692.380E-3	-20.5261E-3	-101.593E-12	679.285E-3	-3.55344E-3
-2.74387E-3	-102.331E-12	707.475E-3	-16.4242E-3	-101.153E-12	678.649E-3	-5.60676E-3
-2.74887E-3	-103.390E-12	694.571E-3	-9.97620E-3	-100.908E-12	675.093E-3	-13.3571E-3
-2.75388E-3	-103.793E-12	693.368E-3	-1.10408E-3	-100.518E-12	667.150E-3	-17.7809E-3
-2.75888E-3	-104.406E-12	707.584E-3	-9.46924E-3	-100.880E-12	660.880E-3	-14.6597E-3
-2.76388E-3	-104.661E-12	709.030E-3	-20.5909E-3	-100.591E-12	671.932E-3	-12.3277E-3
-2.76888E-3	-104.789E-12	707.890E-3	-27.9263E-3	-100.826E-12	681.898E-3	-18.2517E-3
-2.77389E-3	-104.745E-12	719.280E-3	-38.9546E-3	-101.312E-12	680.860E-3	-15.6360E-3
-2.77889E-3	-105.149E-12	726.392E-3	-40.2349E-3	-102.172E-12	686.285E-3	-11.9792E-3
-2.78389E-3	-104.899E-12	720.946E-3	-41.6281E-3	-102.381E-12	707.730E-3	-22.8583E-3
-2.78889E-3	-104.426E-12	718.344E-3	-40.5421E-3	-103.287E-12	723.393E-3	-26.1143E-3
-2.79390E-3	-104.222E-12	714.315E-3	-22.4280E-3	-103.885E-12	716.238E-3	-20.2402E-3
-2.79890E-3	-104.342E-12	695.324E-3	-9.33713E-3	-104.752E-12	707.586E-3	-30.7966E-3
-2.80390E-3	-104.157E-12	680.166E-3	-16.4039E-3	-105.246E-12	705.217E-3	-43.3697E-3
-2.80890E-3	-103.988E-12	669.685E-3	-25.6737E-3	-106.026E-12	692.568E-3	-29.5012E-3
-2.81391E-3	-104.261E-12	661.125E-3	-20.3236E-3	-106.455E-12	691.919E-3	-548.828E-6
-2.81891E-3	-104.505E-12	671.273E-3	-14.0891E-3	-106.799E-12	701.993E-3	681.841E-6
-2.82391E-3	-104.476E-12	684.027E-3	-15.8446E-3	-106.740E-12	690.274E-3	-21.3489E-3
-2.82891E-3	-104.996E-12	680.962E-3	-21.7169E-3	-106.756E-12	673.907E-3	-22.4333E-3
-2.83392E-3	-105.908E-12	689.647E-3	-30.0366E-3	-107.041E-12	674.643E-3	-13.1770E-3
-2.83892E-3	-106.223E-12	704.768E-3	-19.4050E-3	-106.758E-12	683.102E-3	1.65025E-3
-2.84392E-3	-106.424E-12	697.937E-3	-10.4206E-3	-106.604E-12	681.087E-3	23.4979E-3
-2.84892E-3	-107.145E-12	689.778E-3	-24.8097E-3	-106.393E-12	670.644E-3	20.5930E-3
-2.85393E-3	-108.035E-12	697.059E-3	-26.6377E-3	-106.455E-12	665.518E-3	-1.77306E-3
-2.85893E-3	-107.807E-12	690.795E-3	-18.3305E-3	-106.425E-12	667.954E-3	-22.0576E-3
-2.86393E-3	-107.885E-12	670.199E-3	-21.0053E-3	-106.543E-12	676.303E-3	-32.9528E-3
-2.86893E-3	-108.219E-12	666.575E-3	-14.4351E-3	-107.237E-12	676.799E-3	-31.3886E-3
-2.87394E-3	-108.268E-12	681.561E-3	-7.48486E-3	-107.737E-12	657.653E-3	-27.3741E-3
-2.87894E-3	-107.789E-12	692.254E-3	-15.9930E-3	-108.084E-12	648.619E-3	-33.9210E-3
-2.88394E-3	-107.694E-12	687.733E-3	-18.9141E-3	-108.993E-12	662.921E-3	-37.3139E-3
-2.88894E-3	-107.709E-12	687.750E-3	-7.16134E-3	-109.350E-12	676.818E-3	-26.8880E-3
-2.89395E-3	-107.797E-12	699.738E-3	4.87719E-3	-109.915E-12	684.103E-3	-2.41761E-3
-2.89895E-3	-107.764E-12	705.026E-3	714.294E-6	-110.134E-12	687.878E-3	19.1847E-3
-2.90395E-3	-107.753E-12	688.641E-3	-16.4942E-3	-110.431E-12	694.543E-3	19.9183E-3
-2.90895E-3	-108.004E-12	657.704E-3	-24.9619E-3	-111.069E-12	706.608E-3	4.46156E-3
-2.91396E-3	-108.131E-12	645.027E-3	-20.4471E-3	-110.844E-12	711.915E-3	-23.5502E-3
-2.91896E-3	-108.736E-12	652.074E-3	-17.9197E-3	-110.583E-12	707.612E-3	-41.8757E-3
-2.92396E-3	-109.081E-12	656.260E-3	-22.1440E-3	-110.788E-12	699.763E-3	-22.7159E-3
-2.92896E-3	-109.222E-12	661.536E-3	-23.0248E-3	-111.335E-12	683.887E-3	7.53043E-3
-2.93397E-3	-109.458E-12	667.238E-3	-23.7554E-3	-111.445E-12	661.011E-3	-3.46755E-3
-2.93897E-3	-110.135E-12	671.926E-3	-25.6876E-3	-110.879E-12	653.575E-3	-28.4263E-3
-2.94397E-3	-110.023E-12	694.668E-3	-22.2923E-3	-111.149E-12	664.681E-3	-25.7625E-3
-2.94897E-3	-110.793E-12	709.956E-3	-15.0267E-3	-111.243E-12	669.230E-3	-19.8632E-3
-2.95398E-3	-111.621E-12	693.500E-3	-11.1965E-3	-111.723E-12	665.329E-3	-8.29250E-3
-2.95898E-3	-111.853E-12	678.916E-3	-7.24821E-3	-111.620E-12	664.442E-3	3.05529E-3
-2.96398E-3	-112.567E-12	671.698E-3	-1.13361E-3	-111.627E-12	662.846E-3	-10.6004E-3
-2.96898E-3	-112.716E-12	674.075E-3	-17.1812E-3	-111.930E-12	653.458E-3	-33.7703E-3
-2.97399E-3	-112.606E-12	690.298E-3	-34.1386E-3	-112.313E-12	643.590E-3	-38.1368E-3
-2.97899E-3	-113.521E-12	695.315E-3	-31.3498E-3	-112.422E-12	640.521E-3	-16.6507E-3
-2.98399E-3	-113.762E-12	676.828E-3	-31.2745E-3	-112.552E-12	639.247E-3	2.89287E-3
-2.98899E-3	-113.797E-12	657.426E-3	-24.0489E-3	-112.898E-12	658.981E-3	1.55348E-3
-2.99400E-3	-114.544E-12	651.685E-3	-9.00958E-3	-112.909E-12	680.211E-3	-13.9902E-3
-2.99900E-3	-114.811E-12	646.909E-3	-14.6994E-3	-112.916E-12	669.965E-3	-18.9737E-3
-3.00400E-3	-114.884E-12	641.511E-3	-34.7329E-3	-112.692E-12	662.214E-3	-12.5883E-3
-3.00900E-3	-115.371E-12	656.236E-3	-40.9036E-3	-112.912E-12	670.183E-3	-8.77026E-3
-3.01401E-3	-115.578E-12	681.175E-3	-34.1337E-3	-113.167E-12	672.330E-3	-5.00813E-3
-3.01901E-3	-115.379E-12	692.170E-3	-25.9270E-3	-113.197E-12	677.807E-3	-4.01788E-3
-3.02401E-3	-115.521E-12	698.514E-3	-15.7430E-3	-113.806E-12	690.624E-3	-6.97661E-3
-3.02901E-3	-115.904E-12	696.885E-3	-14.7077E-3	-114.183E-12	690.700E-3	-9.80240E-3
-3.03402E-3	-115.661E-12	692.840E-3	-23.4278E-3	-114.662E-12	679.454E-3	-13.5034E-3
-3.03902E-3	-116.061E-12	701.590E-3	-22.5878E-3	-114.895E-12	675.327E-3	-24.8637E-3
-3.04402E-3	-115.907E-12	695.014E-3	-18.9424E-3	-115.583E-12	682.541E-3	-28.2359E-3
-3.04902E-3	-115.969E-12	680.668E-3	-21.7313E-3	-116.503E-12	683.386E-3	-16.2737E-3
-3.05403E-3	-116.345E-12	671.980E-3	-18.3290E-3	-116.924E-12	676.670E-3	-18.0058E-3
-3.05903E-3	-116.417E-12	658.458E-3	-1.51933E-3	-116.778E-12	674.802E-3	-25.7422E-3
-3.06403E-3	-116.433E-12	656.861E-3	11.4501E-3	-117.444E-12	680.726E-3	-7.98244E-3
-3.06903E-3	-116.833E-12	663.889E-3	13.6681E-3	-117.874E-12	691.363E-3	8.28304E-3
-3.07404E-3	-117.350E-12	666.065E-3	22.7880E-3	-117.862E-12	691.146E-3	-2.68763E-3
-3.07904E-3	-117.329E-12	675.848E-3	19.0533E-3	-117.585E-12	690.912E-3	-12.2369E-3
-3.08404E-3	-117.666E-12	694.858E-3	-3.61443E-3	-117.455E-12	694.094E-3	-4.67917E-3
-3.08904E-3	-118.131E-12	703.974E-3	-11.9336E-3	-117.792E-12	681.085E-3	5.36411E-3
-3.09405E-3	-118.522E-12	707.415E-3	-7.72435E-3	-117.087E-12	662.243E-3	375.375E-6
-3.09905E-3	-118.510E-12	703.796E-3	-13.2689E-3	-117.043E-12	654.336E-3	-10.0991E-3
-3.10405E-3	-119.044E-12	694.925E-3	-31.1196E-3	-117.019E-12	659.863E-3	-9.28594E-3
-3.10905E-3	-119.053E-12	693.403E-3	-33.5304E-3	-117.436E-12	667.372E-3	-10.3312E-3
-3.11406E-3	-118.738E-12	691.970E-3	-20.6242E-3	-117.138E-12	661.113E-3	-9.92082E-3
-3.11906E-3	-118.725E-12	685.441E-3	-18.9578E-3	-117.514E-12	648.996E-3	-1.04336E-3
-3.12406E-3	-119.048E-12	678.643E-3	-11.5923E-3	-118.041E-12	659.064E-3	3.23937E-3
-3.12906E-3	-118.598E-12	683.343E-3	-4.46933E-3	-118.452E-12	671.168E-3	7.19864E-3
-3.13407E-3	-118.735E-12	696.753E-3	-20.6780E-3	-118.780E-12	650.884E-3	3.48349E-3
-3.13907E-3	-118.822E-12	691.175E-3	-32.1003E-3	-119.610E-12	649.527E-3	-12.8413E-3
-3.14407E-3	-119.013E-12	675.862E-3	-25.7429E-3	-120.337E-12	684.425E-3	-26.1599E-3
-3.14907E-3	-119.089E-12	678.968E-3	-28.8240E-3	-120.202E-12	693.499E-3	-16.3157E-3
-3.15408E-3	-119.277E-12	684.717E-3	-36.9831E-3	-120.672E-12	678.032E-3	8.53602E-3
-3.15908E-3	-119.563E-12	683.593E-3	-24.3149E-3	-120.900E-12	662.750E-3	4.10287E-3
-3.16408E-3	-120.064E-12	678.166E-3	-17.4114E-3	-121.046E-12	652.929E-3	-17.8023E-3
-3.16908E-3	-120.664E-12	677.302E-3	-33.7931E-3	-120.705E-12	652.979E-3	-15.1027E-3
-3.17409E-3	-121.164E-12	680.933E-3	-42.9081E-3	-120.850E-12	657.198E-3	-9.57977E-3
-3.17909E-3	-121.601E-12	665.660E-3	-36.1979E-3	-120.688E-12	667.531E-3	-24.3049E-3
-3.18409E-3	-122.416E-12	651.059E-3	-26.9296E-3	-120.716E-12	666.785E-3	-25.8181E-3
-3.18909E-3	-122.433E-12	655.555E-3	-25.8046E-3	-120.619E-12	643.703E-3	-18.3035E-3
-3.19410E-3	-122.846E-12	655.533E-3	-34.1358E-3	-121.006E-12	641.807E-3	-16.1641E-3
-3.19910E-3	-123.175E-12	658.796E-3	-43.1435E-3	-121.774E-12	670.090E-3	-7.75699E-3
-3.20410E-3	-123.134E-12	680.636E-3	-38.6940E-3	-122.052E-12	679.797E-3	-10.2261E-3
-3.20910E-3	-122.924E-12	686.052E-3	-21.3693E-3	-122.515E-12	675.096E-3	-16.5924E-3
-3.21411E-3	-123.100E-12	670.483E-3	-8.12020E-3	-123.391E-12	678.807E-3	-14.4762E-3
-3.21911E-3	-123.416E-12	663.745E-3	-5.67981E-3	-124.101E-12	676.884E-3	-13.6518E-3
-3.22411E-3	-122.948E-12	659.541E-3	-8.42392E-3	-124.580E-12	675.166E-3	-2.01743E-3
-3.22911E-3	-122.725E-12	659.376E-3	-14.0685E-3	-125.465E-12	683.572E-3	13.8112E-3
-3.23412E-3	-122.981E-12	666.094E-3	-21.8318E-3	-125.988E-12	695.976E-3	14.6623E-3
-3.23912E-3	-123.226E-12	664.018E-3	-18.9509E-3	-126.184E-12	701.820E-3	10.8711E-3
-3.24412E-3	-123.422E-12	654.647E-3	-11.9737E-3	-126.647E-12	685.112E-3	6.21851E-3
-3.24912E-3	-124.122E-12	656.868E-3	-4.29803E-3	-126.772E-12	664.993E-3	-6.35141E-3
-3.25413E-3	-124.997E-12	673.773E-3	6.91697E-3	-126.706E-12	665.326E-3	-13.5765E-3
-3.25913E-3	-125.447E-12	685.977E-3	7.39777E-3	-126.716E-12	672.732E-3	-18.6860E-3
-3.26413E-3	-125.767E-12	685.101E-3	-2.22423E-3	-126.747E-12	673.401E-3	-21.4323E-3
-3.26913E-3	-126.675E-12	669.962E-3	-20.6818E-3	-125.943E-12	670.504E-3	-4.09505E-3
-3.27414E-3	-127.018E-12	646.511E-3	-27.2800E-3	-126.334E-12	674.504E-3	9.55407E-3
-3.27914E-3	-127.460E-12	649.107E-3	-11.3033E-3	-126.416E-12	687.591E-3	-14.3929E-3
-3.28414E-3	-128.478E-12	656.800E-3	-940.979E-6	-126.629E-12	694.328E-3	-40.3611E-3
-3.28914E-3	-128.772E-12	650.222E-3	-9.05888E-3	-126.613E-12	689.467E-3	-31.2710E-3
-3.29415E-3	-128.343E-12	671.043E-3	-25.1846E-3	-127.015E-12	686.592E-3	-17.4358E-3
-3.29915E-3	-128.484E-12	690.350E-3	-30.1739E-3	-127.749E-12	683.830E-3	-10.2375E-3
-3.30415E-3	-129.474E-12	679.460E-3	-20.0311E-3	-128.193E-12	677.528E-3	-5.12235E-3
-3.30915E-3	-128.856E-12	675.073E-3	-15.3450E-3	-128.402E-12	672.470E-3	-15.7355E-3
-3.31416E-3	-128.275E-12	683.682E-3	-20.3700E-3	-128.638E-12	675.850E-3	-26.0433E-3
-3.31916E-3	-128.644E-12	684.681E-3	-13.6956E-3	-129.102E-12	686.475E-3	-12.3209E-3
-3.32416E-3	-128.181E-12	676.286E-3	-15.0475E-3	-129.334E-12	687.251E-3	6.14767E-3
-3.32916E-3	-128.066E-12	667.530E-3	-33.7268E-3	-129.168E-12	679.397E-3	2.22497E-3
-3.33417E-3	-128.043E-12	674.699E-3	-36.3301E-3	-129.405E-12	670.366E-3	-26.9927E-3
-3.33917E-3	-128.269E-12	696.932E-3	-27.1046E-3	-129.749E-12	659.713E-3	-52.9372E-3
-3.34417E-3	-128.532E-12	689.500E-3	-23.3877E-3	-128.984E-12	651.051E-3	-44.4116E-3
-3.34917E-3	-129.390E-12	654.489E-3	-27.7524E-3	-128.775E-12	643.803E-3	-21.2309E-3
-3.35418E-3	-130.262E-12	640.119E-3	-38.0173E-3	-128.679E-12	639.368E-3	-21.2047E-3
-3.35918E-3	-130.776E-12	644.202E-3	-34.9171E-3	-128.470E-12	630.234E-3	-40.5586E-3
-3.36418E-3	-131.539E-12	650.933E-3	-11.1021E-3	-128.107E-12	618.245E-3	-47.6960E-3
-3.36918E-3	-131.959E-12	660.504E-3	7.39043E-3	-127.950E-12	632.983E-3	-40.5199E-3
-3.37419E-3	-132.345E-12	672.909E-3	-1.80014E-3	-128.504E-12	666.290E-3	-31.0915E-3
-3.37919E-3	-132.951E-12	682.902E-3	-28.0329E-3	-128.590E-12	676.565E-3	-24.6524E-3
-3.38419E-3	-132.933E-12	677.092E-3	-38.0458E-3	-129.360E-12	673.208E-3	-24.8500E-3
-3.38919E-3	-132.936E-12	670.676E-3	-20.5114E-3	-129.685E-12	681.082E-3	-24.4681E-3
-3.39420E-3	-133.164E-12	678.058E-3	4.97634E-3	-130.470E-12	676.964E-3	-30.4552E-3
-3.39920E-3	-132.845E-12	686.767E-3	13.8779E-3	-131.164E-12	667.956E-3	-37.0626E-3
-3.40420E-3	-132.716E-12	691.122E-3	10.0464E-3	-131.352E-12	681.729E-3	-24.8193E-3
-3.40920E-3	-132.049E-12	680.246E-3	6.75160E-3	-132.007E-12	690.988E-3	-3.19703E-3
-3.41421E-3	-132.157E-12	668.354E-3	13.1114E-3	-132.322E-12	684.279E-3	3.01828E-3
-3.41921E-3	-131.645E-12	694.918E-3	18.0135E-3	-132.383E-12	676.208E-3	-5.20403E-3
-3.42421E-3	-130.583E-12	728.836E-3	-2.49867E-3	-133.026E-12	652.853E-3	-4.79101E-3
-3.42921E-3	-131.245E-12	712.938E-3	-10.6089E-3	-133.157E-12	635.141E-3	6.79509E-3
-3.43422E-3	-131.535E-12	683.034E-3	10.7543E-3	-132.887E-12	650.666E-3	-3.95966E-3
-3.43922E-3	-131.462E-12	675.169E-3	6.98235E-3	-132.942E-12	662.448E-3	-28.3091E-3
-3.44422E-3	-131.475E-12	666.719E-3	-18.7693E-3	-133.134E-12	657.341E-3	-28.6213E-3
-3.44922E-3	-132.280E-12	663.740E-3	-28.7618E-3	-133.024E-12	658.350E-3	-26.0289E-3
-3.45423E-3	-133.069E-12	666.340E-3	-26.6760E-3	-133.198E-12	662.963E-3	-27.1712E-3
-3.45923E-3	-132.914E-12	665.901E-3	-13.0257E-3	-132.625E-12	662.204E-3	-14.8493E-3
-3.46423E-3	-133.738E-12	666.023E-3	-3.02379E-3	-132.964E-12	662.048E-3	-4.16777E-3
-3.46923E-3	-134.599E-12	658.042E-3	215.515E-6	-133.648E-12	662.576E-3	-9.11920E-3
-3.47424E-3	-134.700E-12	661.207E-3	10.0132E-3	-134.042E-12	658.370E-3	-15.1127E-3
-3.47924E-3	-134.498E-12	680.997E-3	4.09581E-3	-134.058E-12	650.131E-3	-19.5458E-3
-3.48424E-3	-135.559E-12	682.980E-3	-14.2446E-3	-135.428E-12	641.016E-3	-33.6568E-3
-3.48924E-3	-135.760E-12	672.066E-3	-11.7477E-3	-135.748E-12	656.540E-3	-37.1860E-3
-3.49425E-3	-135.382E-12	665.735E-3	8.97338E-3	-136.023E-12	680.985E-3	-24.0164E-3
-3.49925E-3	-136.088E-12	658.889E-3	8.86094E-3	-136.357E-12	676.374E-3	-27.8921E-3
-3.50425E-3	-136.254E-12	654.753E-3	-9.07557E-3	-136.906E-12	654.907E-3	-35.0627E-3
-3.50925E-3	-135.895E-12	654.647E-3	-9.77847E-3	-137.306E-12	638.707E-3	-10.0185E-3
-3.51426E-3	-136.240E-12	662.594E-3	-22.5895E-3	-138.000E-12	641.512E-3	2.89141E-3
-3.51926E-3	-136.618E-12	666.342E-3	-44.8023E-3	-137.712E-12	655.933E-3	-28.7686E-3
-3.52426E-3	-136.363E-12	656.953E-3	-30.3442E-3	-138.119E-12	661.558E-3	-49.1375E-3
-3.52926E-3	-137.091E-12	646.352E-3	-10.1497E-3	-138.276E-12	661.504E-3	-27.3305E-3
-3.53427E-3	-137.169E-12	639.134E-3	-10.6008E-3	-138.429E-12	658.950E-3	-2.03483E-3
-3.53927E-3	-137.146E-12	645.601E-3	-13.9657E-3	-137.935E-12	665.107E-3	1.87700E-3
-3.54427E-3	-137.589E-12	664.191E-3	-24.1908E-3	-138.202E-12	678.681E-3	-2.36019E-3
-3.54927E-3	-138.758E-12	677.560E-3	-40.0925E-3	-138.160E-12	667.814E-3	-9.62851E-3
-3.55428E-3	-138.535E-12	671.148E-3	-24.6511E-3	-138.148E-12	642.655E-3	-12.5680E-3
-3.55928E-3	-138.457E-12	661.178E-3	-1.87693E-3	-138.200E-12	634.396E-3	-7.32546E-3
-3.56428E-3	-139.594E-12	662.245E-3	-14.6998E-3	-138.443E-12	635.041E-3	-19.1455E-3
-3.56928E-3	-139.543E-12	676.096E-3	-21.4095E-3	-138.687E-12	641.164E-3	-27.6530E-3
-3.57429E-3	-139.522E-12	684.227E-3	-11.0549E-3	-138.861E-12	663.745E-3	-12.6137E-3
-3.57929E-3	-140.249E-12	677.599E-3	-11.8152E-3	-138.774E-12	681.192E-3	2.34373E-3
-3.58429E-3	-140.940E-12	675.122E-3	-11.0251E-3	-138.527E-12	673.485E-3	19.2142E-3
-3.58929E-3	-140.683E-12	664.070E-3	17.1575E-3	-138.675E-12	658.740E-3	36.5356E-3
-3.59430E-3	-141.504E-12	651.845E-3	36.6349E-3	-138.836E-12	658.488E-3	25.5772E-3
-3.59930E-3	-142.221E-12	673.714E-3	14.3263E-3	-138.335E-12	651.356E-3	-994.821E-6
-3.60430E-3	-142.111E-12	704.221E-3	-4.12960E-3	-138.792E-12	632.488E-3	-1.08543E-3
-3.60930E-3	-142.551E-12	706.583E-3	-2.69482E-3	-139.127E-12	634.774E-3	8.07726E-3
-3.61431E-3	-143.774E-12	684.508E-3	-128.121E-6	-139.280E-12	647.110E-3	-13.7568E-3
-3.61931E-3	-142.789E-12	658.295E-3	6.46132E-3	-139.481E-12	647.365E-3	-36.7048E-3
-3.62431E-3	-143.048E-12	660.882E-3	2.96305E-3	-140.406E-12	655.098E-3	-32.2451E-3
-3.62931E-3	-143.156E-12	677.132E-3	-19.3173E-3	-140.701E-12	668.962E-3	-18.8002E-3
-3.63432E-3	-142.816E-12	678.512E-3	-23.9904E-3	-141.233E-12	669.522E-3	-712.288E-6
-3.63932E-3	-142.376E-12	674.020E-3	-22.5938E-3	-142.184E-12	674.026E-3	23.4896E-3
-3.64432E-3	-142.457E-12	666.702E-3	-49.8724E-3	-142.811E-12	674.011E-3	28.2535E-3
-3.64932E-3	-141.911E-12	669.667E-3	-64.8439E-3	-143.935E-12	658.435E-3	-5.72117E-3
-3.65433E-3	-141.247E-12	686.046E-3	-46.0433E-3	-144.212E-12	654.926E-3	-38.0816E-3
-3.65933E-3	-141.880E-12	681.561E-3	-18.8862E-3	-144.449E-12	663.609E-3	-23.0011E-3
-3.66433E-3	-141.625E-12	676.355E-3	-353.742E-6	-144.721E-12	665.780E-3	5.37264E-3
-3.66933E-3	-141.323E-12	671.779E-3	524.685E-6	-145.076E-12	663.691E-3	3.74782E-3
-3.67434E-3	-141.939E-12	648.376E-3	-3.81386E-3	-144.726E-12	661.150E-3	-3.27563E-3
-3.67934E-3	-142.764E-12	635.961E-3	-2.80365E-3	-144.700E-12	663.327E-3	-1.50676E-3
-3.68434E-3	-143.003E-12	644.406E-3	-13.8102E-3	-145.215E-12	680.459E-3	-2.48961E-3
-3.68934E-3	-143.828E-12	652.377E-3	-26.0654E-3	-144.612E-12	690.331E-3	-15.2992E-3
-3.69435E-3	-145.292E-12	647.015E-3	-2.03044E-3	-144.031E-12	678.403E-3	-23.8451E-3
-3.69935E-3	-145.806E-12	637.100E-3	17.0374E-3	-144.568E-12	672.234E-3	-8.31762E-3
-3.70435E-3	-147.183E-12	643.190E-3	-3.44219E-3	-144.184E-12	682.564E-3	-13.0115E-3
-3.70935E-3	-148.032E-12	651.383E-3	-24.9301E-3	-144.495E-12	682.293E-3	-29.6063E-3
-3.71436E-3	-148.188E-12	652.224E-3	-24.4208E-3	-144.306E-12	660.906E-3	-17.5258E-3
-3.71936E-3	-148.228E-12	659.626E-3	-14.1309E-3	-144.612E-12	655.404E-3	-5.11792E-3
-3.72436E-3	-148.530E-12	655.488E-3	-458.164E-6	-144.828E-12	678.838E-3	-5.94959E-3
-3.72936E-3	-148.080E-12	635.912E-3	12.2102E-3	-145.535E-12	681.941E-3	-18.1436E-3
-3.73437E-3	-147.189E-12	636.486E-3	-2.69952E-3	-145.829E-12	670.168E-3	-40.2901E-3
-3.73937E-3	-147.492E-12	650.180E-3	-21.0247E-3	-146.852E-12	666.677E-3	-50.2326E-3
-3.74437E-3	-147.189E-12	644.534E-3	-17.2037E-3	-147.640E-12	652.789E-3	-39.7612E-3
-3.74937E-3	-146.597E-12	634.569E-3	-14.7347E-3	-148.272E-12	639.239E-3	-21.9721E-3
-3.75438E-3	-145.850E-12	635.438E-3	-14.0478E-3	-148.695E-12	649.498E-3	-3.63083E-3
-3.75938E-3	-146.227E-12	643.760E-3	-6.02012E-3	-149.470E-12	676.782E-3	113.281E-6
-3.76438E-3	-146.190E-12	653.112E-3	15.2524E-3	-149.078E-12	681.454E-3	-1.94943E-3
-3.76938E-3	-145.627E-12	660.832E-3	23.2484E-3	-149.282E-12	662.403E-3	9.55070E-3
-3.77439E-3	-146.399E-12	664.103E-3	2.48268E-3	-148.623E-12	646.778E-3	22.4957E-3
-3.77939E-3	-147.628E-12	650.830E-3	-11.7651E-3	-148.502E-12	641.620E-3	14.6475E-3
-3.78439E-3	-148.278E-12	631.660E-3	-9.65882E-3	-148.145E-12	631.655E-3	11.0275E-3
-3.78939E-3	-148.879E-12	626.215E-3	7.55256E-3	-148.066E-12	611.965E-3	29.3827E-3
-3.79440E-3	-150.400E-12	640.802E-3	26.1981E-3	-147.340E-12	608.472E-3	22.4468E-3
-3.79940E-3	-151.409E-12	656.999E-3	28.6698E-3	-147.332E-12	627.304E-3	-5.76786E-3
-3.80440E-3	-151.762E-12	656.581E-3	4.28564E-3	-146.914E-12	651.328E-3	-17.6184E-3
-3.80940E-3	-152.601E-12	638.710E-3	-41.4216E-3	-147.137E-12	667.376E-3	-33.4050E-3
-3.81441E-3	-153.022E-12	638.341E-3	-49.1533E-3	-146.898E-12	669.975E-3	-45.7728E-3
-3.81941E-3	-152.816E-12	663.980E-3	-30.8102E-3	-147.987E-12	667.531E-3	-40.4817E-3
-3.82441E-3	-152.105E-12	661.930E-3	-36.1960E-3	-148.080E-12	661.285E-3	-30.9347E-3
-3.82941E-3	-152.160E-12	637.513E-3	-34.7236E-3	-149.420E-12	648.354E-3	-22.6593E-3
-3.83442E-3	-151.392E-12	625.508E-3	-22.1245E-3	-150.620E-12	640.213E-3	-23.1811E-3
-3.83942E-3	-151.010E-12	632.121E-3	-20.5269E-3	-151.339E-12	631.394E-3	-11.1251E-3
-3.84442E-3	-149.896E-12	640.889E-3	-19.8617E-3	-152.583E-12	638.595E-3	-763.654E-6
-3.84942E-3	-149.955E-12	648.227E-3	-14.5988E-3	-153.427E-12	680.708E-3	-8.79275E-3
-3.85443E-3	-149.979E-12	651.201E-3	-20.4304E-3	-154.009E-12	707.760E-3	-10.7024E-3
-3.85943E-3	-149.271E-12	636.513E-3	-38.0214E-3	-155.054E-12	693.014E-3	-12.6907E-3
-3.86443E-3	-149.368E-12	624.993E-3	-39.7359E-3	-155.378E-12	663.457E-3	-21.7501E-3
-3.86943E-3	-149.577E-12	628.593E-3	-23.8643E-3	-154.659E-12	655.297E-3	-14.4918E-3
-3.87444E-3	-149.888E-12	642.900E-3	-25.6863E-3	-154.347E-12	668.115E-3	-14.4530E-3
-3.87944E-3	-150.316E-12	661.525E-3	-20.6981E-3	-155.204E-12	662.142E-3	-35.9042E-3
-3.88444E-3	-151.226E-12	657.498E-3	-2.77481E-3	-154.436E-12	653.002E-3	-29.6586E-3
-3.88944E-3	-151.959E-12	636.200E-3	-7.06485E-3	-153.962E-12	670.247E-3	2.29242E-3
-3.89445E-3	-152.492E-12	619.688E-3	-8.08406E-3	-153.952E-12	681.833E-3	22.7336E-3
-3.89945E-3	-153.220E-12	618.449E-3	6.79388E-3	-153.874E-12	665.497E-3	-112.723E-6
-3.90445E-3	-153.920E-12	648.836E-3	13.3933E-3	-153.687E-12	662.967E-3	-40.8818E-3
-3.90945E-3	-154.235E-12	678.482E-3	5.33419E-3	-153.683E-12	674.929E-3	-37.0075E-3
-3.91446E-3	-155.088E-12	679.338E-3	188.320E-6	-154.256E-12	674.752E-3	-1.89988E-3
-3.91946E-3	-155.166E-12	659.868E-3	9.91137E-3	-154.819E-12	660.435E-3	4.75699E-3
-3.92446E-3	-155.267E-12	653.286E-3	8.56022E-3	-155.368E-12	636.094E-3	-23.9128E-3
-3.92946E-3	-155.548E-12	675.956E-3	-1.94753E-3	-155.961E-12	641.993E-3	-17.3670E-3
-3.93447E-3	-155.809E-12	689.325E-3	-14.5923E-3	-156.238E-12	658.985E-3	13.7853E-3
-3.93947E-3	-155.900E-12	677.233E-3	-31.3526E-3	-156.951E-12	658.875E-3	7.35876E-3
-3.94447E-3	-155.608E-12	672.536E-3	-19.6047E-3	-157.206E-12	666.683E-3	1.74815E-3
-3.94947E-3	-156.461E-12	682.693E-3	-4.93971E-3	-157.040E-12	662.224E-3	11.2270E-3
-3.95448E-3	-156.315E-12	681.481E-3	-15.3257E-3	-157.544E-12	650.607E-3	6.56736E-3
-3.95948E-3	-156.851E-12	660.747E-3	-24.4915E-3	-157.600E-12	663.518E-3	1.41085E-3
-3.96448E-3	-157.007E-12	643.233E-3	-20.3918E-3	-157.013E-12	664.119E-3	-9.53049E-3
-3.96948E-3	-157.869E-12	646.073E-3	-13.8215E-3	-156.800E-12	644.203E-3	-32.5248E-3
-3.97449E-3	-157.783E-12	654.191E-3	-3.54141E-3	-156.706E-12	636.480E-3	-50.0096E-3
-3.97949E-3	-158.115E-12	658.454E-3	6.38361E-3	-156.490E-12	641.474E-3	-51.5309E-3
-3.98449E-3	-158.577E-12	655.206E-3	-8.41934E-3	-156.709E-12	645.725E-3	-29.3421E-3
-3.98949E-3	-158.812E-12	651.144E-3	-33.6194E-3	-156.638E-12	644.230E-3	-2.41910E-3
-3.99450E-3	-159.196E-12	640.539E-3	-27.5660E-3	-156.982E-12	646.418E-3	1.10120E-3
-3.99950E-3	-159.018E-12	619.767E-3	670.062E-6	-156.715E-12	662.908E-3	-17.8557E-3
-4.00450E-3	-159.069E-12	619.743E-3	12.9128E-3	-157.499E-12	655.070E-3	-31.8984E-3
-4.00950E-3	-159.612E-12	649.304E-3	-507.011E-6	-157.401E-12	628.902E-3	-18.6867E-3
-4.01451E-3	-160.102E-12	681.821E-3	-23.1106E-3	-158.209E-12	651.627E-3	-1.88321E-3
-4.01951E-3	-159.508E-12	679.732E-3	-37.5572E-3	-157.882E-12	684.039E-3	-11.4647E-3
-4.02451E-3	-160.222E-12	655.587E-3	-28.4288E-3	-158.391E-12	670.936E-3	-24.1309E-3
-4.02951E-3	-160.545E-12	640.890E-3	-20.1668E-3	-158.436E-12	653.098E-3	-31.5260E-3
-4.03452E-3	-160.127E-12	645.958E-3	-30.8331E-3	-158.729E-12	650.486E-3	-33.5798E-3
-4.03952E-3	-160.461E-12	658.337E-3	-32.6045E-3	-158.644E-12	643.941E-3	-3.47368E-3
-4.04452E-3	-160.594E-12	669.920E-3	-1.58462E-3	-158.992E-12	645.398E-3	31.9903E-3
-4.04952E-3	-160.530E-12	683.433E-3	38.8218E-3	-159.134E-12	662.862E-3	16.3258E-3
-4.05453E-3	-160.516E-12	678.951E-3	38.6071E-3	-159.493E-12	682.039E-3	-16.0222E-3
-4.05953E-3	-161.153E-12	670.240E-3	9.30926E-3	-159.254E-12	683.201E-3	-15.7542E-3
-4.06453E-3	-160.934E-12	672.597E-3	-3.09927E-3	-159.474E-12	657.060E-3	-12.7396E-3
-4.06953E-3	-161.366E-12	676.485E-3	-4.39185E-3	-160.684E-12	629.438E-3	-12.7906E-3
-4.07454E-3	-160.692E-12	683.328E-3	-5.33714E-3	-161.017E-12	631.990E-3	-6.19412E-3
-4.07954E-3	-159.661E-12	686.672E-3	3.73164E-3	-161.413E-12	656.176E-3	-15.3588E-3
-4.08454E-3	-160.698E-12	677.379E-3	2.91544E-3	-162.921E-12	679.184E-3	-28.2271E-3
-4.08954E-3	-160.595E-12	667.842E-3	-15.7338E-3	-163.785E-12	685.404E-3	-30.9585E-3
-4.09455E-3	-159.614E-12	659.676E-3	-23.5824E-3	-164.395E-12	670.715E-3	-23.0934E-3
-4.09955E-3	-159.731E-12	656.612E-3	-15.1118E-3	-165.100E-12	665.239E-3	5.46325E-3
-4.10455E-3	-160.908E-12	665.019E-3	-1.49634E-3	-165.682E-12	677.270E-3	10.9524E-3
-4.10955E-3	-160.435E-12	664.625E-3	14.7447E-3	-165.310E-12	679.100E-3	-16.4739E-3
-4.11456E-3	-161.247E-12	656.347E-3	12.5119E-3	-165.660E-12	673.759E-3	-19.1829E-3
-4.11956E-3	-162.188E-12	657.153E-3	-18.5191E-3	-165.892E-12	662.483E-3	-15.8274E-3
-4.12456E-3	-162.512E-12	651.541E-3	-38.3239E-3	-166.027E-12	649.224E-3	-35.3471E-3
-4.12956E-3	-163.103E-12	645.756E-3	-31.4432E-3	-165.080E-12	645.927E-3	-39.6820E-3
-4.13457E-3	-164.232E-12	662.703E-3	-22.1422E-3	-164.589E-12	650.486E-3	-27.0549E-3
-4.13957E-3	-164.393E-12	684.624E-3	-15.6555E-3	-163.964E-12	673.613E-3	-15.5728E-3
-4.14457E-3	-165.389E-12	672.915E-3	-18.9995E-3	-164.607E-12	685.024E-3	-12.7455E-3
-4.14957E-3	-166.270E-12	635.861E-3	-27.8686E-3	-163.803E-12	652.951E-3	-10.8981E-3
-4.15458E-3	-166.653E-12	632.072E-3	-22.4041E-3	-164.504E-12	631.149E-3	-16.0390E-3
-4.15958E-3	-166.976E-12	654.338E-3	-15.3162E-3	-164.214E-12	632.493E-3	-35.2877E-3
-4.16458E-3	-167.738E-12	660.319E-3	-25.3338E-3	-164.760E-12	637.699E-3	-36.2133E-3
-4.16958E-3	-167.092E-12	663.512E-3	-36.8052E-3	-165.122E-12	659.261E-3	-20.0253E-3
-4.17459E-3	-166.538E-12	657.645E-3	-34.9376E-3	-166.363E-12	683.660E-3	-16.2897E-3
-4.17959E-3	-167.561E-12	627.033E-3	-23.3449E-3	-166.686E-12	692.652E-3	-20.6147E-3
-4.18459E-3	-166.758E-12	627.088E-3	-23.1181E-3	-167.466E-12	684.433E-3	-14.1943E-3
-4.18959E-3	-166.235E-12	670.093E-3	-39.0243E-3	-168.431E-12	667.030E-3	-5.52105E-3
-4.19460E-3	-166.563E-12	684.171E-3	-37.5417E-3	-168.770E-12	659.242E-3	-5.44751E-3
-4.19960E-3	-166.924E-12	666.154E-3	-15.9147E-3	-168.251E-12	662.070E-3	-9.30655E-3
-4.20460E-3	-166.197E-12	665.502E-3	-14.2645E-3	-168.356E-12	661.798E-3	-10.7920E-3
-4.20960E-3	-166.556E-12	676.752E-3	-26.0284E-3	-167.540E-12	652.798E-3	-6.36499E-3
-4.21461E-3	-167.156E-12	689.737E-3	-18.6854E-3	-167.342E-12	622.246E-3	1.47101E-3
-4.21961E-3	-167.670E-12	689.550E-3	-15.3105E-3	-166.488E-12	596.789E-3	-4.88596E-3
-4.22461E-3	-168.355E-12	664.632E-3	-11.7886E-3	-166.165E-12	605.569E-3	-29.0021E-3
-4.22961E-3	-168.435E-12	646.470E-3	1.11844E-3	-165.742E-12	635.036E-3	-39.7705E-3
-4.23462E-3	-169.393E-12	646.583E-3	5.76358E-3	-165.315E-12	654.704E-3	-25.9231E-3
-4.23962E-3	-169.430E-12	641.867E-3	10.6132E-3	-165.219E-12	649.192E-3	-23.5949E-3
-4.24462E-3	-169.790E-12	640.206E-3	19.1419E-3	-165.521E-12	637.064E-3	-29.3337E-3
-4.24962E-3	-169.959E-12	652.751E-3	15.8941E-3	-165.683E-12	623.491E-3	-7.70577E-3
-4.25463E-3	-169.677E-12	673.163E-3	-5.32313E-3	-165.914E-12	619.073E-3	24.5034E-3
-4.25963E-3	-169.507E-12	692.578E-3	-25.1398E-3	-167.049E-12	642.264E-3	37.3288E-3
-4.26463E-3	-168.530E-12	690.490E-3	-21.5665E-3	-168.046E-12	652.898E-3	23.5926E-3
-4.26963E-3	-168.415E-12	666.426E-3	-21.4899E-3	-168.998E-12	628.887E-3	6.68993E-3
-4.27464E-3	-167.734E-12	645.921E-3	-40.1749E-3	-170.214E-12	619.254E-3	-6.99924E-3
-4.27964E-3	-167.922E-12	642.402E-3	-43.7648E-3	-170.323E-12	646.937E-3	-25.9070E-3
-4.28464E-3	-167.360E-12	650.504E-3	-33.5055E-3	-171.840E-12	659.329E-3	-27.0534E-3
-4.28964E-3	-167.119E-12	654.180E-3	-30.8939E-3	-171.960E-12	636.231E-3	-9.74009E-3
-4.29465E-3	-167.327E-12	648.567E-3	-23.4476E-3	-171.935E-12	628.468E-3	370.204E-6
-4.29965E-3	-168.189E-12	633.985E-3	-26.0475E-3	-172.331E-12	632.755E-3	-4.60474E-3
-4.30465E-3	-168.185E-12	624.488E-3	-34.8182E-3	-172.014E-12	621.482E-3	-17.6108E-3
-4.30965E-3	-168.888E-12	635.881E-3	-6.13667E-3	-171.301E-12	619.996E-3	-31.3295E-3
-4.31466E-3	-170.145E-12	633.208E-3	32.9735E-3	-170.999E-12	632.772E-3	-24.7718E-3
-4.31966E-3	-170.964E-12	624.948E-3	17.2996E-3	-171.074E-12	632.330E-3	4.12048E-3
-4.32466E-3	-171.187E-12	642.377E-3	-13.1436E-3	-171.332E-12	632.971E-3	3.05079E-3
-4.32966E-3	-171.965E-12	654.592E-3	-5.54333E-3	-171.531E-12	654.497E-3	-27.6351E-3
-4.33467E-3	-172.324E-12	642.557E-3	5.58598E-3	-172.625E-12	670.342E-3	-40.7506E-3
-4.33967E-3	-173.086E-12	645.715E-3	11.9907E-3	-173.220E-12	662.745E-3	-32.0583E-3
-4.34467E-3	-172.978E-12	667.440E-3	38.3090E-3	-173.721E-12	648.680E-3	-13.9284E-3
-4.34967E-3	-173.136E-12	666.174E-3	44.4576E-3	-174.689E-12	647.185E-3	1.79597E-3
-4.35468E-3	-173.528E-12	634.329E-3	12.0243E-3	-175.397E-12	658.628E-3	-6.40660E-3
-4.35968E-3	-174.027E-12	608.539E-3	-7.51910E-3	-175.780E-12	658.097E-3	-33.8696E-3
-4.36468E-3	-174.129E-12	618.222E-3	-8.38195E-3	-176.255E-12	637.091E-3	-42.2949E-3
-4.36968E-3	-174.107E-12	637.075E-3	-11.4781E-3	-177.035E-12	624.216E-3	-31.0825E-3
-4.37469E-3	-174.150E-12	642.866E-3	-22.5816E-3	-177.088E-12	632.621E-3	-24.0834E-3
-4.37969E-3	-174.647E-12	642.652E-3	-38.5770E-3	-177.104E-12	635.082E-3	-19.5235E-3
-4.38469E-3	-175.576E-12	654.679E-3	-33.1871E-3	-176.451E-12	638.070E-3	-4.85441E-3
-4.38969E-3	-175.781E-12	685.349E-3	-14.0204E-3	-175.519E-12	645.661E-3	4.61240E-3
-4.39470E-3	-177.101E-12	689.369E-3	-6.89749E-3	-175.282E-12	631.657E-3	-9.41710E-3
-4.39970E-3	-177.728E-12	675.529E-3	8.19404E-3	-175.041E-12	622.743E-3	-30.8648E-3
-4.40470E-3	-178.362E-12	668.902E-3	12.2777E-3	-173.889E-12	634.269E-3	-45.0166E-3
-4.40970E-3	-179.178E-12	656.287E-3	-13.9262E-3	-173.889E-12	643.333E-3	-54.9171E-3
-4.41471E-3	-180.555E-12	652.566E-3	-26.2523E-3	-173.495E-12	645.072E-3	-46.9269E-3
-4.41971E-3	-180.885E-12	647.990E-3	-18.3918E-3	-174.158E-12	641.184E-3	-18.1090E-3
-4.42471E-3	-181.134E-12	629.099E-3	-21.2825E-3	-174.015E-12	643.413E-3	5.13440E-3
-4.42971E-3	-181.099E-12	628.539E-3	-27.1866E-3	-174.814E-12	649.592E-3	12.6454E-3
-4.43472E-3	-181.171E-12	650.286E-3	-21.3326E-3	-175.486E-12	636.206E-3	14.0614E-3
-4.43972E-3	-180.455E-12	669.408E-3	-8.95634E-3	-176.050E-12	613.873E-3	10.4557E-3
-4.44472E-3	-179.985E-12	679.570E-3	-13.5925E-3	-176.164E-12	606.158E-3	3.16181E-3
-4.44972E-3	-178.771E-12	672.165E-3	-21.3292E-3	-177.639E-12	619.301E-3	-5.01353E-3
-4.45473E-3	-178.224E-12	653.327E-3	-13.2044E-3	-177.558E-12	625.930E-3	-11.0027E-3
-4.45973E-3	-177.516E-12	646.773E-3	-16.2753E-3	-177.680E-12	615.487E-3	-5.16345E-3
-4.46473E-3	-176.699E-12	658.898E-3	-26.3190E-3	-178.445E-12	602.939E-3	11.8976E-3
-4.46973E-3	-176.989E-12	656.114E-3	-27.1948E-3	-178.500E-12	597.976E-3	32.0749E-3
-4.47474E-3	-176.906E-12	633.169E-3	-30.7994E-3	-178.232E-12	617.777E-3	35.2518E-3
-4.47974E-3	-176.991E-12	625.258E-3	-34.5432E-3	-178.435E-12	643.131E-3	3.55874E-3
-4.48474E-3	-176.510E-12	627.454E-3	-33.0079E-3	-178.629E-12	653.473E-3	-31.3255E-3
-4.48974E-3	-177.024E-12	635.903E-3	-30.5699E-3	-178.741E-12	657.187E-3	-35.3914E-3
-4.49475E-3	-177.456E-12	640.026E-3	-25.5381E-3	-179.140E-12	662.710E-3	-30.7067E-3
-4.49975E-3	-177.870E-12	634.611E-3	-28.0701E-3	-179.222E-12	671.042E-3	-41.2732E-3
-4.50475E-3	-179.117E-12	639.488E-3	-38.3477E-3	-179.437E-12	671.318E-3	-57.3176E-3
-4.50975E-3	-179.149E-12	638.972E-3	-28.4251E-3	-180.638E-12	660.956E-3	-44.7127E-3
-4.51476E-3	-179.445E-12	623.444E-3	-5.01810E-3	-180.885E-12	659.058E-3	-20.2969E-3
-4.51976E-3	-179.938E-12	610.666E-3	-10.1893E-3	-181.514E-12	679.815E-3	-19.1626E-3
-4.52476E-3	-179.378E-12	614.949E-3	-37.6828E-3	-181.999E-12	682.458E-3	-12.9314E-3
-4.52976E-3	-179.443E-12	616.947E-3	-55.5931E-3	-183.518E-12	668.750E-3	3.40863E-3
-4.53477E-3	-179.357E-12	623.109E-3	-46.2247E-3	-183.919E-12	661.795E-3	1.56569E-3
-4.53977E-3	-179.298E-12	638.123E-3	-31.7795E-3	-184.674E-12	647.675E-3	-8.73912E-3
-4.54477E-3	-179.715E-12	643.588E-3	-25.5907E-3	-185.263E-12	652.311E-3	-9.72250E-3
-4.54977E-3	-180.669E-12	635.192E-3	-30.4178E-3	-186.217E-12	674.663E-3	-3.06988E-3
-4.55478E-3	-180.032E-12	618.986E-3	-44.2540E-3	-185.669E-12	674.126E-3	-5.54214E-3
-4.55978E-3	-181.268E-12	626.235E-3	-39.0163E-3	-185.645E-12	657.534E-3	-9.00278E-3
-4.56478E-3	-182.101E-12	649.722E-3	-27.1811E-3	-185.270E-12	646.158E-3	19.8963E-3
-4.56978E-3	-182.287E-12	661.250E-3	-17.1747E-3	-184.713E-12	639.093E-3	40.2608E-3
-4.57479E-3	-182.217E-12	656.998E-3	-22.6312E-3	-184.869E-12	636.503E-3	11.1694E-3
-4.57979E-3	-183.288E-12	648.002E-3	-34.3655E-3	-185.121E-12	636.950E-3	-11.6238E-3
-4.58479E-3	-183.658E-12	663.127E-3	-23.0802E-3	-184.420E-12	657.276E-3	-5.31968E-3
-4.58979E-3	-184.230E-12	694.896E-3	-11.2747E-3	-183.971E-12	695.879E-3	-15.6435E-3
-4.59480E-3	-184.795E-12	694.648E-3	-23.7820E-3	-184.897E-12	708.103E-3	-18.6845E-3
-4.59980E-3	-185.430E-12	662.598E-3	-47.7451E-3	-183.950E-12	672.780E-3	9.06690E-3
-4.60480E-3	-185.858E-12	651.414E-3	-30.7541E-3	-184.188E-12	642.381E-3	16.4607E-3
-4.60980E-3	-186.794E-12	654.916E-3	3.36944E-3	-184.087E-12	647.083E-3	-7.02208E-3
-4.61481E-3	-186.562E-12	650.711E-3	-4.08997E-3	-184.092E-12	649.509E-3	-8.80797E-3
-4.61981E-3	-186.094E-12	656.733E-3	-11.7664E-3	-183.851E-12	657.978E-3	17.2695E-3
-4.62481E-3	-186.957E-12	657.280E-3	5.12155E-3	-183.656E-12	654.671E-3	15.8786E-3
-4.62981E-3	-186.451E-12	653.648E-3	-2.66484E-3	-183.675E-12	637.758E-3	-16.7126E-3
-4.63482E-3	-186.839E-12	654.851E-3	-21.4507E-3	-183.198E-12	635.084E-3	-38.5334E-3
-4.63982E-3	-186.694E-12	640.542E-3	-7.97424E-3	-183.145E-12	631.444E-3	-47.1746E-3
-4.64482E-3	-186.678E-12	618.860E-3	1.67607E-3	-182.791E-12	642.884E-3	-28.4251E-3
-4.64982E-3	-187.457E-12	613.770E-3	1.07342E-6	-182.452E-12	657.154E-3	-5.03624E-3
-4.65483E-3	-187.644E-12	623.339E-3	-8.90234E-3	-182.077E-12	655.338E-3	-26.2158E-3
-4.65983E-3	-187.706E-12	634.136E-3	-25.4527E-3	-182.391E-12	643.516E-3	-44.5550E-3
-4.66483E-3	-188.066E-12	641.201E-3	-34.4008E-3	-182.855E-12	636.750E-3	-27.8641E-3
-4.66983E-3	-187.786E-12	650.846E-3	-36.6782E-3	-183.381E-12	647.693E-3	-17.4302E-3
-4.67484E-3	-187.505E-12	652.631E-3	-30.6944E-3	-184.010E-12	646.825E-3	-30.3766E-3
-4.67984E-3	-187.275E-12	651.002E-3	-13.7632E-3	-184.511E-12	623.483E-3	-33.5665E-3
-4.68484E-3	-186.659E-12	646.833E-3	13.1662E-3	-185.843E-12	620.094E-3	-7.25657E-3
-4.68984E-3	-186.790E-12	635.471E-3	13.3464E-3	-186.602E-12	650.254E-3	19.1578E-3
-4.69485E-3	-185.485E-12	646.276E-3	-24.1274E-3	-187.451E-12	675.950E-3	7.99523E-3
-4.69985E-3	-185.518E-12	656.593E-3	-42.3688E-3	-188.684E-12	673.972E-3	-17.2618E-3
-4.70485E-3	-185.592E-12	642.339E-3	-23.6503E-3	-189.852E-12	655.274E-3	3.60400E-3
-4.70985E-3	-185.272E-12	630.416E-3	-21.7834E-3	-190.233E-12	636.654E-3	29.6936E-3
-4.71486E-3	-184.690E-12	623.554E-3	-50.8130E-3	-191.370E-12	626.177E-3	-2.67335E-3
-4.71986E-3	-185.029E-12	626.613E-3	-55.7375E-3	-191.652E-12	630.427E-3	-42.1342E-3
-4.72486E-3	-185.264E-12	635.186E-3	-33.8220E-3	-191.808E-12	650.122E-3	-63.0228E-3
-4.72986E-3	-186.260E-12	639.912E-3	-13.4879E-3	-191.328E-12	655.240E-3	-62.4647E-3
-4.73487E-3	-187.009E-12	640.811E-3	3.82479E-3	-190.989E-12	639.911E-3	-31.7013E-3
-4.73987E-3	-188.587E-12	635.572E-3	12.6178E-3	-190.885E-12	640.725E-3	-16.8435E-3
-4.74487E-3	-190.355E-12	638.752E-3	-655.307E-6	-190.580E-12	660.792E-3	-19.4362E-3
-4.74988E-3	-191.789E-12	633.605E-3	-24.3962E-3	-189.992E-12	653.044E-3	-11.3469E-3
-4.75488E-3	-192.961E-12	627.237E-3	-34.9562E-3	-190.510E-12	646.244E-3	-9.35306E-3
-4.75988E-3	-193.981E-12	637.970E-3	-37.3138E-3	-190.667E-12	675.586E-3	-8.78202E-3
-4.76488E-3	-194.830E-12	648.334E-3	-25.5215E-3	-190.856E-12	668.810E-3	-12.6991E-3
-4.76988E-3	-195.109E-12	664.816E-3	2.83568E-3	-191.842E-12	642.610E-3	-7.29343E-3
-4.77489E-3	-195.049E-12	697.094E-3	23.0920E-3	-192.856E-12	653.027E-3	4.03775E-3
-4.77989E-3	-194.729E-12	695.080E-3	18.8204E-3	-193.721E-12	657.924E-3	-13.1917E-3
-4.78489E-3	-193.942E-12	653.877E-3	1.29382E-3	-195.123E-12	640.152E-3	-22.7366E-3
-4.78989E-3	-194.114E-12	638.093E-3	-5.44897E-3	-196.218E-12	657.012E-3	-18.4954E-3
-4.79490E-3	-193.097E-12	633.014E-3	3.31388E-3	-197.101E-12	699.224E-3	-12.0587E-3
-4.79990E-3	-192.153E-12	627.663E-3	16.0451E-3	-197.216E-12	706.458E-3	6.25498E-3
-4.80490E-3	-192.042E-12	638.489E-3	5.29694E-3	-197.997E-12	704.261E-3	20.7250E-3
-4.80990E-3	-191.417E-12	637.049E-3	-910.479E-6	-197.793E-12	699.950E-3	-2.69893E-3
-4.81491E-3	-191.852E-12	640.953E-3	25.8599E-3	-197.583E-12	681.940E-3	-54.8960E-3
-4.81991E-3	-192.467E-12	652.624E-3	26.4246E-3	-196.140E-12	673.708E-3	-60.8156E-3
-4.82491E-3	-193.193E-12	653.230E-3	465.507E-6	-194.866E-12	648.840E-3	-17.5023E-3
-4.82991E-3	-194.125E-12	669.727E-3	-8.82690E-3	-192.979E-12	613.467E-3	4.06297E-3
-4.83492E-3	-195.838E-12	682.000E-3	-129.830E-6	-192.832E-12	605.042E-3	-12.3373E-3
-4.83992E-3	-197.455E-12	657.002E-3	-3.34251E-3	-191.140E-12	616.850E-3	-17.9866E-3
-4.84492E-3	-198.207E-12	636.917E-3	-12.0280E-3	-190.697E-12	628.051E-3	-12.0228E-3
-4.84992E-3	-199.131E-12	643.533E-3	-9.11846E-3	-190.110E-12	634.349E-3	-23.6644E-3
-4.85493E-3	-199.536E-12	643.585E-3	-2.29907E-3	-190.368E-12	643.290E-3	-29.7454E-3
-4.85993E-3	-199.603E-12	638.310E-3	8.10663E-3	-190.536E-12	641.734E-3	-26.8751E-3
-4.86493E-3	-200.114E-12	635.670E-3	7.59789E-3	-191.342E-12	630.286E-3	-26.6076E-3
-4.86993E-3	-199.066E-12	628.824E-3	3.14908E-3	-192.199E-12	633.021E-3	-36.1097E-3
-4.87494E-3	-198.204E-12	633.297E-3	2.57517E-3	-192.927E-12	651.788E-3	-55.7174E-3
-4.87994E-3	-197.250E-12	642.566E-3	641.723E-6	-194.334E-12	673.926E-3	-43.2122E-3
-4.88494E-3	-195.773E-12	632.495E-3	130.720E-6	-196.192E-12	687.798E-3	-1.19296E-3
-4.88995E-3	-194.239E-12	619.728E-3	-7.00021E-3	-197.130E-12	676.587E-3	-7.80451E-3
-4.89495E-3	-193.150E-12	629.186E-3	-14.9646E-3	-197.960E-12	661.685E-3	-23.9277E-3
-4.89995E-3	-192.767E-12	657.310E-3	-8.97698E-3	-199.311E-12	678.820E-3	1.33543E-3
-4.90495E-3	-192.682E-12	673.441E-3	-7.85406E-3	-199.150E-12	700.114E-3	19.8083E-3
-4.90995E-3	-192.063E-12	662.262E-3	-26.6246E-3	-198.903E-12	686.145E-3	14.2003E-3
-4.91496E-3	-192.953E-12	634.280E-3	-36.6276E-3	-199.374E-12	656.395E-3	-14.0499E-3
-4.91996E-3	-193.520E-12	597.922E-3	-37.2983E-3	-198.789E-12	658.240E-3	-24.3357E-3
-4.92496E-3	-194.473E-12	596.377E-3	-33.8316E-3	-197.940E-12	666.230E-3	-3.29258E-3
-4.92996E-3	-194.948E-12	634.831E-3	-19.4968E-3	-198.032E-12	644.788E-3	-10.4057E-3
-4.93497E-3	-196.460E-12	650.032E-3	-18.9970E-3	-198.792E-12	642.812E-3	-43.0977E-3
-4.93997E-3	-196.809E-12	655.014E-3	-21.2259E-3	-198.577E-12	643.490E-3	-28.3822E-3
-4.94497E-3	-198.144E-12	659.792E-3	-19.4489E-3	-198.399E-12	636.926E-3	12.0153E-3
-4.94997E-3	-198.465E-12	650.911E-3	-18.1165E-3	-199.843E-12	645.368E-3	14.4551E-3
-4.95498E-3	-198.797E-12	638.810E-3	-7.13893E-3	-200.494E-12	642.196E-3	-6.50467E-3
-4.95998E-3	-199.511E-12	622.167E-3	4.88446E-3	-201.490E-12	650.946E-3	-23.4118E-3
-4.96498E-3	-200.170E-12	607.617E-3	-1.63161E-3	-201.710E-12	680.033E-3	-21.5036E-3
-4.96998E-3	-200.376E-12	621.274E-3	-23.7754E-3	-202.685E-12	680.229E-3	5.06672E-3
-4.97499E-3	-200.834E-12	656.883E-3	-26.1404E-3	-203.135E-12	670.602E-3	30.9903E-3
-4.97999E-3	-200.742E-12	671.490E-3	6.28152E-3	-203.450E-12	688.763E-3	30.5149E-3
-4.98499E-3	-201.376E-12	667.867E-3	19.2550E-3	-203.400E-12	677.371E-3	1.92617E-3
-4.98999E-3	-201.527E-12	667.451E-3	-2.39244E-3	-204.518E-12	631.228E-3	-22.7040E-3
-4.99500E-3	-203.086E-12	665.253E-3	-22.4756E-3	-204.765E-12	621.278E-3	-30.5718E-3
-5.00000E-3	-203.056E-12	651.742E-3	-42.5211E-3	-203.588E-12	637.204E-3	-44.5530E-3
