Experiment	bias spectroscopy	
Date	19.01.2016 20:59:43	
User		
X (m)	49.9161E-9	
Y (m)	257.076E-9	
Z (m)	-132.517E-9	
Z offset (m)	0E+0	
Settling time (s)	200E-6	
Integration time (s)	5E-3	
Z-Ctrl hold	TRUE	
Final Z (m)	N/A	
Filter type	None	
Order		
Cutoff frq		
Comment01	MnPc/Pb(111)	
Comment02	dz =00pm	
Comment03	7 Sweeps	
Comment04	MagField =0.T	
Comment05	Divider 1:10	
Comment06	Setpoint:5mV,200 pA	
Comment07	Lockin: 50uVrms,5ms,5mV	
Comment08	Gain:9; 912Hz modulation	
Comment09	T=1.06K	
Bias>Bias (V)	5E-3	
Bias>Calibration (V/V)	81.475E-3	
Bias>Offset (V)	1.046E-3	
Bias Spectroscopy>Sweep Start (V)	5E-3	
Bias Spectroscopy>Sweep End (V)	-5E-3	
Bias Spectroscopy>Num Pixel	2000	
Bias Spectroscopy>Z Avg time (s)	500E-3	
Bias Spectroscopy>Z offset (m)	0E+0	
Bias Spectroscopy>1st Settling time (s)	500E-3	
Bias Spectroscopy>Settling time (s)	200E-6	
Bias Spectroscopy>Integration time (s)	5E-3	
Bias Spectroscopy>End Settling time (s)	500E-3	
Bias Spectroscopy>Z control time (s)	500E-3	
Bias Spectroscopy>Max Slew rate (V/s)	Inf	
Bias Spectroscopy>backward sweep	TRUE	
Bias Spectroscopy>Z-controller hold	TRUE	
Bias Spectroscopy>Number of sweeps	7	
Bias Spectroscopy>Channels	Current (A);X% LockIn (V);Y% LockIn (V)	
Bias Spectroscopy>Reset Bias	TRUE	
Bias Spectroscopy>Record final Z	FALSE	
Bias Spectroscopy>Lock-In run	FALSE	
Bias Spectroscopy>Sweep mode	Linear	
Bias Spectroscopy>MultiLine Settings : Segment Start (V), Segment End (V), Settling (s), Integration (s), Steps (xn)	100E-3,3.3E-3,100E-6,10E-3,2500;3.3E-3,-3.3E-3,100E-6,10E-3,10;-3.3E-3,-100E-3,100E-6,10E-3,2500	
Current>Current (A)	200.185E-12	
Current>Calibration (A/V)	999.99900E-12	
Current>Offset (A)	-455.429E-15	
Current>Gain	LN 10^9	
Z-Controller>Z (m)	-132.517E-9	
Z-Controller>Controller name	log Current	
Z-Controller>Controller status	ON	
Z-Controller>Setpoint	200E-12	
Z-Controller>Setpoint unit	A	
Z-Controller>P gain	2.96994E-12	
Z-Controller>I gain	67.0321E-9	
Z-Controller>Time const (s)	44.3062E-6	
Z-Controller>TipLift (m)	0E+0	
Z-Controller>Switch off delay (s)	50E-3	
Current (A)	200.069E-12	
Z (m)	-132.517E-9	

[DATA]
Bias calc (V)	Current (A)	X% LockIn (V)	Y% LockIn (V)	Current [bwd] (A)	X% LockIn [bwd] (V)	Y% LockIn [bwd] (V)
5.00000E-3	199.919E-12	465.812E-3	-11.1207E-3	198.389E-12	454.023E-3	-9.94031E-3
4.99500E-3	199.804E-12	470.055E-3	-10.8694E-3	198.457E-12	486.380E-3	22.6801E-3
4.98999E-3	200.355E-12	487.472E-3	-3.62466E-3	198.312E-12	496.854E-3	3.18283E-3
4.98499E-3	200.836E-12	517.272E-3	10.8936E-3	196.819E-12	479.658E-3	-29.6502E-3
4.97999E-3	199.504E-12	527.756E-3	-377.781E-6	195.803E-12	489.197E-3	-26.8373E-3
4.97499E-3	197.567E-12	522.376E-3	-28.5638E-3	196.593E-12	522.708E-3	-30.8516E-3
4.96998E-3	197.668E-12	497.030E-3	-22.8618E-3	195.528E-12	533.626E-3	-49.9498E-3
4.96498E-3	198.379E-12	478.144E-3	6.97957E-3	194.857E-12	544.702E-3	-46.9712E-3
4.95998E-3	197.292E-12	519.302E-3	18.7055E-3	195.366E-12	545.079E-3	-28.5809E-3
4.95498E-3	195.386E-12	560.414E-3	2.80614E-3	196.227E-12	521.474E-3	-7.75735E-3
4.94997E-3	194.783E-12	512.155E-3	-16.3301E-3	196.416E-12	528.516E-3	-6.16343E-3
4.94497E-3	196.131E-12	481.651E-3	-17.0003E-3	197.955E-12	538.799E-3	-1.31274E-3
4.93997E-3	196.633E-12	510.221E-3	-8.95663E-3	198.503E-12	515.146E-3	29.4959E-3
4.93497E-3	195.580E-12	501.377E-3	1.17046E-3	198.488E-12	499.676E-3	20.2505E-3
4.92996E-3	195.554E-12	508.246E-3	-1.01021E-3	199.783E-12	509.026E-3	-25.9127E-3
4.92496E-3	195.772E-12	580.212E-3	-25.2550E-3	199.695E-12	525.996E-3	-39.0210E-3
4.91996E-3	196.431E-12	596.354E-3	-37.1479E-3	198.671E-12	537.761E-3	-2.19087E-3
4.91496E-3	195.869E-12	551.303E-3	-32.0057E-3	198.497E-12	532.178E-3	36.7278E-3
4.90995E-3	196.289E-12	546.694E-3	-47.9157E-3	197.822E-12	533.374E-3	47.2966E-3
4.90495E-3	195.808E-12	558.681E-3	-66.1102E-3	195.843E-12	529.989E-3	39.6978E-3
4.89995E-3	195.820E-12	534.802E-3	-73.1798E-3	194.785E-12	527.902E-3	23.9089E-3
4.89495E-3	195.534E-12	501.227E-3	-56.4149E-3	194.548E-12	557.387E-3	14.6435E-3
4.88995E-3	196.897E-12	497.925E-3	-35.2795E-3	192.927E-12	567.814E-3	16.1769E-3
4.88494E-3	194.543E-12	517.431E-3	-32.6013E-3	190.433E-12	534.128E-3	1.61208E-3
4.87994E-3	194.693E-12	538.857E-3	-37.8133E-3	189.543E-12	479.364E-3	-30.9868E-3
4.87494E-3	194.306E-12	532.615E-3	-52.8496E-3	190.530E-12	463.527E-3	-40.7183E-3
4.86993E-3	195.104E-12	498.434E-3	-52.9513E-3	190.966E-12	504.641E-3	-23.1461E-3
4.86493E-3	193.876E-12	477.990E-3	-40.2968E-3	191.285E-12	518.702E-3	-81.8907E-6
4.85993E-3	192.203E-12	492.007E-3	-21.8290E-3	192.541E-12	496.390E-3	16.2032E-3
4.85493E-3	193.341E-12	522.321E-3	-4.60965E-3	194.288E-12	476.345E-3	11.7497E-3
4.84992E-3	193.810E-12	542.062E-3	-5.09786E-3	193.369E-12	462.451E-3	-7.00167E-3
4.84492E-3	194.029E-12	528.605E-3	-4.23465E-3	194.858E-12	464.618E-3	-7.02516E-3
4.83992E-3	192.892E-12	509.782E-3	5.00293E-3	197.034E-12	504.076E-3	-1.82776E-3
4.83492E-3	193.308E-12	539.677E-3	-8.15530E-3	196.028E-12	549.087E-3	-19.3088E-3
4.82991E-3	194.208E-12	559.451E-3	-4.60055E-3	195.313E-12	547.354E-3	-33.7396E-3
4.82491E-3	194.273E-12	542.832E-3	29.0358E-3	194.781E-12	524.863E-3	-15.9462E-3
4.81991E-3	193.219E-12	525.215E-3	28.1378E-3	194.900E-12	521.990E-3	18.4619E-3
4.81491E-3	192.414E-12	504.361E-3	-4.85397E-3	192.913E-12	527.568E-3	27.4431E-3
4.80990E-3	192.715E-12	481.330E-3	-46.5753E-3	192.495E-12	508.734E-3	10.7845E-3
4.80490E-3	192.565E-12	492.155E-3	-66.3366E-3	190.387E-12	479.892E-3	-1.27354E-3
4.79990E-3	193.662E-12	528.917E-3	-51.1174E-3	190.111E-12	487.867E-3	-14.5336E-3
4.79490E-3	190.898E-12	534.342E-3	-32.9869E-3	189.094E-12	523.785E-3	-21.7358E-3
4.78989E-3	190.610E-12	509.586E-3	-35.0422E-3	188.444E-12	549.028E-3	-10.9309E-3
4.78489E-3	191.526E-12	480.425E-3	-54.3495E-3	188.962E-12	525.512E-3	-32.5319E-3
4.77989E-3	192.073E-12	462.033E-3	-71.8331E-3	187.460E-12	474.036E-3	-56.5866E-3
4.77489E-3	190.184E-12	462.590E-3	-57.7077E-3	188.867E-12	480.766E-3	-19.7939E-3
4.76988E-3	189.126E-12	490.179E-3	-33.0751E-3	190.520E-12	509.736E-3	5.84444E-3
4.76488E-3	191.004E-12	531.371E-3	-24.8597E-3	191.049E-12	495.787E-3	-9.42955E-3
4.75988E-3	191.517E-12	540.740E-3	-9.83239E-3	191.700E-12	502.636E-3	-4.07670E-3
4.75488E-3	190.622E-12	516.391E-3	18.1245E-3	192.230E-12	540.589E-3	-9.31914E-3
4.74988E-3	190.403E-12	482.426E-3	31.3947E-3	193.072E-12	532.239E-3	-32.5326E-3
4.74487E-3	189.848E-12	457.739E-3	19.2088E-3	194.305E-12	510.224E-3	-12.3535E-3
4.73987E-3	189.775E-12	474.312E-3	8.89252E-3	194.461E-12	531.380E-3	15.1911E-3
4.73487E-3	189.944E-12	517.634E-3	2.68904E-3	192.533E-12	544.339E-3	8.65550E-3
4.72986E-3	190.376E-12	544.962E-3	825.596E-6	191.689E-12	543.861E-3	11.5346E-3
4.72486E-3	187.941E-12	541.287E-3	-15.1699E-3	191.532E-12	578.062E-3	902.152E-6
4.71986E-3	188.840E-12	526.165E-3	-35.5366E-3	190.779E-12	599.874E-3	-45.2764E-3
4.71486E-3	188.842E-12	521.726E-3	-41.7423E-3	189.091E-12	549.234E-3	-61.4191E-3
4.70985E-3	188.254E-12	517.590E-3	-58.6176E-3	188.098E-12	494.079E-3	-48.7320E-3
4.70485E-3	187.930E-12	502.913E-3	-60.1364E-3	187.662E-12	494.895E-3	-49.9008E-3
4.69985E-3	188.683E-12	490.947E-3	-31.6284E-3	186.049E-12	500.043E-3	-43.0716E-3
4.69485E-3	188.430E-12	503.533E-3	-21.2551E-3	186.811E-12	496.896E-3	2.59250E-3
4.68984E-3	188.826E-12	517.667E-3	-43.3777E-3	186.091E-12	516.283E-3	16.9742E-3
4.68484E-3	188.444E-12	547.026E-3	-59.1083E-3	185.568E-12	520.915E-3	-11.9400E-3
4.67984E-3	188.588E-12	573.044E-3	-42.2845E-3	185.290E-12	521.854E-3	-7.88363E-3
4.67484E-3	188.464E-12	548.723E-3	-12.0865E-3	186.879E-12	541.185E-3	-7.95068E-3
4.66983E-3	187.781E-12	529.247E-3	-7.74557E-3	187.546E-12	559.884E-3	-37.4870E-3
4.66483E-3	187.183E-12	526.922E-3	-15.7077E-3	187.480E-12	563.652E-3	-37.7942E-3
4.65983E-3	187.715E-12	512.490E-3	-2.77365E-3	188.080E-12	540.124E-3	471.890E-6
4.65483E-3	186.721E-12	508.621E-3	3.85768E-3	188.445E-12	512.277E-3	8.64560E-3
4.64982E-3	186.106E-12	532.661E-3	-26.7675E-3	189.144E-12	511.931E-3	-23.4355E-3
4.64482E-3	185.214E-12	538.171E-3	-41.9737E-3	187.588E-12	534.128E-3	-37.3524E-3
4.63982E-3	185.532E-12	525.469E-3	-19.6091E-3	186.373E-12	523.594E-3	-37.6296E-3
4.63482E-3	185.830E-12	519.355E-3	-14.7285E-3	186.379E-12	482.739E-3	-25.1832E-3
4.62981E-3	185.539E-12	518.175E-3	-41.0200E-3	185.354E-12	495.009E-3	1.70976E-3
4.62481E-3	184.432E-12	520.546E-3	-41.7147E-3	185.419E-12	535.330E-3	-4.96131E-3
4.61981E-3	183.813E-12	509.675E-3	-11.2341E-3	183.974E-12	536.617E-3	-26.8139E-3
4.61481E-3	184.256E-12	502.270E-3	-18.1182E-3	184.430E-12	518.604E-3	-28.5073E-3
4.60980E-3	184.300E-12	526.917E-3	-45.2336E-3	184.483E-12	498.908E-3	-28.9376E-3
4.60480E-3	184.868E-12	552.464E-3	-54.1043E-3	184.226E-12	481.285E-3	-33.5829E-3
4.59980E-3	184.828E-12	543.300E-3	-62.4776E-3	184.107E-12	468.966E-3	-29.3313E-3
4.59480E-3	185.608E-12	532.587E-3	-79.4534E-3	184.505E-12	476.743E-3	-19.4915E-3
4.58979E-3	185.919E-12	545.965E-3	-72.8959E-3	184.698E-12	495.771E-3	-20.7683E-3
4.58479E-3	186.975E-12	574.122E-3	-32.9440E-3	184.998E-12	507.558E-3	-16.4545E-3
4.57979E-3	187.500E-12	578.030E-3	-11.1186E-3	184.926E-12	520.604E-3	-13.9262E-3
4.57479E-3	186.432E-12	546.508E-3	-24.2334E-3	184.599E-12	534.802E-3	-19.7148E-3
4.56978E-3	186.327E-12	506.749E-3	-42.6472E-3	184.039E-12	526.993E-3	-4.61441E-3
4.56478E-3	186.376E-12	502.704E-3	-47.9155E-3	184.054E-12	507.329E-3	-5.75025E-3
4.55978E-3	185.983E-12	520.909E-3	-44.8177E-3	183.303E-12	514.574E-3	-20.2531E-3
4.55478E-3	184.660E-12	515.434E-3	-28.7120E-3	183.172E-12	528.044E-3	-18.8775E-3
4.54977E-3	184.453E-12	507.775E-3	-4.06279E-3	182.712E-12	534.142E-3	-55.3468E-3
4.54477E-3	183.422E-12	516.458E-3	-5.81122E-3	181.881E-12	527.721E-3	-97.3175E-3
4.53977E-3	183.658E-12	530.041E-3	-28.5014E-3	181.413E-12	502.016E-3	-75.0426E-3
4.53477E-3	183.001E-12	536.153E-3	-29.0043E-3	182.174E-12	514.777E-3	-32.2166E-3
4.52976E-3	181.265E-12	528.722E-3	-13.6842E-3	181.627E-12	556.035E-3	-20.7398E-3
4.52476E-3	180.237E-12	507.532E-3	-12.8529E-3	181.945E-12	552.715E-3	-40.5736E-3
4.51976E-3	179.734E-12	497.196E-3	-13.4375E-3	183.168E-12	528.445E-3	-60.5940E-3
4.51476E-3	180.487E-12	494.600E-3	-5.23723E-3	184.198E-12	528.689E-3	-36.8570E-3
4.50975E-3	179.555E-12	511.102E-3	-15.1019E-3	184.217E-12	507.519E-3	16.1998E-3
4.50475E-3	179.908E-12	542.261E-3	-41.5795E-3	184.139E-12	487.648E-3	39.8027E-3
4.49975E-3	179.759E-12	544.132E-3	-57.3530E-3	184.132E-12	515.669E-3	12.7275E-3
4.49475E-3	181.353E-12	532.885E-3	-44.8150E-3	183.903E-12	523.576E-3	-34.9632E-3
4.48974E-3	180.449E-12	537.099E-3	-11.8389E-3	182.884E-12	502.796E-3	-54.3416E-3
4.48474E-3	181.390E-12	550.837E-3	-987.759E-6	182.217E-12	505.387E-3	-39.9652E-3
4.47974E-3	180.994E-12	568.243E-3	-38.0032E-3	181.143E-12	505.117E-3	-17.5630E-3
4.47474E-3	181.514E-12	573.871E-3	-58.7295E-3	180.821E-12	492.586E-3	-11.0636E-3
4.46973E-3	182.467E-12	548.621E-3	-14.2817E-3	178.343E-12	500.203E-3	-39.9053E-3
4.46473E-3	181.890E-12	538.429E-3	16.8239E-3	178.187E-12	513.616E-3	-76.8347E-3
4.45973E-3	181.944E-12	553.885E-3	8.40914E-3	177.596E-12	522.790E-3	-66.5311E-3
4.45473E-3	181.825E-12	529.424E-3	-12.6996E-3	177.065E-12	535.934E-3	-24.3957E-3
4.44972E-3	181.256E-12	475.638E-3	-61.3633E-3	176.424E-12	535.001E-3	10.0992E-3
4.44472E-3	180.690E-12	472.524E-3	-86.9396E-3	176.974E-12	517.220E-3	21.1059E-3
4.43972E-3	180.206E-12	492.022E-3	-61.9461E-3	178.069E-12	525.134E-3	2.09736E-3
4.43472E-3	179.607E-12	476.497E-3	-39.7338E-3	179.257E-12	544.363E-3	-19.5275E-3
4.42971E-3	178.446E-12	474.977E-3	-25.6357E-3	180.371E-12	544.463E-3	-33.5603E-3
4.42471E-3	177.325E-12	496.569E-3	-3.51488E-3	180.681E-12	547.983E-3	-41.4048E-3
4.41971E-3	176.735E-12	509.053E-3	11.2519E-3	181.884E-12	545.602E-3	-34.0851E-3
4.41471E-3	176.096E-12	522.032E-3	48.8712E-3	183.435E-12	524.074E-3	-48.8690E-3
4.40970E-3	175.932E-12	522.905E-3	97.9825E-3	183.840E-12	497.086E-3	-39.8652E-3
4.40470E-3	176.686E-12	507.958E-3	83.1842E-3	182.819E-12	495.313E-3	20.2303E-3
4.39970E-3	176.208E-12	527.020E-3	18.6854E-3	182.584E-12	523.049E-3	32.3729E-3
4.39470E-3	175.857E-12	559.717E-3	-3.27925E-3	181.917E-12	519.125E-3	13.2277E-3
4.38969E-3	177.870E-12	559.708E-3	7.25235E-3	180.079E-12	496.870E-3	6.72282E-3
4.38469E-3	178.088E-12	553.427E-3	-5.64454E-3	177.122E-12	499.405E-3	-9.99382E-3
4.37969E-3	177.190E-12	561.384E-3	-7.13042E-3	176.054E-12	489.946E-3	-28.4970E-3
4.37469E-3	177.235E-12	557.435E-3	19.4624E-3	174.988E-12	498.445E-3	-34.6012E-3
4.36968E-3	178.997E-12	542.976E-3	21.1364E-3	173.695E-12	540.497E-3	-12.8711E-3
4.36468E-3	178.306E-12	531.576E-3	-22.9263E-3	172.361E-12	550.785E-3	7.87571E-3
4.35968E-3	178.097E-12	513.969E-3	-48.9540E-3	171.435E-12	526.814E-3	475.072E-6
4.35468E-3	178.010E-12	513.523E-3	-39.1880E-3	171.209E-12	504.146E-3	-20.6060E-3
4.34967E-3	178.371E-12	515.061E-3	-17.5337E-3	173.253E-12	491.648E-3	-50.1977E-3
4.34467E-3	176.596E-12	499.984E-3	-869.750E-6	174.724E-12	508.091E-3	-61.2340E-3
4.33967E-3	176.534E-12	488.382E-3	-2.84475E-3	175.465E-12	555.806E-3	-29.2578E-3
4.33467E-3	175.919E-12	507.240E-3	-7.53155E-3	178.300E-12	592.941E-3	9.76942E-3
4.32966E-3	175.186E-12	540.733E-3	-1.83609E-3	177.653E-12	590.733E-3	26.0226E-3
4.32466E-3	174.394E-12	537.504E-3	8.53315E-3	179.489E-12	564.041E-3	25.5650E-3
4.31966E-3	173.953E-12	517.404E-3	23.9254E-3	180.465E-12	555.652E-3	12.4081E-3
4.31466E-3	173.750E-12	506.862E-3	18.1524E-3	180.171E-12	555.194E-3	10.1741E-3
4.30965E-3	172.918E-12	512.937E-3	-15.9842E-3	178.802E-12	544.445E-3	2.92058E-3
4.30465E-3	173.213E-12	545.179E-3	-5.36587E-3	179.829E-12	541.305E-3	-34.3183E-3
4.29965E-3	172.994E-12	571.372E-3	18.0284E-3	177.926E-12	512.379E-3	-63.3759E-3
4.29465E-3	172.847E-12	552.894E-3	7.43882E-3	175.460E-12	465.772E-3	-50.4986E-3
4.28964E-3	172.313E-12	523.039E-3	8.55718E-3	174.339E-12	451.873E-3	-32.3935E-3
4.28464E-3	172.545E-12	525.896E-3	24.7017E-3	173.392E-12	478.126E-3	-31.5659E-3
4.27964E-3	173.544E-12	540.252E-3	26.1876E-3	171.722E-12	505.332E-3	-22.9353E-3
4.27464E-3	174.425E-12	524.622E-3	5.37711E-3	169.393E-12	500.050E-3	6.40736E-3
4.26963E-3	173.031E-12	503.083E-3	-3.85808E-3	169.759E-12	491.616E-3	48.2400E-3
4.26463E-3	172.891E-12	512.700E-3	-1.57578E-3	169.214E-12	509.247E-3	52.8928E-3
4.25963E-3	174.263E-12	520.491E-3	-15.9994E-3	168.751E-12	531.469E-3	11.4254E-3
4.25463E-3	174.631E-12	507.733E-3	-18.4115E-3	169.613E-12	520.351E-3	-27.9263E-3
4.24962E-3	173.315E-12	496.484E-3	2.42543E-3	170.804E-12	490.237E-3	-36.1393E-3
4.24462E-3	172.930E-12	497.771E-3	5.08765E-3	171.431E-12	494.953E-3	-28.0665E-3
4.23962E-3	173.215E-12	512.935E-3	-3.05173E-3	172.445E-12	533.176E-3	-23.1941E-3
4.23462E-3	173.071E-12	538.910E-3	745.134E-6	173.613E-12	553.515E-3	-4.40400E-3
4.22961E-3	173.040E-12	544.316E-3	-16.1743E-3	174.642E-12	538.573E-3	16.4959E-3
4.22461E-3	172.194E-12	539.266E-3	-49.4217E-3	175.340E-12	511.646E-3	11.1966E-3
4.21961E-3	171.856E-12	549.794E-3	-50.9982E-3	175.070E-12	507.158E-3	-7.14462E-3
4.21461E-3	171.884E-12	552.802E-3	-23.0468E-3	175.139E-12	528.196E-3	-30.3826E-3
4.20960E-3	171.338E-12	536.770E-3	5.70036E-3	173.768E-12	538.327E-3	-31.8197E-3
4.20460E-3	170.799E-12	508.259E-3	7.74975E-3	172.949E-12	509.875E-3	-941.129E-6
4.19960E-3	170.616E-12	488.447E-3	-19.3357E-3	171.275E-12	501.417E-3	-7.18818E-3
4.19460E-3	168.919E-12	503.863E-3	-27.2363E-3	170.827E-12	540.855E-3	-45.4878E-3
4.18959E-3	168.846E-12	520.708E-3	-2.64223E-3	170.312E-12	545.778E-3	-47.3312E-3
4.18459E-3	169.809E-12	506.934E-3	41.7046E-6	169.794E-12	511.457E-3	-27.4240E-3
4.17959E-3	169.134E-12	518.115E-3	-20.5005E-3	168.603E-12	508.128E-3	-40.6371E-3
4.17459E-3	168.593E-12	543.827E-3	-25.0346E-3	168.526E-12	525.547E-3	-70.6251E-3
4.16958E-3	169.437E-12	525.781E-3	-29.5736E-3	168.333E-12	535.770E-3	-59.5847E-3
4.16458E-3	169.553E-12	506.497E-3	-22.1686E-3	167.983E-12	554.187E-3	-33.4628E-3
4.15958E-3	169.789E-12	500.197E-3	25.1569E-3	168.354E-12	550.804E-3	-21.3875E-3
4.15458E-3	169.619E-12	490.884E-3	45.2933E-3	168.067E-12	530.560E-3	-6.45369E-3
4.14957E-3	170.000E-12	508.964E-3	9.36584E-3	168.811E-12	535.596E-3	-2.21987E-3
4.14457E-3	170.063E-12	521.878E-3	-5.91312E-3	169.190E-12	540.336E-3	-19.1096E-3
4.13957E-3	170.136E-12	497.533E-3	3.13314E-3	170.233E-12	528.093E-3	-33.5631E-3
4.13457E-3	170.796E-12	496.471E-3	-11.9177E-3	169.107E-12	515.889E-3	-37.2539E-3
4.12956E-3	170.274E-12	521.103E-3	-36.6156E-3	169.148E-12	500.697E-3	-40.7473E-3
4.12456E-3	170.344E-12	540.890E-3	-48.0736E-3	169.061E-12	500.632E-3	-35.7306E-3
4.11956E-3	169.725E-12	558.658E-3	-45.7335E-3	169.346E-12	520.938E-3	-22.6700E-3
4.11456E-3	170.013E-12	541.714E-3	-34.1499E-3	168.352E-12	519.660E-3	4.18427E-3
4.10955E-3	168.575E-12	499.793E-3	-36.2878E-3	167.544E-12	523.467E-3	31.5062E-3
4.10455E-3	168.385E-12	483.265E-3	-40.6794E-3	168.326E-12	533.129E-3	22.2585E-3
4.09955E-3	167.648E-12	485.703E-3	-37.3732E-3	167.906E-12	521.750E-3	-14.2395E-3
4.09455E-3	167.146E-12	497.673E-3	-38.7067E-3	168.144E-12	518.779E-3	-31.6949E-3
4.08954E-3	165.720E-12	503.598E-3	-28.1464E-3	168.747E-12	525.876E-3	-25.2466E-3
4.08454E-3	165.508E-12	508.057E-3	-14.8777E-3	169.276E-12	522.293E-3	-20.6425E-3
4.07954E-3	165.428E-12	523.165E-3	-27.5974E-3	169.660E-12	507.162E-3	-6.75907E-3
4.07454E-3	164.889E-12	522.514E-3	-70.0127E-3	170.140E-12	522.429E-3	1.72498E-3
4.06953E-3	164.871E-12	526.965E-3	-82.5295E-3	169.397E-12	558.276E-3	-4.28454E-3
4.06453E-3	165.457E-12	540.833E-3	-41.3716E-3	168.735E-12	548.064E-3	-8.17128E-3
4.05953E-3	164.931E-12	552.330E-3	-13.8093E-3	168.526E-12	525.218E-3	-13.7716E-3
4.05453E-3	165.069E-12	562.083E-3	-15.2786E-3	167.295E-12	540.193E-3	-19.8840E-3
4.04952E-3	165.972E-12	563.584E-3	-10.7736E-3	165.234E-12	540.941E-3	-41.0380E-3
4.04452E-3	166.632E-12	551.306E-3	-16.7248E-3	165.197E-12	525.146E-3	-43.3848E-3
4.03952E-3	166.934E-12	520.180E-3	-23.1711E-3	164.314E-12	533.741E-3	-3.72815E-3
4.03452E-3	166.503E-12	506.828E-3	13.1794E-3	163.467E-12	533.569E-3	29.7510E-3
4.02951E-3	166.688E-12	526.466E-3	50.3877E-3	161.651E-12	502.193E-3	38.4301E-3
4.02451E-3	167.799E-12	515.355E-3	34.0819E-3	161.131E-12	475.025E-3	31.1177E-3
4.01951E-3	167.540E-12	477.402E-3	5.24192E-3	161.336E-12	471.863E-3	-4.23149E-3
4.01451E-3	166.629E-12	490.890E-3	-20.4692E-3	161.494E-12	490.725E-3	-33.9150E-3
4.00950E-3	165.690E-12	515.881E-3	-52.1949E-3	162.127E-12	517.492E-3	-12.8068E-3
4.00450E-3	165.655E-12	506.939E-3	-52.8101E-3	163.097E-12	534.409E-3	-9.65163E-3
3.99950E-3	165.531E-12	500.530E-3	-38.0757E-3	165.111E-12	529.446E-3	-45.3564E-3
3.99450E-3	164.693E-12	517.901E-3	-43.1195E-3	166.984E-12	525.571E-3	-59.9017E-3
3.98949E-3	162.592E-12	523.842E-3	-33.9493E-3	167.786E-12	548.919E-3	-59.2640E-3
3.98449E-3	162.548E-12	508.375E-3	-274.022E-6	168.489E-12	541.164E-3	-45.5812E-3
3.97949E-3	163.480E-12	511.471E-3	6.61026E-3	168.907E-12	496.034E-3	-14.1876E-3
3.97449E-3	162.517E-12	537.920E-3	5.55094E-3	168.593E-12	474.188E-3	812.734E-6
3.96948E-3	161.706E-12	543.686E-3	20.3073E-3	167.283E-12	479.653E-3	-14.4674E-3
3.96448E-3	161.949E-12	521.620E-3	15.3170E-3	166.139E-12	509.513E-3	-31.3532E-3
3.95948E-3	162.380E-12	517.391E-3	5.59198E-3	164.317E-12	551.311E-3	-31.7271E-3
3.95448E-3	162.526E-12	526.971E-3	-6.49842E-3	162.959E-12	550.167E-3	-20.0522E-3
3.94947E-3	162.737E-12	540.347E-3	-25.8622E-3	161.200E-12	518.106E-3	-26.5059E-3
3.94447E-3	162.643E-12	541.760E-3	-17.8143E-3	159.596E-12	525.689E-3	-51.2075E-3
3.93947E-3	162.543E-12	509.033E-3	-25.0713E-3	157.852E-12	559.917E-3	-55.2990E-3
3.93447E-3	163.101E-12	483.298E-3	-38.4064E-3	157.693E-12	562.088E-3	-47.6314E-3
3.92946E-3	162.476E-12	498.777E-3	4.57742E-3	157.686E-12	534.891E-3	-25.7979E-3
3.92446E-3	161.827E-12	514.291E-3	32.3780E-3	156.587E-12	507.816E-3	-12.2883E-3
3.91946E-3	160.774E-12	529.135E-3	673.557E-6	157.263E-12	498.370E-3	-24.3325E-3
3.91446E-3	161.125E-12	542.366E-3	-27.5307E-3	159.059E-12	521.053E-3	-23.8617E-3
3.90945E-3	161.159E-12	514.210E-3	-26.1148E-3	160.401E-12	556.983E-3	-8.85579E-3
3.90445E-3	159.790E-12	512.282E-3	-34.0934E-3	161.960E-12	550.809E-3	1.38116E-3
3.89945E-3	158.685E-12	556.237E-3	-42.3950E-3	163.050E-12	519.683E-3	-1.88606E-3
3.89445E-3	158.894E-12	541.763E-3	-25.9615E-3	164.398E-12	524.432E-3	-6.16964E-3
3.88944E-3	158.848E-12	492.010E-3	-7.88860E-3	165.559E-12	555.966E-3	-4.49820E-3
3.88444E-3	158.272E-12	484.673E-3	2.10715E-3	165.034E-12	573.281E-3	-6.20333E-3
3.87944E-3	158.930E-12	497.366E-3	4.67983E-3	164.601E-12	547.116E-3	-4.65315E-3
3.87444E-3	158.483E-12	519.485E-3	-16.5785E-3	163.303E-12	519.586E-3	9.61515E-3
3.86943E-3	158.478E-12	552.070E-3	-36.6132E-3	161.838E-12	527.230E-3	3.85815E-3
3.86443E-3	158.959E-12	554.602E-3	-41.4012E-3	160.743E-12	522.411E-3	-9.83662E-3
3.85943E-3	159.541E-12	511.547E-3	-60.5776E-3	159.232E-12	510.482E-3	65.9266E-6
3.85443E-3	159.031E-12	492.089E-3	-61.6003E-3	157.119E-12	513.129E-3	-5.35401E-3
3.84942E-3	158.787E-12	524.336E-3	-32.9470E-3	156.132E-12	509.702E-3	-26.0198E-3
3.84442E-3	159.952E-12	546.820E-3	-33.9395E-3	155.234E-12	508.983E-3	-43.6722E-3
3.83942E-3	158.858E-12	541.836E-3	-55.0505E-3	154.252E-12	522.851E-3	-44.1843E-3
3.83442E-3	157.932E-12	533.294E-3	-34.2808E-3	154.383E-12	541.014E-3	-10.8989E-3
3.82941E-3	157.910E-12	519.379E-3	-4.35219E-3	154.956E-12	560.432E-3	14.2507E-3
3.82441E-3	159.129E-12	519.114E-3	-11.8626E-3	155.518E-12	563.782E-3	7.90820E-3
3.81941E-3	157.835E-12	545.878E-3	-27.6027E-3	156.549E-12	555.980E-3	-12.1547E-3
3.81441E-3	157.183E-12	550.050E-3	-41.9154E-3	158.534E-12	561.702E-3	-36.9374E-3
3.80940E-3	157.420E-12	526.925E-3	-53.5945E-3	159.091E-12	563.596E-3	-43.0516E-3
3.80440E-3	156.658E-12	511.432E-3	-29.2405E-3	159.943E-12	553.089E-3	-27.2914E-3
3.79940E-3	157.381E-12	523.283E-3	-6.55698E-3	159.463E-12	535.082E-3	-17.0658E-3
3.79440E-3	157.452E-12	548.190E-3	-13.6827E-3	160.366E-12	525.933E-3	-8.35038E-3
3.78939E-3	157.047E-12	555.039E-3	-9.45578E-3	160.976E-12	549.348E-3	8.82180E-3
3.78439E-3	156.776E-12	536.301E-3	280.667E-6	160.253E-12	573.018E-3	6.05255E-3
3.77939E-3	157.136E-12	524.479E-3	21.9455E-3	158.007E-12	561.753E-3	-13.4487E-3
3.77439E-3	156.742E-12	537.744E-3	38.4346E-3	158.064E-12	549.906E-3	-22.7508E-3
3.76938E-3	157.166E-12	528.463E-3	39.2060E-3	157.054E-12	542.788E-3	-24.9673E-3
3.76438E-3	157.978E-12	505.305E-3	26.1969E-3	155.837E-12	522.923E-3	-14.1775E-3
3.75938E-3	157.009E-12	500.948E-3	-12.7923E-3	154.500E-12	525.014E-3	-3.47438E-3
3.75438E-3	156.250E-12	504.386E-3	-24.9135E-3	154.061E-12	548.055E-3	-4.89740E-3
3.74937E-3	156.415E-12	511.669E-3	-21.7515E-3	153.697E-12	548.866E-3	7.41664E-3
3.74437E-3	156.129E-12	529.559E-3	-35.1136E-3	153.816E-12	522.311E-3	6.24828E-3
3.73937E-3	154.862E-12	549.167E-3	-26.7009E-3	153.365E-12	515.760E-3	-20.3710E-3
3.73437E-3	154.634E-12	538.031E-3	-32.6808E-3	154.285E-12	545.866E-3	-17.1171E-3
3.72936E-3	154.138E-12	525.616E-3	-61.9731E-3	153.994E-12	581.583E-3	4.92892E-3
3.72436E-3	154.119E-12	533.057E-3	-50.0970E-3	154.522E-12	589.574E-3	9.21203E-3
3.71936E-3	153.332E-12	531.662E-3	-40.7812E-3	155.392E-12	561.198E-3	10.2829E-3
3.71436E-3	153.078E-12	528.390E-3	-46.6814E-3	155.776E-12	542.195E-3	10.0660E-3
3.70935E-3	153.621E-12	523.348E-3	-9.20242E-3	154.778E-12	533.538E-3	4.68084E-3
3.70435E-3	153.849E-12	512.645E-3	24.6727E-3	155.114E-12	523.161E-3	2.74471E-3
3.69935E-3	153.539E-12	541.060E-3	13.9976E-3	154.282E-12	534.290E-3	-5.07290E-3
3.69435E-3	153.435E-12	575.376E-3	-9.84877E-3	154.402E-12	540.840E-3	-21.0681E-3
3.68934E-3	154.220E-12	563.979E-3	-35.4781E-3	154.026E-12	547.310E-3	-38.6678E-3
3.68434E-3	155.367E-12	547.793E-3	-34.1940E-3	153.445E-12	561.929E-3	-59.0080E-3
3.67934E-3	153.090E-12	552.355E-3	-292.995E-6	153.096E-12	544.568E-3	-47.2410E-3
3.67434E-3	153.590E-12	547.183E-3	-8.95789E-3	152.726E-12	515.859E-3	-4.77675E-3
3.66933E-3	154.038E-12	535.941E-3	-35.5126E-3	152.151E-12	498.597E-3	4.03369E-3
3.66433E-3	153.734E-12	542.815E-3	-24.2182E-3	151.831E-12	497.435E-3	-19.5943E-3
3.65933E-3	151.285E-12	542.543E-3	-22.8989E-3	151.832E-12	523.392E-3	-18.8617E-3
3.65433E-3	151.291E-12	549.191E-3	-36.0318E-3	151.366E-12	552.354E-3	-685.957E-6
3.64932E-3	151.273E-12	563.470E-3	-32.6106E-3	151.998E-12	549.652E-3	-7.11019E-3
3.64432E-3	150.645E-12	557.410E-3	-26.6460E-3	152.742E-12	535.252E-3	-31.5836E-3
3.63932E-3	149.763E-12	553.993E-3	-30.1996E-3	152.774E-12	554.705E-3	-50.3937E-3
3.63432E-3	148.442E-12	563.740E-3	-25.1781E-3	151.790E-12	558.098E-3	-25.7699E-3
3.62931E-3	148.512E-12	571.618E-3	-5.84402E-3	151.422E-12	523.641E-3	15.7274E-3
3.62431E-3	149.626E-12	573.286E-3	16.3742E-3	151.410E-12	498.334E-3	19.5011E-3
3.61931E-3	149.929E-12	561.720E-3	3.62469E-3	150.355E-12	485.130E-3	3.56521E-3
3.61431E-3	148.737E-12	533.878E-3	-40.5855E-3	149.263E-12	487.930E-3	1.49241E-3
3.60930E-3	148.939E-12	526.309E-3	-58.3103E-3	148.621E-12	519.550E-3	15.3338E-3
3.60430E-3	150.230E-12	537.496E-3	-47.0124E-3	147.740E-12	544.273E-3	13.3418E-3
3.59930E-3	150.864E-12	537.890E-3	-38.4408E-3	147.215E-12	531.588E-3	7.53244E-3
3.59430E-3	150.080E-12	551.535E-3	-39.7458E-3	146.542E-12	522.037E-3	16.1004E-3
3.58929E-3	150.139E-12	568.628E-3	-45.6539E-3	146.490E-12	529.057E-3	11.9430E-3
3.58429E-3	150.791E-12	553.799E-3	-44.5830E-3	146.918E-12	531.282E-3	5.53370E-3
3.57929E-3	149.910E-12	535.794E-3	-19.1241E-3	147.504E-12	531.313E-3	1.50273E-3
3.57429E-3	148.664E-12	544.542E-3	20.9825E-3	148.763E-12	522.365E-3	-18.6374E-3
3.56928E-3	149.066E-12	565.809E-3	28.3240E-3	148.765E-12	497.329E-3	-30.6515E-3
3.56428E-3	148.582E-12	563.916E-3	-10.9058E-3	149.949E-12	505.497E-3	-34.0256E-3
3.55928E-3	148.494E-12	533.707E-3	-40.1650E-3	150.735E-12	552.650E-3	-36.0465E-3
3.55428E-3	148.097E-12	520.297E-3	-23.3356E-3	150.995E-12	565.431E-3	-21.0538E-3
3.54927E-3	147.694E-12	533.862E-3	5.82908E-3	151.507E-12	542.962E-3	-2.61470E-3
3.54427E-3	147.638E-12	535.501E-3	17.2074E-3	150.687E-12	531.946E-3	-1.79483E-3
3.53927E-3	147.789E-12	512.877E-3	24.6149E-3	149.824E-12	530.638E-3	-15.1026E-3
3.53427E-3	147.709E-12	499.600E-3	6.58022E-3	149.126E-12	530.543E-3	-15.2237E-3
3.52926E-3	147.213E-12	510.273E-3	-33.2093E-3	148.075E-12	546.858E-3	-7.17801E-3
3.52426E-3	147.012E-12	518.091E-3	-45.7814E-3	146.450E-12	560.328E-3	-5.37920E-3
3.51926E-3	147.607E-12	530.284E-3	-26.7971E-3	145.269E-12	542.795E-3	-1.23700E-3
3.51426E-3	147.310E-12	562.254E-3	-32.1370E-3	144.059E-12	531.704E-3	9.62088E-3
3.50925E-3	146.965E-12	564.492E-3	-47.4729E-3	142.971E-12	548.712E-3	11.2732E-3
3.50425E-3	146.798E-12	538.528E-3	-34.2661E-3	142.496E-12	569.637E-3	-5.55950E-3
3.49925E-3	147.155E-12	539.664E-3	-22.3204E-3	142.339E-12	576.269E-3	-20.1823E-3
3.49425E-3	146.112E-12	548.065E-3	-383.004E-6	142.610E-12	564.441E-3	-18.2374E-3
3.48924E-3	145.398E-12	536.081E-3	21.3820E-3	143.396E-12	547.653E-3	11.6791E-3
3.48424E-3	144.637E-12	527.198E-3	12.6414E-3	145.133E-12	535.561E-3	24.0189E-3
3.47924E-3	144.312E-12	534.966E-3	-941.432E-6	145.371E-12	537.805E-3	-6.27162E-3
3.47424E-3	143.234E-12	534.699E-3	-11.2493E-3	147.013E-12	550.838E-3	-10.6156E-3
3.46923E-3	143.443E-12	532.908E-3	-35.6291E-3	147.909E-12	557.343E-3	4.92171E-3
3.46423E-3	142.782E-12	556.342E-3	-43.7372E-3	149.449E-12	569.962E-3	-10.4162E-3
3.45923E-3	142.322E-12	567.417E-3	-24.5102E-3	148.405E-12	589.867E-3	-27.7962E-3
3.45423E-3	143.542E-12	539.660E-3	-21.8845E-3	148.426E-12	600.114E-3	-19.2077E-3
3.44922E-3	143.722E-12	532.593E-3	-17.5724E-3	148.529E-12	599.851E-3	-25.9504E-3
3.44422E-3	144.032E-12	548.135E-3	-1.53754E-3	147.876E-12	578.381E-3	-40.3649E-3
3.43922E-3	144.232E-12	556.134E-3	-8.35516E-3	146.401E-12	547.226E-3	-8.79387E-3
3.43422E-3	144.044E-12	551.572E-3	-19.0154E-3	143.752E-12	539.201E-3	16.3824E-3
3.42921E-3	144.630E-12	535.065E-3	-18.1975E-3	143.045E-12	523.968E-3	-7.66277E-3
3.42421E-3	145.183E-12	543.760E-3	-44.2297E-3	142.107E-12	506.541E-3	-15.1868E-3
3.41921E-3	145.402E-12	578.233E-3	-66.6408E-3	140.654E-12	527.178E-3	-10.5267E-3
3.41421E-3	143.997E-12	597.137E-3	-49.7253E-3	139.251E-12	530.355E-3	-39.3382E-3
3.40920E-3	143.752E-12	581.374E-3	-43.6253E-3	138.345E-12	509.612E-3	-56.4358E-3
3.40420E-3	143.498E-12	559.191E-3	-37.7130E-3	139.288E-12	509.182E-3	-52.5858E-3
3.39920E-3	143.017E-12	555.710E-3	-15.5814E-3	138.865E-12	511.269E-3	-45.5708E-3
3.39420E-3	140.877E-12	571.203E-3	-25.7001E-3	139.793E-12	512.118E-3	-22.5133E-3
3.38919E-3	140.035E-12	588.906E-3	-49.7026E-3	140.607E-12	510.691E-3	-27.8720E-3
3.38419E-3	140.075E-12	571.982E-3	-28.8428E-3	142.711E-12	498.607E-3	-56.2670E-3
3.37919E-3	140.375E-12	533.217E-3	-6.13368E-3	143.800E-12	505.424E-3	-43.8969E-3
3.37419E-3	139.711E-12	517.282E-3	-19.4247E-3	144.265E-12	541.382E-3	-17.1113E-3
3.36918E-3	139.103E-12	515.167E-3	-19.8902E-3	144.243E-12	576.845E-3	-19.2230E-3
3.36418E-3	140.060E-12	520.476E-3	-26.1261E-3	145.314E-12	589.131E-3	-18.8047E-3
3.35918E-3	140.637E-12	526.983E-3	-61.1102E-3	145.526E-12	582.029E-3	-5.34788E-3
3.35418E-3	141.441E-12	525.515E-3	-62.4587E-3	144.791E-12	566.716E-3	-12.8907E-3
3.34917E-3	141.423E-12	531.479E-3	-39.1474E-3	142.589E-12	547.045E-3	-27.3832E-3
3.34417E-3	141.579E-12	541.894E-3	-38.2500E-3	141.466E-12	546.981E-3	-26.3402E-3
3.33917E-3	142.284E-12	568.110E-3	-45.1448E-3	140.807E-12	559.595E-3	-1.50646E-3
3.33417E-3	142.335E-12	590.662E-3	-38.0954E-3	139.027E-12	567.414E-3	31.5110E-3
3.32916E-3	142.043E-12	579.234E-3	-22.9122E-3	137.713E-12	552.120E-3	16.5472E-3
3.32416E-3	141.438E-12	563.233E-3	-18.0847E-3	136.369E-12	520.779E-3	-15.8525E-3
3.31916E-3	141.586E-12	558.362E-3	-8.74005E-3	136.251E-12	519.090E-3	-20.4671E-3
3.31416E-3	140.661E-12	563.247E-3	-8.81410E-3	135.879E-12	540.379E-3	-30.3659E-3
3.30915E-3	139.883E-12	564.529E-3	-38.5049E-3	135.681E-12	556.896E-3	-39.6291E-3
3.30415E-3	139.102E-12	530.715E-3	-50.9119E-3	136.230E-12	556.968E-3	-21.6585E-3
3.29915E-3	138.892E-12	487.723E-3	-37.5191E-3	136.195E-12	543.138E-3	-1.64674E-3
3.29415E-3	138.832E-12	506.011E-3	-28.8811E-3	137.814E-12	535.784E-3	-21.8793E-3
3.28914E-3	138.171E-12	540.311E-3	-15.0967E-3	138.686E-12	552.962E-3	-37.0820E-3
3.28414E-3	137.823E-12	515.657E-3	-5.49171E-3	139.444E-12	568.275E-3	-26.2253E-3
3.27914E-3	138.262E-12	493.959E-3	-5.96380E-3	139.406E-12	569.434E-3	-41.3896E-3
3.27414E-3	138.643E-12	520.286E-3	2.34759E-3	139.705E-12	559.369E-3	-53.7767E-3
3.26913E-3	139.224E-12	546.166E-3	9.74534E-3	139.027E-12	540.039E-3	-33.9840E-3
3.26413E-3	139.048E-12	553.077E-3	2.64182E-3	139.052E-12	524.294E-3	-25.4263E-3
3.25913E-3	138.370E-12	556.213E-3	-11.0058E-3	138.380E-12	518.159E-3	-50.0449E-3
3.25413E-3	139.669E-12	551.034E-3	-29.0814E-3	137.304E-12	513.595E-3	-69.6852E-3
3.24912E-3	139.446E-12	545.509E-3	-34.1659E-3	136.933E-12	510.049E-3	-53.1062E-3
3.24412E-3	138.898E-12	545.010E-3	-10.5148E-3	137.183E-12	511.276E-3	-25.9073E-3
3.23912E-3	138.247E-12	530.030E-3	-2.89097E-3	136.342E-12	504.167E-3	-11.0115E-3
3.23412E-3	138.349E-12	517.366E-3	-20.2619E-3	135.096E-12	515.531E-3	741.359E-6
3.22911E-3	137.553E-12	512.534E-3	-31.0998E-3	135.222E-12	531.288E-3	16.5520E-3
3.22411E-3	136.590E-12	514.407E-3	-31.0188E-3	135.516E-12	521.780E-3	20.8067E-3
3.21911E-3	136.502E-12	544.433E-3	-35.4148E-3	135.645E-12	513.226E-3	-4.37708E-3
3.21411E-3	135.449E-12	572.496E-3	-29.9050E-3	135.020E-12	529.848E-3	-30.6784E-3
3.20910E-3	134.574E-12	556.739E-3	-6.49933E-3	134.512E-12	556.477E-3	-42.0053E-3
3.20410E-3	134.440E-12	519.170E-3	-1.24104E-3	135.958E-12	548.962E-3	-48.9222E-3
3.19910E-3	135.083E-12	506.631E-3	4.58669E-3	136.172E-12	530.161E-3	-58.4851E-3
3.19410E-3	134.182E-12	510.774E-3	6.90269E-3	135.103E-12	525.749E-3	-63.2873E-3
3.18909E-3	135.182E-12	520.472E-3	-5.87272E-3	135.047E-12	507.671E-3	-44.4307E-3
3.18409E-3	135.951E-12	538.587E-3	-12.5735E-3	134.801E-12	505.544E-3	-43.2351E-3
3.17909E-3	135.317E-12	551.149E-3	-31.0475E-3	134.221E-12	535.713E-3	-51.5509E-3
3.17409E-3	134.954E-12	561.137E-3	-57.2776E-3	133.524E-12	547.387E-3	-16.0742E-3
3.16908E-3	135.406E-12	574.433E-3	-48.1829E-3	134.193E-12	545.619E-3	26.1041E-3
3.16408E-3	135.249E-12	573.819E-3	-23.4894E-3	132.509E-12	534.416E-3	33.5010E-3
3.15908E-3	135.348E-12	551.186E-3	-19.3442E-3	132.139E-12	528.900E-3	12.8066E-3
3.15408E-3	133.873E-12	544.969E-3	-4.52484E-3	132.225E-12	545.772E-3	-4.62733E-3
3.14907E-3	133.270E-12	541.443E-3	1.35014E-3	133.075E-12	545.181E-3	-4.60949E-3
3.14407E-3	133.629E-12	528.617E-3	-21.3022E-3	132.671E-12	525.150E-3	-875.803E-6
3.13907E-3	133.323E-12	531.218E-3	-28.4212E-3	132.483E-12	526.001E-3	-4.99646E-3
3.13407E-3	132.710E-12	531.272E-3	-22.6409E-3	133.617E-12	545.339E-3	-22.0931E-3
3.12906E-3	131.808E-12	529.721E-3	-27.2433E-3	133.558E-12	543.529E-3	-27.6941E-3
3.12406E-3	132.115E-12	546.527E-3	-20.1791E-3	133.809E-12	522.717E-3	-9.58152E-3
3.11906E-3	131.871E-12	550.619E-3	-13.6757E-3	133.597E-12	513.017E-3	-1.06261E-3
3.11406E-3	131.991E-12	537.152E-3	-38.3120E-3	133.161E-12	522.443E-3	-15.4347E-3
3.10905E-3	132.317E-12	544.517E-3	-62.9153E-3	133.392E-12	526.392E-3	-27.0314E-3
3.10405E-3	132.118E-12	549.512E-3	-65.9747E-3	132.535E-12	523.807E-3	-20.2684E-3
3.09905E-3	132.272E-12	556.833E-3	-65.1895E-3	131.694E-12	536.027E-3	-10.8543E-3
3.09405E-3	133.339E-12	584.121E-3	-49.0588E-3	130.688E-12	530.135E-3	-17.6561E-3
3.08904E-3	133.338E-12	577.498E-3	-26.2795E-3	130.892E-12	508.996E-3	-28.9838E-3
3.08404E-3	132.577E-12	556.509E-3	-40.4315E-3	129.832E-12	524.037E-3	-33.6232E-3
3.07904E-3	132.424E-12	568.868E-3	-53.7544E-3	128.335E-12	555.000E-3	-27.2341E-3
3.07404E-3	132.231E-12	561.945E-3	-13.3762E-3	128.358E-12	563.291E-3	-8.14024E-3
3.06903E-3	131.434E-12	526.778E-3	8.72325E-3	128.628E-12	548.202E-3	9.44127E-3
3.06403E-3	129.771E-12	533.825E-3	-7.86585E-3	128.630E-12	545.583E-3	4.66029E-3
3.05903E-3	129.413E-12	551.321E-3	-679.164E-6	129.308E-12	558.755E-3	-15.7986E-3
3.05403E-3	128.930E-12	528.235E-3	5.11360E-3	130.205E-12	549.671E-3	-15.5213E-3
3.04902E-3	128.857E-12	518.975E-3	-10.6278E-3	130.658E-12	547.548E-3	-4.87422E-3
3.04402E-3	127.746E-12	540.668E-3	-22.9841E-3	131.308E-12	554.443E-3	-13.5082E-3
3.03902E-3	128.128E-12	539.642E-3	-26.7696E-3	131.629E-12	546.985E-3	-5.84046E-3
3.03402E-3	128.297E-12	523.331E-3	-21.0618E-3	132.794E-12	550.279E-3	15.5525E-3
3.02901E-3	128.131E-12	530.735E-3	-16.6779E-3	133.036E-12	561.157E-3	-3.22348E-3
3.02401E-3	127.587E-12	538.611E-3	-28.6603E-3	131.570E-12	559.330E-3	-27.3590E-3
3.01901E-3	128.455E-12	541.441E-3	-29.0246E-3	130.751E-12	548.760E-3	-33.4592E-3
3.01401E-3	129.718E-12	560.887E-3	-8.99282E-3	130.626E-12	535.322E-3	-35.7098E-3
3.00900E-3	129.532E-12	580.306E-3	-10.2129E-3	128.982E-12	530.177E-3	-19.4412E-3
3.00400E-3	129.641E-12	581.146E-3	-42.2453E-3	127.576E-12	542.612E-3	-4.11475E-3
2.99900E-3	129.418E-12	576.260E-3	-67.1845E-3	125.810E-12	558.453E-3	-20.7538E-3
2.99400E-3	129.884E-12	577.481E-3	-62.5768E-3	125.546E-12	552.969E-3	-45.0587E-3
2.98899E-3	129.616E-12	573.149E-3	-48.0850E-3	124.703E-12	544.609E-3	-38.4185E-3
2.98399E-3	128.836E-12	558.679E-3	-37.7178E-3	123.898E-12	558.542E-3	-38.5146E-3
2.97899E-3	128.224E-12	552.527E-3	-29.4879E-3	123.294E-12	577.101E-3	-50.4361E-3
2.97399E-3	127.446E-12	569.950E-3	-26.8779E-3	123.951E-12	589.680E-3	-28.2630E-3
2.96898E-3	127.455E-12	590.618E-3	-14.9098E-3	124.245E-12	584.890E-3	-599.444E-6
2.96398E-3	126.983E-12	582.832E-3	-6.33072E-3	125.596E-12	586.438E-3	-450.187E-6
2.95898E-3	125.959E-12	576.581E-3	-13.1496E-3	125.940E-12	591.849E-3	-14.4560E-3
2.95398E-3	125.058E-12	582.197E-3	-6.78652E-3	127.607E-12	577.095E-3	-28.6991E-3
2.94897E-3	125.635E-12	560.547E-3	585.406E-6	128.676E-12	568.554E-3	-22.0388E-3
2.94397E-3	125.536E-12	549.650E-3	-786.657E-6	128.946E-12	570.683E-3	-4.86793E-3
2.93897E-3	125.624E-12	580.699E-3	12.6876E-3	128.937E-12	570.199E-3	-12.8449E-3
2.93397E-3	126.100E-12	585.893E-3	28.5926E-3	129.057E-12	562.839E-3	-35.6946E-3
2.92896E-3	125.748E-12	549.661E-3	21.4351E-3	128.735E-12	550.278E-3	-32.8868E-3
2.92396E-3	126.461E-12	538.217E-3	14.0446E-3	128.327E-12	543.905E-3	-18.4425E-3
2.91896E-3	126.882E-12	552.833E-3	19.1784E-3	127.082E-12	547.351E-3	-12.8897E-3
2.91396E-3	126.979E-12	553.403E-3	8.69526E-3	125.333E-12	544.591E-3	5.69813E-3
2.90895E-3	125.851E-12	546.429E-3	-11.1333E-3	124.629E-12	531.446E-3	5.21776E-3
2.90395E-3	125.873E-12	555.736E-3	-17.4079E-3	123.252E-12	523.426E-3	-16.0108E-3
2.89895E-3	126.085E-12	563.378E-3	-13.4117E-3	121.787E-12	528.764E-3	-18.4809E-3
2.89395E-3	124.784E-12	559.840E-3	-10.9355E-3	120.900E-12	542.686E-3	-8.38254E-3
2.88894E-3	123.764E-12	568.321E-3	-21.6006E-3	120.484E-12	537.620E-3	-2.66408E-3
2.88394E-3	123.473E-12	568.258E-3	-32.3867E-3	120.089E-12	523.536E-3	-13.3920E-3
2.87894E-3	123.162E-12	549.554E-3	-31.9583E-3	120.518E-12	546.233E-3	-23.5831E-3
2.87394E-3	121.711E-12	541.555E-3	-21.5776E-3	120.800E-12	574.481E-3	-8.12699E-3
2.86893E-3	122.099E-12	547.347E-3	-2.17984E-3	121.672E-12	583.601E-3	18.0371E-3
2.86393E-3	122.002E-12	558.114E-3	-5.04751E-3	122.690E-12	590.861E-3	22.1150E-3
2.85893E-3	121.842E-12	557.590E-3	-33.9553E-3	123.968E-12	573.657E-3	13.5124E-3
2.85393E-3	121.477E-12	540.573E-3	-42.4754E-3	124.753E-12	547.521E-3	18.5981E-3
2.84892E-3	121.932E-12	535.638E-3	-45.0750E-3	124.892E-12	544.357E-3	19.1173E-3
2.84392E-3	122.127E-12	547.334E-3	-62.1944E-3	125.353E-12	551.559E-3	10.7137E-3
2.83892E-3	122.616E-12	552.623E-3	-59.5169E-3	125.239E-12	559.704E-3	6.10009E-3
2.83392E-3	123.086E-12	553.317E-3	-34.9201E-3	124.547E-12	548.554E-3	-14.3206E-3
2.82891E-3	123.823E-12	543.028E-3	-17.7012E-3	123.943E-12	524.833E-3	-23.6092E-3
2.82391E-3	123.591E-12	518.531E-3	-31.1565E-3	122.964E-12	525.581E-3	1.02223E-3
2.81891E-3	122.920E-12	518.672E-3	-42.2240E-3	122.350E-12	539.021E-3	9.58760E-3
2.81391E-3	122.661E-12	550.769E-3	-26.6991E-3	120.891E-12	528.753E-3	-6.75242E-3
2.80890E-3	122.176E-12	573.053E-3	-672.756E-6	120.310E-12	505.191E-3	-19.9872E-3
2.80390E-3	121.768E-12	572.708E-3	4.73284E-3	119.199E-12	511.611E-3	-26.4744E-3
2.79890E-3	120.546E-12	559.856E-3	-11.6047E-3	118.827E-12	539.097E-3	-26.8981E-3
2.79390E-3	120.555E-12	562.938E-3	-12.9131E-3	118.620E-12	539.013E-3	-17.3236E-3
2.78889E-3	119.142E-12	594.028E-3	-11.6292E-3	118.420E-12	536.732E-3	2.97544E-3
2.78389E-3	119.038E-12	594.815E-3	-16.2340E-3	118.053E-12	550.202E-3	12.5146E-3
2.77889E-3	119.371E-12	548.830E-3	-23.8030E-3	118.949E-12	550.258E-3	-2.39003E-3
2.77389E-3	117.832E-12	529.770E-3	-38.3477E-3	119.207E-12	550.667E-3	-14.4622E-3
2.76888E-3	117.908E-12	556.830E-3	-38.9188E-3	118.843E-12	553.963E-3	-12.4572E-3
2.76388E-3	118.057E-12	572.525E-3	-17.2913E-3	118.950E-12	549.367E-3	-9.70492E-3
2.75888E-3	118.947E-12	552.760E-3	-10.2251E-3	119.499E-12	541.612E-3	-6.46961E-3
2.75388E-3	118.592E-12	529.854E-3	-29.4035E-3	119.915E-12	536.926E-3	-7.15369E-3
2.74887E-3	119.810E-12	541.050E-3	-40.2192E-3	119.103E-12	544.498E-3	-10.7461E-3
2.74387E-3	119.639E-12	577.047E-3	-33.9529E-3	119.081E-12	552.462E-3	-7.95379E-3
2.73887E-3	119.872E-12	613.162E-3	-23.8599E-3	118.758E-12	540.379E-3	-13.0158E-3
2.73387E-3	120.004E-12	619.165E-3	-23.4971E-3	118.412E-12	527.684E-3	-36.7263E-3
2.72886E-3	119.421E-12	582.282E-3	-27.5173E-3	118.223E-12	538.373E-3	-36.1150E-3
2.72386E-3	119.931E-12	539.232E-3	-21.4967E-3	118.070E-12	555.863E-3	-7.30909E-3
2.71886E-3	118.363E-12	530.069E-3	-20.4784E-3	117.082E-12	549.646E-3	2.68060E-3
2.71386E-3	118.252E-12	550.658E-3	-26.2075E-3	116.492E-12	529.983E-3	-6.56709E-3
2.70885E-3	117.826E-12	578.822E-3	-30.1305E-3	117.405E-12	516.686E-3	-19.3772E-3
2.70385E-3	118.136E-12	593.634E-3	-41.6659E-3	116.701E-12	516.144E-3	-26.1186E-3
2.69885E-3	116.561E-12	575.557E-3	-42.5543E-3	116.366E-12	544.790E-3	-28.6102E-3
2.69385E-3	116.018E-12	554.620E-3	-41.5566E-3	116.406E-12	582.103E-3	-43.0598E-3
2.68884E-3	116.693E-12	549.368E-3	-41.3301E-3	116.632E-12	575.249E-3	-51.3299E-3
2.68384E-3	117.447E-12	556.715E-3	-30.8849E-3	116.846E-12	543.580E-3	-38.8810E-3
2.67884E-3	117.312E-12	564.466E-3	-26.1277E-3	116.604E-12	551.834E-3	-25.5322E-3
2.67384E-3	116.127E-12	550.824E-3	-24.9674E-3	115.816E-12	578.615E-3	-7.26267E-3
2.66883E-3	117.081E-12	551.183E-3	-14.2070E-3	116.211E-12	577.471E-3	19.0346E-3
2.66383E-3	117.043E-12	568.476E-3	2.34049E-3	115.902E-12	556.936E-3	16.2065E-3
2.65883E-3	116.794E-12	575.855E-3	-8.86468E-3	115.314E-12	539.335E-3	-24.8874E-3
2.65383E-3	116.095E-12	578.407E-3	-28.8611E-3	114.062E-12	546.686E-3	-55.9136E-3
2.64882E-3	115.812E-12	567.860E-3	-40.2574E-3	114.588E-12	575.546E-3	-41.7458E-3
2.64382E-3	115.580E-12	565.253E-3	-50.5718E-3	114.399E-12	580.902E-3	-13.8742E-3
2.63882E-3	114.968E-12	575.194E-3	-36.3975E-3	114.286E-12	563.353E-3	-6.84293E-3
2.63382E-3	115.147E-12	567.081E-3	-18.9092E-3	114.295E-12	565.461E-3	-5.60915E-3
2.62881E-3	114.095E-12	575.240E-3	-24.9987E-3	113.811E-12	570.384E-3	-22.3520E-3
2.62381E-3	114.133E-12	597.864E-3	-23.6776E-3	114.984E-12	553.121E-3	-47.5201E-3
2.61881E-3	113.301E-12	582.120E-3	-800.537E-6	115.317E-12	543.177E-3	-32.0215E-3
2.61381E-3	113.461E-12	554.208E-3	430.664E-6	115.193E-12	549.724E-3	-9.46731E-3
2.60880E-3	112.898E-12	540.138E-3	-10.8399E-3	114.800E-12	548.052E-3	-18.9483E-3
2.60380E-3	113.071E-12	515.227E-3	446.908E-6	115.398E-12	541.564E-3	-21.7980E-3
2.59880E-3	112.730E-12	503.909E-3	6.22566E-3	114.886E-12	550.418E-3	-8.49675E-3
2.59380E-3	112.595E-12	524.232E-3	-609.149E-6	114.504E-12	552.193E-3	-3.65930E-3
2.58879E-3	113.211E-12	537.479E-3	10.2700E-3	114.074E-12	535.623E-3	-5.86143E-3
2.58379E-3	113.666E-12	550.045E-3	31.8888E-3	113.986E-12	535.238E-3	-7.24796E-3
2.57879E-3	113.080E-12	557.541E-3	28.4288E-3	112.230E-12	547.221E-3	-18.5536E-3
2.57379E-3	112.616E-12	544.248E-3	-17.4972E-3	111.977E-12	565.534E-3	-28.2499E-3
2.56878E-3	112.707E-12	546.449E-3	-57.5839E-3	110.887E-12	591.214E-3	-24.3539E-3
2.56378E-3	112.547E-12	572.435E-3	-32.3340E-3	110.455E-12	591.639E-3	-31.1008E-3
2.55878E-3	111.856E-12	583.777E-3	-7.62050E-3	109.618E-12	569.662E-3	-38.3560E-3
2.55378E-3	111.599E-12	579.791E-3	-29.0127E-3	109.329E-12	547.001E-3	-40.3767E-3
2.54877E-3	110.615E-12	584.022E-3	-50.6323E-3	109.160E-12	519.983E-3	-33.5208E-3
2.54377E-3	110.656E-12	575.596E-3	-53.8255E-3	109.702E-12	506.750E-3	-12.0497E-3
2.53877E-3	110.285E-12	581.351E-3	-40.2872E-3	109.672E-12	525.742E-3	-1.84848E-3
2.53377E-3	109.684E-12	598.725E-3	-24.8161E-3	109.462E-12	559.756E-3	-5.45149E-3
2.52876E-3	109.297E-12	581.683E-3	-15.6163E-3	110.893E-12	586.063E-3	-13.5003E-3
2.52376E-3	109.228E-12	556.037E-3	-12.3160E-3	111.584E-12	597.625E-3	-16.3671E-3
2.51876E-3	109.127E-12	533.074E-3	-9.66097E-3	111.155E-12	582.736E-3	-5.95743E-3
2.51376E-3	110.007E-12	524.691E-3	-6.87028E-3	111.669E-12	545.015E-3	3.71578E-3
2.50875E-3	110.209E-12	545.320E-3	-3.08624E-3	111.656E-12	528.836E-3	-1.80693E-3
2.50375E-3	110.699E-12	559.457E-3	17.3658E-3	111.627E-12	543.500E-3	-17.6298E-3
2.49875E-3	110.823E-12	548.863E-3	33.3704E-3	111.247E-12	554.812E-3	-19.5432E-3
2.49375E-3	110.957E-12	541.665E-3	12.9433E-3	110.581E-12	563.163E-3	-9.92339E-3
2.48874E-3	111.721E-12	557.716E-3	-8.74176E-3	109.592E-12	562.138E-3	-21.0494E-3
2.48374E-3	111.173E-12	573.043E-3	-11.4203E-3	108.502E-12	523.839E-3	-28.2701E-3
2.47874E-3	110.494E-12	575.320E-3	-20.4276E-3	108.339E-12	500.697E-3	-16.9024E-3
2.47374E-3	110.723E-12	569.555E-3	-30.7850E-3	107.559E-12	530.568E-3	-5.56257E-3
2.46873E-3	109.694E-12	548.819E-3	-24.7459E-3	106.415E-12	550.810E-3	1.25055E-3
2.46373E-3	107.867E-12	528.877E-3	-11.1803E-3	106.477E-12	538.834E-3	-9.30977E-3
2.45873E-3	107.718E-12	528.216E-3	-19.5855E-3	106.450E-12	531.896E-3	-23.6013E-3
2.45373E-3	106.596E-12	533.769E-3	-33.8952E-3	106.112E-12	535.568E-3	-35.1425E-3
2.44872E-3	106.125E-12	533.450E-3	-9.31093E-3	105.977E-12	545.112E-3	-27.1192E-3
2.44372E-3	105.467E-12	532.783E-3	23.6738E-3	106.580E-12	562.528E-3	3.87711E-3
2.43872E-3	105.566E-12	541.159E-3	14.9158E-3	106.710E-12	575.192E-3	5.53164E-3
2.43372E-3	105.805E-12	551.096E-3	-9.08514E-3	107.799E-12	572.313E-3	1.64877E-3
2.42871E-3	105.572E-12	556.206E-3	-16.9923E-3	108.331E-12	555.878E-3	3.71200E-3
2.42371E-3	105.415E-12	550.444E-3	-7.34524E-3	108.274E-12	541.370E-3	-14.0232E-3
2.41871E-3	106.575E-12	527.325E-3	-4.40300E-3	108.549E-12	534.382E-3	-26.5344E-3
2.41371E-3	106.831E-12	526.285E-3	-21.8688E-3	108.413E-12	535.874E-3	-35.0362E-3
2.40870E-3	107.038E-12	543.774E-3	-26.9514E-3	108.198E-12	535.557E-3	-30.6709E-3
2.40370E-3	107.354E-12	549.235E-3	-13.1340E-3	107.629E-12	524.452E-3	-11.0308E-3
2.39870E-3	107.066E-12	560.258E-3	-4.94515E-3	106.489E-12	528.374E-3	-1.54166E-3
2.39370E-3	107.969E-12	547.950E-3	6.08730E-3	106.312E-12	531.546E-3	-2.71205E-3
2.38869E-3	107.508E-12	529.890E-3	11.8428E-3	105.727E-12	521.639E-3	-1.05661E-3
2.38369E-3	106.825E-12	543.510E-3	-10.4766E-3	104.940E-12	516.416E-3	-520.743E-6
2.37869E-3	106.471E-12	541.648E-3	-27.1064E-3	104.058E-12	517.881E-3	-16.7218E-3
2.37369E-3	106.256E-12	520.054E-3	-27.3422E-3	104.164E-12	523.073E-3	-35.8561E-3
2.36868E-3	104.928E-12	521.529E-3	-23.4730E-3	103.361E-12	529.408E-3	-33.9473E-3
2.36368E-3	104.294E-12	555.478E-3	-17.4462E-3	103.198E-12	536.904E-3	-12.3537E-3
2.35868E-3	103.593E-12	571.371E-3	-15.3733E-3	103.174E-12	546.761E-3	-8.34817E-3
2.35368E-3	103.710E-12	551.674E-3	650.958E-6	103.319E-12	556.353E-3	-34.8523E-3
2.34867E-3	103.126E-12	527.185E-3	19.2464E-3	103.071E-12	557.759E-3	-55.2271E-3
2.34367E-3	102.746E-12	518.521E-3	5.48320E-3	103.112E-12	559.421E-3	-45.0001E-3
2.33867E-3	102.671E-12	534.085E-3	-23.9873E-3	103.703E-12	558.567E-3	-15.3439E-3
2.33367E-3	103.080E-12	541.749E-3	-27.7037E-3	104.120E-12	550.704E-3	4.81057E-3
2.32866E-3	103.374E-12	538.145E-3	-21.7128E-3	103.863E-12	551.301E-3	2.06474E-3
2.32366E-3	102.866E-12	544.552E-3	-34.8846E-3	104.483E-12	567.040E-3	-8.10786E-3
2.31866E-3	103.145E-12	549.550E-3	-39.7190E-3	104.874E-12	576.741E-3	-8.06254E-3
2.31366E-3	102.491E-12	542.281E-3	-21.0888E-3	104.593E-12	559.890E-3	-645.359E-6
2.30865E-3	102.865E-12	531.079E-3	-11.3446E-3	103.922E-12	531.967E-3	11.3681E-3
2.30365E-3	103.007E-12	537.154E-3	-20.3191E-3	103.017E-12	518.436E-3	10.6810E-3
2.29865E-3	102.831E-12	556.999E-3	-22.0958E-3	102.564E-12	523.304E-3	-3.95706E-3
2.29365E-3	101.880E-12	565.492E-3	-9.33889E-3	102.296E-12	536.248E-3	-11.1691E-3
2.28864E-3	102.669E-12	560.490E-3	-5.23826E-3	101.671E-12	545.574E-3	-5.06003E-3
2.28364E-3	102.234E-12	551.173E-3	-13.2500E-3	100.961E-12	553.237E-3	2.95213E-3
2.27864E-3	101.561E-12	540.354E-3	-15.7061E-3	100.569E-12	563.625E-3	-4.74266E-3
2.27364E-3	101.352E-12	539.673E-3	-19.3618E-3	100.737E-12	564.119E-3	-11.6183E-3
2.26863E-3	101.140E-12	537.162E-3	-15.2510E-3	100.421E-12	552.724E-3	-8.90656E-3
2.26363E-3	101.406E-12	526.499E-3	844.500E-6	99.9474E-12	541.828E-3	-8.03870E-3
2.25863E-3	101.252E-12	547.413E-3	2.32459E-3	100.471E-12	540.755E-3	-9.15819E-3
2.25363E-3	101.667E-12	581.213E-3	-6.67536E-3	99.6622E-12	559.810E-3	-14.2654E-3
2.24862E-3	101.040E-12	564.031E-3	-11.2042E-3	100.482E-12	581.026E-3	-16.6921E-3
2.24362E-3	101.473E-12	536.912E-3	-11.7734E-3	100.953E-12	575.187E-3	-5.18021E-3
2.23862E-3	101.198E-12	564.256E-3	-9.97203E-3	101.024E-12	555.317E-3	5.63374E-3
2.23362E-3	100.205E-12	581.865E-3	-11.7276E-3	100.189E-12	535.672E-3	4.82629E-3
2.22861E-3	100.355E-12	559.155E-3	-25.6522E-3	100.843E-12	525.658E-3	6.15585E-3
2.22361E-3	100.007E-12	559.418E-3	-34.1400E-3	100.949E-12	530.884E-3	8.82134E-3
2.21861E-3	99.2619E-12	564.654E-3	-23.8945E-3	100.518E-12	534.400E-3	22.6422E-3
2.21361E-3	98.1920E-12	552.186E-3	-12.7251E-3	100.087E-12	533.376E-3	36.1517E-3
2.20860E-3	97.8871E-12	549.386E-3	-8.79194E-3	99.7093E-12	542.722E-3	17.4627E-3
2.20360E-3	97.4300E-12	549.062E-3	-6.49279E-3	99.4093E-12	543.495E-3	-10.3050E-3
2.19860E-3	97.6809E-12	544.235E-3	-15.2020E-3	99.1094E-12	536.440E-3	-19.5961E-3
2.19360E-3	97.5793E-12	552.986E-3	-30.9744E-3	98.7846E-12	550.419E-3	-24.5308E-3
2.18859E-3	97.0092E-12	563.052E-3	-21.0691E-3	98.3934E-12	563.699E-3	-34.6949E-3
2.18359E-3	97.2647E-12	554.838E-3	-15.5729E-3	98.3016E-12	562.678E-3	-25.7000E-3
2.17859E-3	97.4362E-12	543.820E-3	-22.7275E-3	97.8967E-12	558.376E-3	-1.62204E-3
2.17359E-3	98.3068E-12	526.822E-3	-5.02866E-3	97.9056E-12	536.877E-3	-3.94974E-3
2.16858E-3	98.5405E-12	507.396E-3	6.25282E-3	97.4128E-12	515.804E-3	-6.81185E-3
2.16358E-3	98.0403E-12	520.005E-3	-7.08588E-3	97.4284E-12	534.693E-3	888.245E-6
2.15858E-3	97.9801E-12	546.690E-3	-7.35336E-3	97.6255E-12	559.609E-3	-8.52393E-3
2.15358E-3	98.7861E-12	543.846E-3	2.42943E-3	96.8416E-12	561.264E-3	-13.4826E-3
2.14857E-3	98.4210E-12	543.474E-3	1.06390E-3	96.4444E-12	549.818E-3	-14.6149E-3
2.14357E-3	97.8570E-12	556.602E-3	11.4467E-3	96.9645E-12	536.044E-3	-18.7948E-3
2.13857E-3	97.2265E-12	542.666E-3	32.8645E-3	97.0582E-12	549.221E-3	-16.4037E-3
2.13357E-3	96.2961E-12	540.301E-3	15.3172E-3	96.4074E-12	568.878E-3	-10.7446E-3
2.12856E-3	96.0907E-12	574.192E-3	-15.5070E-3	95.6687E-12	569.109E-3	-10.9651E-3
2.12356E-3	96.1338E-12	593.246E-3	-11.4384E-3	95.7590E-12	569.097E-3	-14.5742E-3
2.11856E-3	95.0489E-12	577.745E-3	760.113E-6	95.8320E-12	566.478E-3	-17.6564E-3
2.11356E-3	94.1540E-12	564.146E-3	9.36763E-3	95.2959E-12	559.782E-3	-26.9028E-3
2.10855E-3	94.5303E-12	562.122E-3	12.9218E-3	94.9339E-12	559.033E-3	-31.3187E-3
2.10355E-3	94.3148E-12	550.894E-3	-754.560E-6	95.0486E-12	550.910E-3	-22.9401E-3
2.09855E-3	93.6970E-12	532.826E-3	-4.23243E-3	95.0522E-12	545.487E-3	-27.9238E-3
2.09355E-3	93.4560E-12	511.038E-3	13.5538E-3	95.4490E-12	550.793E-3	-50.2232E-3
2.08854E-3	93.8963E-12	503.527E-3	13.4424E-3	94.8022E-12	545.634E-3	-42.1975E-3
2.08354E-3	94.2963E-12	523.844E-3	-2.49541E-3	94.5984E-12	531.765E-3	-21.6008E-3
2.07854E-3	93.7987E-12	542.466E-3	-8.39269E-3	94.5668E-12	517.721E-3	-27.8334E-3
2.07354E-3	93.8348E-12	546.586E-3	-4.74332E-3	94.1655E-12	519.193E-3	-25.8557E-3
2.06853E-3	94.6633E-12	549.023E-3	629.054E-6	94.0978E-12	550.662E-3	-25.4160E-3
2.06353E-3	94.9227E-12	548.123E-3	3.82844E-3	93.8075E-12	574.168E-3	-41.2761E-3
2.05853E-3	94.1724E-12	534.694E-3	-5.82550E-3	93.3881E-12	558.314E-3	-38.1829E-3
2.05353E-3	93.7831E-12	525.453E-3	-28.0291E-3	93.0075E-12	543.431E-3	-26.4089E-3
2.04852E-3	94.4872E-12	531.212E-3	-41.8643E-3	93.2470E-12	545.468E-3	-35.6714E-3
2.04352E-3	93.6790E-12	533.586E-3	-38.0301E-3	93.0330E-12	542.764E-3	-31.0554E-3
2.03852E-3	92.3529E-12	545.769E-3	-16.4634E-3	92.5262E-12	543.376E-3	-11.5281E-3
2.03352E-3	91.8698E-12	560.857E-3	8.53740E-3	92.4864E-12	543.806E-3	-17.9796E-3
2.02851E-3	92.0652E-12	557.375E-3	21.2630E-3	91.4579E-12	530.975E-3	-14.9978E-3
2.02351E-3	91.3162E-12	563.440E-3	22.5127E-3	92.1064E-12	535.698E-3	-1.66745E-3
2.01851E-3	90.4734E-12	578.816E-3	19.3865E-3	91.5515E-12	553.114E-3	-15.9725E-3
2.01351E-3	90.2442E-12	570.509E-3	14.4391E-3	91.1072E-12	539.510E-3	-36.2745E-3
2.00850E-3	90.3871E-12	548.781E-3	-2.33740E-3	90.9619E-12	522.387E-3	-35.3969E-3
2.00350E-3	90.6516E-12	541.217E-3	-13.0097E-3	92.1328E-12	526.107E-3	-25.0384E-3
1.99850E-3	90.0164E-12	537.929E-3	-14.3592E-3	92.3238E-12	529.652E-3	-35.1889E-3
1.99350E-3	90.0175E-12	528.728E-3	-24.4355E-3	91.7180E-12	531.178E-3	-28.4916E-3
1.98849E-3	90.6421E-12	527.294E-3	-26.9210E-3	92.3886E-12	547.010E-3	4.32215E-3
1.98349E-3	90.2166E-12	535.938E-3	-19.7566E-3	92.3454E-12	555.476E-3	5.82738E-3
1.97849E-3	90.5185E-12	534.485E-3	-9.71944E-3	92.2552E-12	542.367E-3	-1.53384E-3
1.97349E-3	90.5651E-12	521.658E-3	-6.61102E-3	91.6869E-12	529.932E-3	-2.40636E-3
1.96848E-3	90.3338E-12	523.025E-3	-8.87788E-3	91.2688E-12	536.831E-3	-14.9277E-3
1.96348E-3	89.9552E-12	540.299E-3	5.88510E-3	90.9227E-12	552.487E-3	-17.6742E-3
1.95848E-3	90.4154E-12	559.660E-3	25.0305E-3	90.7205E-12	547.482E-3	-8.74329E-3
1.95348E-3	89.7510E-12	560.222E-3	31.9505E-3	89.6050E-12	531.078E-3	-5.14550E-3
1.94847E-3	89.2917E-12	542.488E-3	28.0606E-3	88.8820E-12	527.312E-3	-6.86783E-3
1.94347E-3	88.9817E-12	533.194E-3	18.7642E-3	88.5772E-12	537.485E-3	-5.13660E-3
1.93847E-3	89.0849E-12	522.061E-3	13.3909E-3	87.8390E-12	546.696E-3	63.0755E-6
1.93347E-3	88.5385E-12	525.343E-3	9.28648E-3	87.4952E-12	547.029E-3	-9.01011E-3
1.92846E-3	88.4764E-12	559.835E-3	6.55923E-3	86.9227E-12	536.575E-3	-26.2208E-3
1.92346E-3	88.2348E-12	571.991E-3	5.66798E-3	86.6584E-12	527.590E-3	-28.2048E-3
1.91846E-3	87.8069E-12	549.797E-3	-9.63575E-3	87.0566E-12	538.325E-3	-29.5590E-3
1.91346E-3	88.3453E-12	538.013E-3	-26.5407E-3	87.6469E-12	556.322E-3	-33.4962E-3
1.90845E-3	88.4932E-12	539.236E-3	-19.4373E-3	87.9705E-12	566.537E-3	-19.1869E-3
1.90345E-3	87.7914E-12	530.525E-3	-12.0977E-3	87.8162E-12	560.133E-3	-10.2486E-3
1.89845E-3	86.9090E-12	525.763E-3	-16.1848E-3	88.3652E-12	547.042E-3	-25.1880E-3
1.89345E-3	87.5958E-12	533.849E-3	-14.2491E-3	89.0697E-12	554.217E-3	-24.6218E-3
1.88844E-3	87.4919E-12	544.206E-3	765.267E-6	89.2759E-12	578.680E-3	656.800E-6
1.88344E-3	87.1908E-12	555.910E-3	21.6058E-3	88.7033E-12	575.928E-3	3.61077E-3
1.87844E-3	86.4069E-12	559.649E-3	19.9532E-3	88.3521E-12	553.415E-3	-14.0113E-3
1.87344E-3	86.4311E-12	549.212E-3	-7.16363E-3	88.3111E-12	543.313E-3	-32.4926E-3
1.86843E-3	86.4137E-12	539.250E-3	-21.1055E-3	87.9613E-12	526.406E-3	-50.3159E-3
1.86343E-3	85.9755E-12	537.662E-3	-16.4855E-3	87.3827E-12	514.478E-3	-42.9338E-3
1.85843E-3	85.6236E-12	532.979E-3	-15.1383E-3	86.5722E-12	525.572E-3	-18.5043E-3
1.85343E-3	85.4035E-12	534.932E-3	-18.4517E-3	85.6649E-12	533.058E-3	-4.44481E-3
1.84842E-3	85.5663E-12	545.883E-3	-18.9437E-3	85.0728E-12	522.957E-3	-3.41433E-3
1.84342E-3	85.4255E-12	544.564E-3	-20.9134E-3	84.4549E-12	532.140E-3	-12.1771E-3
1.83842E-3	85.3274E-12	538.956E-3	-21.9708E-3	84.0395E-12	550.246E-3	-23.8121E-3
1.83342E-3	85.3525E-12	540.187E-3	-10.7938E-3	83.3349E-12	544.965E-3	-30.0221E-3
1.82841E-3	85.7518E-12	540.227E-3	-14.5992E-3	84.0506E-12	539.251E-3	-33.6352E-3
1.82341E-3	85.7216E-12	539.554E-3	-44.4011E-3	83.9935E-12	543.555E-3	-40.8407E-3
1.81841E-3	85.6362E-12	546.806E-3	-57.9321E-3	84.2958E-12	545.765E-3	-46.5350E-3
1.81341E-3	85.1462E-12	549.327E-3	-40.7884E-3	84.4523E-12	555.947E-3	-31.4030E-3
1.80840E-3	85.3275E-12	541.412E-3	-25.6715E-3	84.7056E-12	567.486E-3	-2.78701E-3
1.80340E-3	85.1231E-12	545.986E-3	-16.2381E-3	84.6963E-12	561.035E-3	8.41459E-3
1.79840E-3	84.9200E-12	541.207E-3	-5.20073E-3	85.7248E-12	561.953E-3	7.33943E-3
1.79340E-3	83.9636E-12	519.472E-3	-19.6946E-3	85.8400E-12	572.879E-3	3.32736E-3
1.78839E-3	83.6306E-12	523.057E-3	-30.7065E-3	85.0992E-12	559.389E-3	-10.6908E-3
1.78339E-3	83.3711E-12	542.804E-3	-8.40570E-3	84.8194E-12	546.208E-3	-23.7166E-3
1.77839E-3	83.0087E-12	553.774E-3	7.22612E-3	84.8804E-12	545.973E-3	-25.2467E-3
1.77339E-3	82.5683E-12	554.012E-3	-172.424E-6	84.1915E-12	541.180E-3	-20.1493E-3
1.76838E-3	82.0134E-12	553.730E-3	-16.2799E-3	83.3335E-12	551.051E-3	-11.8687E-3
1.76338E-3	82.0862E-12	548.448E-3	-32.2626E-3	82.9324E-12	556.362E-3	-15.0257E-3
1.75838E-3	82.6788E-12	538.681E-3	-25.7065E-3	82.2064E-12	530.742E-3	-3.73431E-3
1.75338E-3	82.2354E-12	538.881E-3	1.98015E-3	82.0241E-12	516.446E-3	15.1374E-3
1.74837E-3	81.4351E-12	533.662E-3	3.64937E-3	81.7751E-12	533.073E-3	-14.6561E-3
1.74337E-3	81.5940E-12	523.937E-3	-17.8010E-3	81.1142E-12	540.789E-3	-48.4210E-3
1.73837E-3	82.2414E-12	529.132E-3	-12.8959E-3	80.9207E-12	529.113E-3	-30.0875E-3
1.73337E-3	81.3809E-12	538.308E-3	11.8467E-3	81.1671E-12	538.699E-3	-2.64151E-3
1.72836E-3	81.1545E-12	531.221E-3	5.23907E-3	80.6812E-12	547.813E-3	-2.56754E-3
1.72336E-3	81.1023E-12	522.222E-3	-13.4696E-3	80.3657E-12	523.501E-3	-3.57757E-3
1.71836E-3	81.1571E-12	524.836E-3	-8.99802E-3	81.2699E-12	523.389E-3	-3.83799E-3
1.71336E-3	80.5446E-12	520.981E-3	-428.937E-6	80.9103E-12	543.475E-3	-16.0621E-3
1.70835E-3	80.6154E-12	513.413E-3	1.43559E-3	80.7390E-12	541.478E-3	-18.6938E-3
1.70335E-3	80.0062E-12	516.061E-3	-10.0511E-3	80.9699E-12	535.930E-3	-6.98780E-3
1.69835E-3	79.8673E-12	527.412E-3	-24.3786E-3	81.2125E-12	543.689E-3	-14.6725E-3
1.69335E-3	80.1949E-12	532.149E-3	-28.9228E-3	80.9587E-12	547.904E-3	-34.3292E-3
1.68834E-3	79.7474E-12	515.216E-3	-31.6943E-3	81.0747E-12	534.969E-3	-45.9201E-3
1.68334E-3	79.6990E-12	500.847E-3	-21.4496E-3	80.2901E-12	530.745E-3	-61.9399E-3
1.67834E-3	79.3474E-12	519.314E-3	-16.5094E-3	79.8738E-12	539.007E-3	-52.3487E-3
1.67334E-3	80.1282E-12	545.325E-3	-24.4339E-3	79.4378E-12	543.598E-3	-14.9353E-3
1.66833E-3	79.7705E-12	548.611E-3	-25.1627E-3	79.4949E-12	544.560E-3	-4.35362E-3
1.66333E-3	79.2408E-12	542.466E-3	-21.6715E-3	79.1624E-12	539.720E-3	-13.9177E-3
1.65833E-3	79.7215E-12	535.613E-3	-6.86692E-3	78.7802E-12	529.826E-3	-7.94727E-3
1.65333E-3	79.7019E-12	535.469E-3	2.62511E-3	78.6809E-12	527.820E-3	-6.14165E-3
1.64832E-3	80.1521E-12	548.682E-3	-2.14993E-3	78.5821E-12	528.215E-3	-24.7888E-3
1.64332E-3	79.8467E-12	551.399E-3	3.62883E-3	78.5136E-12	512.765E-3	-24.1654E-3
1.63832E-3	79.5772E-12	530.612E-3	9.69191E-3	78.0943E-12	508.513E-3	-6.25306E-3
1.63332E-3	78.5798E-12	515.473E-3	-2.39712E-3	78.2444E-12	528.599E-3	5.20404E-3
1.62831E-3	78.6980E-12	519.552E-3	-32.8947E-3	78.2543E-12	534.998E-3	13.7495E-3
1.62331E-3	78.1324E-12	527.553E-3	-54.7154E-3	77.8919E-12	536.482E-3	9.84172E-3
1.61831E-3	76.9472E-12	527.303E-3	-28.4672E-3	77.5253E-12	554.164E-3	7.48946E-3
1.61331E-3	76.5201E-12	515.180E-3	2.61165E-3	77.2128E-12	566.806E-3	9.14284E-3
1.60830E-3	76.4056E-12	514.503E-3	-9.30980E-3	77.4814E-12	560.932E-3	-145.359E-6
1.60330E-3	75.7858E-12	527.876E-3	-17.4081E-3	77.2586E-12	546.408E-3	-10.2814E-3
1.59830E-3	75.3864E-12	532.543E-3	-3.41896E-3	76.8849E-12	527.010E-3	-20.1168E-3
1.59330E-3	75.5692E-12	523.576E-3	-8.01753E-3	76.2003E-12	509.718E-3	-29.3102E-3
1.58829E-3	75.5145E-12	518.113E-3	-21.9298E-3	76.2021E-12	510.447E-3	-31.0154E-3
1.58329E-3	75.9784E-12	512.054E-3	-25.2640E-3	76.1028E-12	514.889E-3	-24.4330E-3
1.57829E-3	76.0825E-12	503.020E-3	-34.3873E-3	75.4638E-12	510.946E-3	-7.16350E-3
1.57329E-3	76.2358E-12	508.027E-3	-49.9481E-3	75.5275E-12	510.104E-3	-10.2238E-3
1.56828E-3	75.9408E-12	513.623E-3	-50.0416E-3	76.1655E-12	511.560E-3	-38.7846E-3
1.56328E-3	76.2822E-12	506.622E-3	-38.2250E-3	76.1239E-12	505.617E-3	-40.2320E-3
1.55828E-3	76.5588E-12	510.106E-3	-29.6457E-3	75.5767E-12	496.244E-3	-21.9230E-3
1.55328E-3	76.7085E-12	525.493E-3	-7.75133E-3	75.9845E-12	503.568E-3	-24.0605E-3
1.54827E-3	76.3812E-12	523.397E-3	18.9405E-3	75.8919E-12	520.531E-3	-29.6070E-3
1.54327E-3	76.4597E-12	508.241E-3	5.21494E-3	75.7569E-12	512.815E-3	-26.2390E-3
1.53827E-3	76.3315E-12	500.267E-3	-17.1489E-3	76.1321E-12	489.734E-3	-27.1637E-3
1.53327E-3	76.1722E-12	498.242E-3	-8.95704E-3	75.9062E-12	491.951E-3	-20.7275E-3
1.52826E-3	75.5075E-12	514.291E-3	-3.23472E-3	75.2231E-12	506.181E-3	626.552E-6
1.52326E-3	75.0598E-12	541.432E-3	-25.2865E-3	74.8595E-12	485.465E-3	7.31533E-3
1.51826E-3	74.4634E-12	536.050E-3	-56.2080E-3	74.6677E-12	459.544E-3	-6.14171E-3
1.51326E-3	73.8453E-12	513.750E-3	-60.9615E-3	73.6598E-12	460.884E-3	-8.21137E-3
1.50825E-3	73.2554E-12	506.866E-3	-45.9503E-3	73.1508E-12	471.765E-3	5.05685E-3
1.50325E-3	73.3275E-12	499.745E-3	-38.2786E-3	72.6423E-12	478.121E-3	7.64226E-3
1.49825E-3	72.9555E-12	489.510E-3	-37.7299E-3	72.5321E-12	472.539E-3	-6.02775E-3
1.49325E-3	73.1063E-12	488.376E-3	-37.7584E-3	72.0064E-12	460.424E-3	-19.7394E-3
1.48824E-3	72.8289E-12	473.117E-3	-35.8428E-3	71.8093E-12	461.870E-3	-27.9290E-3
1.48324E-3	72.6956E-12	451.793E-3	-27.5990E-3	72.2460E-12	482.185E-3	-30.7535E-3
1.47824E-3	72.7698E-12	465.243E-3	-17.2421E-3	72.4131E-12	493.747E-3	-27.4376E-3
1.47324E-3	72.8155E-12	487.103E-3	-4.74231E-3	72.7116E-12	494.232E-3	-19.7221E-3
1.46823E-3	72.5501E-12	478.772E-3	2.77155E-3	73.0713E-12	482.810E-3	-20.1126E-3
1.46323E-3	72.4992E-12	463.312E-3	-369.114E-6	73.6251E-12	467.843E-3	-30.7521E-3
1.45823E-3	72.9801E-12	468.418E-3	4.79547E-3	73.7680E-12	474.880E-3	-31.2730E-3
1.45323E-3	72.0794E-12	482.321E-3	13.9588E-3	74.3064E-12	479.572E-3	-22.7269E-3
1.44822E-3	72.2643E-12	492.740E-3	3.86519E-3	73.4587E-12	457.584E-3	-12.9931E-3
1.44322E-3	72.7420E-12	486.974E-3	-12.1164E-3	73.3292E-12	441.236E-3	-2.29796E-3
1.43822E-3	71.8251E-12	469.378E-3	-25.5218E-3	73.3411E-12	458.384E-3	592.739E-6
1.43322E-3	71.4504E-12	466.760E-3	-35.5771E-3	73.0651E-12	473.105E-3	6.29576E-3
1.42821E-3	71.6666E-12	464.360E-3	-33.9925E-3	72.2355E-12	459.008E-3	9.36182E-3
1.42321E-3	71.1816E-12	440.554E-3	-32.9946E-3	71.5821E-12	445.115E-3	-6.11721E-3
1.41821E-3	70.9104E-12	435.570E-3	-42.1865E-3	70.4874E-12	437.745E-3	-21.2527E-3
1.41321E-3	70.6823E-12	454.466E-3	-43.7105E-3	70.3778E-12	425.457E-3	-27.9066E-3
1.40820E-3	69.9633E-12	445.834E-3	-35.8581E-3	69.7795E-12	421.277E-3	-36.0785E-3
1.40320E-3	69.9018E-12	435.358E-3	-36.3028E-3	69.0882E-12	413.057E-3	-36.6338E-3
1.39820E-3	70.2177E-12	443.384E-3	-45.2497E-3	68.4172E-12	401.536E-3	-12.1426E-3
1.39320E-3	70.1258E-12	432.895E-3	-41.8966E-3	69.1036E-12	406.322E-3	5.63166E-3
1.38819E-3	69.6025E-12	415.809E-3	-21.6921E-3	69.5192E-12	406.584E-3	-10.8633E-3
1.38319E-3	69.1120E-12	412.101E-3	-12.8693E-3	69.3441E-12	399.831E-3	-10.6547E-3
1.37819E-3	70.0254E-12	409.337E-3	-18.7826E-3	69.9405E-12	394.853E-3	10.1797E-3
1.37319E-3	69.5859E-12	412.471E-3	-24.3372E-3	70.2346E-12	391.198E-3	966.344E-6
1.36818E-3	69.3228E-12	424.265E-3	-23.8538E-3	71.0739E-12	399.965E-3	-13.1742E-3
1.36318E-3	68.9197E-12	423.827E-3	-27.6282E-3	71.0537E-12	405.372E-3	-13.2720E-3
1.35818E-3	68.9045E-12	412.713E-3	-36.2683E-3	71.4157E-12	396.638E-3	-20.6421E-3
1.35318E-3	69.0437E-12	405.523E-3	-22.6701E-3	70.3820E-12	386.888E-3	-15.9112E-3
1.34817E-3	68.5841E-12	386.435E-3	-13.7282E-3	70.7183E-12	377.260E-3	-3.05430E-3
1.34317E-3	68.3727E-12	360.396E-3	-27.1958E-3	70.5614E-12	362.312E-3	-18.3086E-3
1.33817E-3	68.4592E-12	355.986E-3	-34.1961E-3	69.6666E-12	355.903E-3	-28.7078E-3
1.33317E-3	68.4558E-12	363.205E-3	-23.2703E-3	68.6794E-12	366.307E-3	-6.30028E-3
1.32816E-3	68.3394E-12	368.320E-3	-13.3707E-3	68.1807E-12	358.275E-3	8.36353E-3
1.32316E-3	68.5546E-12	381.216E-3	-10.7149E-3	67.9752E-12	334.833E-3	12.3125E-3
1.31816E-3	68.6182E-12	379.882E-3	-274.013E-6	67.3324E-12	322.468E-3	19.4424E-3
1.31316E-3	68.3028E-12	349.533E-3	-7.16003E-3	67.1692E-12	326.113E-3	9.27719E-3
1.30815E-3	68.3189E-12	330.949E-3	-23.7097E-3	66.5830E-12	330.977E-3	-6.88815E-3
1.30315E-3	67.9573E-12	331.116E-3	-16.8863E-3	66.8484E-12	320.476E-3	-12.5416E-3
1.29815E-3	67.8885E-12	329.965E-3	-16.4526E-3	66.8353E-12	319.435E-3	-20.6981E-3
1.29315E-3	67.8122E-12	333.762E-3	-25.9595E-3	67.1782E-12	331.335E-3	-34.9987E-3
1.28814E-3	67.6618E-12	340.296E-3	-17.4352E-3	67.6069E-12	338.095E-3	-27.2355E-3
1.28314E-3	67.4304E-12	335.994E-3	379.630E-6	68.2726E-12	334.998E-3	-4.20923E-3
1.27814E-3	67.2899E-12	332.688E-3	19.5332E-3	68.7886E-12	318.113E-3	1.35076E-3
1.27314E-3	66.5252E-12	343.291E-3	22.1960E-3	68.4321E-12	295.282E-3	-399.458E-6
1.26813E-3	66.4935E-12	332.255E-3	-8.29503E-3	68.8158E-12	279.965E-3	-434.230E-6
1.26313E-3	66.6488E-12	303.459E-3	-40.0560E-3	68.7293E-12	273.855E-3	-476.092E-6
1.25813E-3	66.4772E-12	288.290E-3	-42.9941E-3	68.3993E-12	276.878E-3	-1.77178E-3
1.25313E-3	66.3409E-12	284.490E-3	-21.7089E-3	67.6382E-12	278.090E-3	-4.84040E-3
1.24812E-3	66.7867E-12	286.629E-3	-4.44999E-3	67.3040E-12	256.390E-3	1.86013E-3
1.24312E-3	66.7066E-12	282.672E-3	-15.0539E-3	67.0284E-12	235.218E-3	11.2417E-3
1.23812E-3	67.0223E-12	274.789E-3	-39.5769E-3	66.4559E-12	243.435E-3	-5.58514E-3
1.23312E-3	67.0670E-12	270.593E-3	-46.5741E-3	66.1546E-12	259.931E-3	-35.9066E-3
1.22811E-3	67.1191E-12	267.283E-3	-37.7203E-3	65.5856E-12	250.425E-3	-33.1798E-3
1.22311E-3	67.2880E-12	267.146E-3	-28.4537E-3	65.4511E-12	236.793E-3	-6.30568E-3
1.21811E-3	67.7964E-12	274.033E-3	-16.6746E-3	65.4117E-12	234.458E-3	-868.670E-6
1.21311E-3	67.5039E-12	283.665E-3	-17.7633E-3	65.6325E-12	218.254E-3	-3.99453E-3
1.20810E-3	67.0583E-12	272.593E-3	-29.4947E-3	65.5789E-12	215.393E-3	19.7247E-3
1.20310E-3	66.8258E-12	242.249E-3	-29.3894E-3	66.0003E-12	233.626E-3	33.0737E-3
1.19810E-3	66.7956E-12	230.368E-3	-34.7951E-3	66.7111E-12	232.092E-3	10.5207E-3
1.19310E-3	66.0797E-12	231.080E-3	-40.9778E-3	66.6287E-12	215.771E-3	8.97978E-3
1.18809E-3	65.5277E-12	227.006E-3	-36.9022E-3	66.6437E-12	208.989E-3	16.7568E-3
1.18309E-3	65.1596E-12	236.820E-3	-41.5673E-3	66.9767E-12	204.518E-3	-5.01231E-3
1.17809E-3	64.9723E-12	240.033E-3	-40.8063E-3	67.0810E-12	200.143E-3	-13.1066E-3
1.17309E-3	65.1103E-12	218.708E-3	-29.2452E-3	66.6447E-12	211.872E-3	587.612E-6
1.16808E-3	64.7397E-12	209.302E-3	-19.0816E-3	66.6734E-12	224.524E-3	1.75774E-3
1.16308E-3	64.4550E-12	205.523E-3	-11.1848E-3	66.2061E-12	210.375E-3	-7.75278E-3
1.15808E-3	64.0406E-12	186.171E-3	-6.43938E-3	65.7985E-12	193.032E-3	-17.5894E-3
1.15308E-3	64.5936E-12	176.577E-3	-5.89318E-3	65.3490E-12	184.640E-3	-25.5482E-3
1.14807E-3	64.8064E-12	179.373E-3	-4.57425E-3	64.7854E-12	179.011E-3	-26.7263E-3
1.14307E-3	64.2740E-12	188.054E-3	-2.34820E-3	64.7111E-12	178.876E-3	-27.6092E-3
1.13807E-3	64.5991E-12	200.759E-3	-7.12334E-3	64.9826E-12	168.095E-3	-31.5727E-3
1.13307E-3	65.1287E-12	200.836E-3	-6.51143E-3	64.6786E-12	164.431E-3	-23.3542E-3
1.12806E-3	65.5280E-12	197.588E-3	1.59824E-3	64.6483E-12	178.663E-3	-15.1328E-3
1.12306E-3	65.3889E-12	203.757E-3	-1.60288E-3	64.8823E-12	179.473E-3	-20.8238E-3
1.11806E-3	65.7192E-12	203.377E-3	-12.5213E-3	65.0506E-12	164.296E-3	-17.0998E-3
1.11306E-3	65.3137E-12	188.724E-3	-19.5344E-3	65.5094E-12	148.902E-3	-17.1939E-3
1.10805E-3	65.2324E-12	167.338E-3	-26.5440E-3	65.6199E-12	136.908E-3	-26.0387E-3
1.10305E-3	65.3613E-12	151.658E-3	-29.6801E-3	65.3066E-12	138.602E-3	-25.6214E-3
1.09805E-3	65.0974E-12	152.425E-3	-33.5849E-3	65.3770E-12	154.574E-3	-10.4151E-3
1.09305E-3	64.3649E-12	165.868E-3	-45.2023E-3	65.2787E-12	155.082E-3	2.19713E-3
1.08804E-3	64.2692E-12	176.837E-3	-36.4995E-3	65.1486E-12	135.093E-3	-12.5699E-3
1.08304E-3	64.4446E-12	170.083E-3	-9.71037E-3	64.6254E-12	128.802E-3	-26.4389E-3
1.07804E-3	64.1083E-12	160.764E-3	-7.14502E-3	63.9046E-12	135.834E-3	-21.1230E-3
1.07304E-3	63.8062E-12	160.951E-3	-15.6105E-3	63.4073E-12	141.231E-3	-13.6891E-3
1.06803E-3	63.8347E-12	158.189E-3	-13.0433E-3	63.2286E-12	146.671E-3	-3.25031E-3
1.06303E-3	64.1073E-12	145.834E-3	-20.1741E-3	63.3077E-12	141.962E-3	-703.090E-6
1.05803E-3	63.9376E-12	133.161E-3	-23.3298E-3	63.1701E-12	140.834E-3	-8.25973E-3
1.05303E-3	63.5522E-12	138.788E-3	-7.68254E-3	63.0983E-12	148.695E-3	-3.85535E-3
1.04802E-3	63.8009E-12	151.233E-3	191.284E-6	63.0219E-12	149.917E-3	3.00943E-3
1.04302E-3	63.8834E-12	156.842E-3	-11.4252E-3	63.7619E-12	141.918E-3	-7.66921E-3
1.03802E-3	63.7487E-12	154.095E-3	-18.8935E-3	64.3549E-12	131.562E-3	-22.2470E-3
1.03302E-3	63.3914E-12	146.123E-3	-18.4293E-3	64.4787E-12	140.049E-3	-18.9583E-3
1.02801E-3	63.6039E-12	146.406E-3	-20.1721E-3	64.6820E-12	157.085E-3	-10.3199E-3
1.02301E-3	63.8860E-12	140.804E-3	-17.7236E-3	65.0700E-12	156.573E-3	-13.0548E-3
1.01801E-3	63.4296E-12	126.592E-3	-19.9317E-3	65.1361E-12	140.989E-3	-27.4660E-3
1.01301E-3	63.7946E-12	125.639E-3	-15.8438E-3	65.1934E-12	128.367E-3	-43.4997E-3
1.00800E-3	63.4592E-12	134.026E-3	-480.625E-6	64.8511E-12	145.015E-3	-42.4321E-3
1.00300E-3	63.5691E-12	142.014E-3	-4.26910E-3	64.3706E-12	179.792E-3	-29.5574E-3
997.999E-6	63.3193E-12	155.220E-3	-18.4708E-3	64.0388E-12	192.096E-3	-22.4327E-3
992.997E-6	63.2106E-12	172.393E-3	-26.5042E-3	63.1731E-12	185.441E-3	-17.7718E-3
987.994E-6	63.3453E-12	189.643E-3	-37.8738E-3	62.6886E-12	167.840E-3	-11.4250E-3
982.991E-6	63.1672E-12	202.499E-3	-48.8743E-3	62.0069E-12	155.618E-3	-13.2046E-3
977.989E-6	63.1781E-12	192.454E-3	-39.3339E-3	61.7426E-12	168.265E-3	-11.9475E-3
972.986E-6	63.5825E-12	169.695E-3	-12.1855E-3	61.4045E-12	189.682E-3	-2.08324E-3
967.984E-6	63.4285E-12	163.752E-3	4.25223E-3	61.4025E-12	200.526E-3	714.748E-6
962.981E-6	63.5291E-12	174.855E-3	3.67983E-3	61.3883E-12	189.335E-3	-5.04429E-3
957.979E-6	63.3174E-12	184.072E-3	-550.467E-6	61.6237E-12	183.121E-3	-13.0925E-3
952.976E-6	63.1642E-12	182.294E-3	-8.43735E-3	62.0699E-12	192.697E-3	-11.8852E-3
947.974E-6	63.4171E-12	179.003E-3	-17.0940E-3	62.4963E-12	198.942E-3	5.71208E-3
942.971E-6	62.7657E-12	190.412E-3	-27.0018E-3	63.2196E-12	212.185E-3	11.5349E-3
937.969E-6	62.4170E-12	213.082E-3	-29.1803E-3	63.8895E-12	227.751E-3	-14.3223E-3
932.966E-6	62.7129E-12	216.496E-3	-13.8693E-3	64.5342E-12	227.116E-3	-31.5163E-3
927.964E-6	62.3342E-12	196.547E-3	-4.54437E-3	64.1291E-12	219.628E-3	-12.6281E-3
922.961E-6	62.3569E-12	190.077E-3	-9.49024E-3	64.2485E-12	227.400E-3	-110.761E-6
917.959E-6	62.6117E-12	199.745E-3	-17.5980E-3	64.0209E-12	248.998E-3	-18.7634E-3
912.956E-6	62.3726E-12	204.443E-3	-31.3513E-3	63.8429E-12	261.880E-3	-43.3683E-3
907.954E-6	61.4859E-12	203.376E-3	-34.1918E-3	63.1084E-12	259.784E-3	-40.9669E-3
902.951E-6	62.5563E-12	209.245E-3	-15.9854E-3	62.3577E-12	252.520E-3	-20.3981E-3
897.949E-6	62.2338E-12	225.090E-3	-11.5248E-3	61.9772E-12	252.736E-3	-13.8617E-3
892.946E-6	62.1578E-12	238.855E-3	-18.8029E-3	60.8640E-12	258.269E-3	-11.8789E-3
887.944E-6	62.1231E-12	249.585E-3	-14.9286E-3	60.3342E-12	260.250E-3	-6.85715E-3
882.941E-6	62.4214E-12	257.086E-3	-19.1897E-3	60.1951E-12	274.835E-3	-5.30972E-3
877.939E-6	62.3176E-12	272.261E-3	-35.1482E-3	59.9984E-12	302.170E-3	-6.23644E-3
872.936E-6	61.9185E-12	292.212E-3	-36.1394E-3	59.9325E-12	326.571E-3	-8.12818E-3
867.934E-6	61.8510E-12	284.450E-3	-15.7028E-3	60.2801E-12	345.094E-3	-20.2904E-3
862.931E-6	61.5271E-12	275.717E-3	-8.51734E-3	60.7404E-12	355.593E-3	-36.3827E-3
857.929E-6	61.6137E-12	298.184E-3	-22.6917E-3	61.3695E-12	358.034E-3	-23.2269E-3
852.926E-6	61.0657E-12	314.428E-3	-19.1461E-3	62.0628E-12	364.579E-3	8.45568E-3
847.924E-6	60.5030E-12	315.630E-3	-14.8963E-3	62.1095E-12	376.354E-3	10.8996E-3
842.921E-6	59.9698E-12	331.561E-3	-25.3330E-3	62.6055E-12	386.868E-3	588.126E-6
837.919E-6	60.3468E-12	350.320E-3	-24.3675E-3	62.5562E-12	399.686E-3	-7.80883E-3
832.916E-6	60.3346E-12	351.553E-3	-28.5021E-3	62.8385E-12	413.996E-3	-39.3211E-3
827.914E-6	59.7141E-12	362.464E-3	-43.4243E-3	62.1495E-12	440.286E-3	-57.0530E-3
822.911E-6	59.6455E-12	388.652E-3	-32.4925E-3	61.4335E-12	473.796E-3	-35.1227E-3
817.909E-6	60.0057E-12	397.261E-3	-12.5834E-3	61.2603E-12	488.960E-3	-9.84684E-3
812.906E-6	60.2409E-12	401.017E-3	-14.8973E-3	60.7570E-12	490.703E-3	-8.12841E-3
807.904E-6	59.7581E-12	422.868E-3	-5.19544E-3	59.8306E-12	502.066E-3	-20.5310E-3
802.901E-6	60.1712E-12	437.290E-3	4.32204E-3	58.9763E-12	518.076E-3	-19.2322E-3
797.899E-6	59.9522E-12	447.986E-3	-17.6024E-3	58.5554E-12	526.512E-3	-9.91923E-3
792.896E-6	59.5200E-12	479.591E-3	-25.8503E-3	57.8049E-12	545.936E-3	-12.2414E-3
787.894E-6	59.7922E-12	500.999E-3	-12.4080E-3	57.9420E-12	583.249E-3	-19.9758E-3
782.891E-6	59.9941E-12	515.288E-3	-15.6542E-3	57.9068E-12	616.673E-3	-23.2458E-3
777.889E-6	59.1602E-12	538.142E-3	-18.1131E-3	58.2282E-12	637.542E-3	-11.5268E-3
772.886E-6	58.4652E-12	547.053E-3	-8.42491E-3	57.9501E-12	653.813E-3	4.43542E-3
767.884E-6	59.0984E-12	556.354E-3	-7.67571E-3	58.3218E-12	665.807E-3	-3.60358E-3
762.881E-6	58.5202E-12	576.287E-3	-7.64181E-3	59.1172E-12	676.147E-3	-17.1676E-3
757.879E-6	57.5510E-12	591.390E-3	-5.10387E-3	58.9880E-12	703.753E-3	-30.0647E-3
752.876E-6	57.3481E-12	606.426E-3	-27.6718E-3	58.9097E-12	733.972E-3	-43.1043E-3
747.874E-6	57.4682E-12	625.651E-3	-47.3543E-3	58.9171E-12	748.252E-3	-26.1839E-3
742.871E-6	57.2260E-12	639.854E-3	-29.3779E-3	58.9589E-12	765.931E-3	-8.80775E-3
737.869E-6	56.7732E-12	659.134E-3	-17.2892E-3	58.2504E-12	790.410E-3	-14.3348E-3
732.866E-6	56.6589E-12	687.890E-3	-21.7279E-3	57.2821E-12	815.225E-3	-18.8599E-3
727.864E-6	56.7908E-12	716.315E-3	-21.4913E-3	56.7878E-12	841.397E-3	-20.1097E-3
722.861E-6	56.5453E-12	743.553E-3	-22.9843E-3	56.6768E-12	864.206E-3	-15.8442E-3
717.859E-6	56.0053E-12	775.086E-3	-23.3618E-3	56.0547E-12	869.975E-3	-4.01982E-3
712.856E-6	56.0819E-12	813.276E-3	-17.8888E-3	55.2056E-12	877.565E-3	8.73823E-3
707.854E-6	55.6718E-12	837.851E-3	-7.72289E-3	54.7439E-12	916.244E-3	7.13346E-3
702.851E-6	55.4166E-12	851.094E-3	-10.0014E-3	54.4606E-12	963.016E-3	-12.6175E-3
697.849E-6	55.1382E-12	872.342E-3	-25.3985E-3	54.2350E-12	1.00085E+0	-26.8155E-3
692.846E-6	54.9574E-12	902.447E-3	-29.8006E-3	54.1263E-12	1.02585E+0	-31.7037E-3
687.844E-6	54.3021E-12	943.050E-3	-27.7289E-3	53.5639E-12	1.04590E+0	-30.5858E-3
682.841E-6	53.8847E-12	971.999E-3	-32.7675E-3	53.6790E-12	1.09002E+0	-24.8755E-3
677.839E-6	53.9118E-12	995.965E-3	-34.7979E-3	53.4697E-12	1.14256E+0	-27.7236E-3
672.836E-6	53.4875E-12	1.02750E+0	-31.4119E-3	53.5579E-12	1.16657E+0	-26.5573E-3
667.834E-6	53.2038E-12	1.04632E+0	-25.4122E-3	53.4508E-12	1.17648E+0	-13.3283E-3
662.831E-6	52.7506E-12	1.06599E+0	-21.8234E-3	53.0800E-12	1.19600E+0	-8.91188E-3
657.829E-6	52.1645E-12	1.09893E+0	-20.5226E-3	52.5990E-12	1.21575E+0	-13.3663E-3
652.826E-6	52.0354E-12	1.13908E+0	-13.2058E-3	52.0413E-12	1.23390E+0	-4.10847E-3
647.824E-6	52.0404E-12	1.17874E+0	-4.16965E-3	51.4496E-12	1.27170E+0	-1.19477E-3
642.821E-6	51.2020E-12	1.20786E+0	8.56572E-3	51.0188E-12	1.31570E+0	-13.3405E-3
637.819E-6	50.7828E-12	1.22406E+0	14.2592E-3	50.2447E-12	1.33280E+0	-14.1655E-3
632.816E-6	50.5838E-12	1.24038E+0	8.10020E-3	49.3866E-12	1.33053E+0	-11.3537E-3
627.814E-6	50.4777E-12	1.27006E+0	3.37823E-3	49.1502E-12	1.33617E+0	-12.3279E-3
622.811E-6	49.4076E-12	1.29554E+0	395.621E-6	48.9047E-12	1.36783E+0	-17.6450E-3
617.809E-6	48.9371E-12	1.31618E+0	-2.31696E-3	47.7473E-12	1.41577E+0	-24.0493E-3
612.806E-6	48.1412E-12	1.34325E+0	-6.62442E-3	47.6946E-12	1.46565E+0	-25.3193E-3
607.804E-6	47.8917E-12	1.37110E+0	-7.97330E-3	48.0166E-12	1.51647E+0	-23.4100E-3
602.801E-6	47.3715E-12	1.38708E+0	-12.8325E-3	48.1193E-12	1.55013E+0	-18.6200E-3
597.799E-6	46.5962E-12	1.40378E+0	-25.2684E-3	47.2935E-12	1.56733E+0	-14.8672E-3
592.796E-6	45.9677E-12	1.43936E+0	-18.0482E-3	47.1853E-12	1.58407E+0	-18.8068E-3
587.794E-6	45.6704E-12	1.46772E+0	-1.42988E-3	47.0014E-12	1.59979E+0	-26.5469E-3
582.791E-6	44.8620E-12	1.48178E+0	785.096E-6	46.6384E-12	1.61229E+0	-35.5496E-3
577.789E-6	44.1284E-12	1.49790E+0	-3.73629E-3	45.6975E-12	1.61367E+0	-38.8865E-3
572.786E-6	44.2817E-12	1.52324E+0	-15.9202E-3	44.8156E-12	1.61455E+0	-23.8728E-3
567.784E-6	43.5416E-12	1.55968E+0	-31.9911E-3	44.3883E-12	1.62439E+0	-12.6528E-3
562.781E-6	42.9415E-12	1.59358E+0	-34.2337E-3	43.3617E-12	1.62097E+0	-12.0479E-3
557.779E-6	42.4766E-12	1.60712E+0	-22.6603E-3	42.4446E-12	1.63102E+0	-5.47178E-3
552.776E-6	42.4635E-12	1.61316E+0	-14.0547E-3	41.3376E-12	1.66124E+0	-1.01372E-3
547.774E-6	41.8563E-12	1.64545E+0	-11.4160E-3	41.0410E-12	1.67634E+0	-7.92442E-3
542.771E-6	40.9407E-12	1.67265E+0	-14.1711E-3	40.3672E-12	1.70255E+0	-18.3858E-3
537.769E-6	40.4619E-12	1.66641E+0	-23.1402E-3	39.7930E-12	1.73567E+0	-25.1154E-3
532.766E-6	40.2953E-12	1.66541E+0	-27.3696E-3	39.2034E-12	1.74344E+0	-29.1745E-3
527.764E-6	39.6723E-12	1.67676E+0	-15.0521E-3	39.3207E-12	1.76082E+0	-27.0902E-3
522.761E-6	38.3673E-12	1.69609E+0	-3.29847E-3	38.6564E-12	1.80297E+0	-17.5884E-3
517.759E-6	38.0144E-12	1.72240E+0	-9.72380E-3	38.2138E-12	1.82520E+0	-3.87855E-3
512.756E-6	37.9272E-12	1.74138E+0	-24.2527E-3	38.2034E-12	1.82480E+0	-7.87261E-3
507.754E-6	37.1897E-12	1.74952E+0	-39.0149E-3	38.1828E-12	1.83640E+0	-29.4742E-3
502.751E-6	36.2600E-12	1.75815E+0	-33.2870E-3	37.2362E-12	1.85634E+0	-31.6111E-3
497.749E-6	35.8369E-12	1.78439E+0	-11.8486E-3	36.6337E-12	1.86177E+0	-13.6781E-3
492.746E-6	35.5004E-12	1.80441E+0	-15.5482E-3	36.2730E-12	1.84385E+0	-5.55896E-3
487.744E-6	34.8018E-12	1.79989E+0	-37.8974E-3	35.9326E-12	1.81826E+0	-10.4584E-3
482.741E-6	34.0269E-12	1.79625E+0	-33.4514E-3	34.7443E-12	1.80530E+0	-19.0055E-3
477.739E-6	33.4329E-12	1.79486E+0	-8.97178E-3	33.4656E-12	1.79646E+0	-25.5143E-3
472.736E-6	33.2874E-12	1.79237E+0	-8.29453E-3	32.8756E-12	1.78384E+0	-18.0748E-3
467.734E-6	32.3675E-12	1.80552E+0	-23.5227E-3	31.8238E-12	1.77474E+0	-4.95217E-3
462.731E-6	31.9382E-12	1.82614E+0	-30.7533E-3	30.7390E-12	1.77790E+0	-7.60403E-3
457.729E-6	31.4859E-12	1.84318E+0	-30.3675E-3	29.8641E-12	1.77985E+0	-19.8542E-3
452.726E-6	31.0756E-12	1.84751E+0	-15.5507E-3	29.3863E-12	1.77416E+0	-23.2040E-3
447.724E-6	30.2015E-12	1.83522E+0	-2.83390E-3	28.9671E-12	1.78651E+0	-9.99667E-3
442.721E-6	29.4029E-12	1.83529E+0	-6.01174E-3	28.0266E-12	1.80599E+0	5.91035E-3
437.719E-6	29.1112E-12	1.85813E+0	-13.9253E-3	27.7850E-12	1.81072E+0	3.92392E-3
432.716E-6	28.6597E-12	1.86371E+0	-25.1066E-3	27.7798E-12	1.82044E+0	-5.18128E-3
427.714E-6	27.4431E-12	1.85072E+0	-33.7378E-3	27.4649E-12	1.84264E+0	-10.1369E-3
422.711E-6	26.7319E-12	1.84460E+0	-30.5370E-3	26.9280E-12	1.85388E+0	-5.91968E-3
417.709E-6	26.6447E-12	1.83162E+0	-13.4519E-3	26.8165E-12	1.84018E+0	311.837E-6
412.706E-6	25.8972E-12	1.81330E+0	-3.27313E-3	26.6341E-12	1.82222E+0	-7.59431E-3
407.704E-6	25.0374E-12	1.79810E+0	-7.93433E-3	26.1881E-12	1.81582E+0	-16.5307E-3
402.701E-6	24.6314E-12	1.78148E+0	-10.1044E-3	25.4115E-12	1.80084E+0	-14.2866E-3
397.699E-6	24.3824E-12	1.77167E+0	-9.37941E-3	24.7590E-12	1.76345E+0	-10.7804E-3
392.696E-6	23.5420E-12	1.77384E+0	-17.5808E-3	24.2072E-12	1.71334E+0	-13.4347E-3
387.694E-6	22.9253E-12	1.77050E+0	-31.1225E-3	23.2570E-12	1.67503E+0	-19.6298E-3
382.691E-6	22.4308E-12	1.75178E+0	-41.0753E-3	22.1335E-12	1.65151E+0	-30.1558E-3
377.689E-6	21.9805E-12	1.73254E+0	-43.1795E-3	21.5016E-12	1.62559E+0	-39.6714E-3
372.686E-6	21.4314E-12	1.71926E+0	-32.2713E-3	21.0308E-12	1.59831E+0	-34.2790E-3
367.684E-6	20.6901E-12	1.70796E+0	-24.2408E-3	19.9950E-12	1.57345E+0	-17.5107E-3
362.681E-6	20.1696E-12	1.69589E+0	-24.2564E-3	19.0841E-12	1.54952E+0	-6.93453E-3
357.679E-6	19.6954E-12	1.68260E+0	-15.3081E-3	18.8731E-12	1.53389E+0	-9.77857E-3
352.676E-6	19.1390E-12	1.66111E+0	-8.70778E-3	18.5378E-12	1.53114E+0	-12.7657E-3
347.674E-6	18.4066E-12	1.63572E+0	-1.13665E-3	17.8729E-12	1.52879E+0	-1.04786E-3
342.671E-6	17.9309E-12	1.61736E+0	8.58700E-3	17.3666E-12	1.51263E+0	21.4865E-3
337.669E-6	17.5886E-12	1.59977E+0	-7.07952E-3	17.4225E-12	1.49198E+0	24.9863E-3
332.666E-6	16.8185E-12	1.58309E+0	-30.0158E-3	17.1594E-12	1.47469E+0	-1.37918E-3
327.664E-6	16.2245E-12	1.55735E+0	-20.8197E-3	16.5517E-12	1.46121E+0	-19.5132E-3
322.661E-6	15.8157E-12	1.52207E+0	-1.05593E-3	16.1314E-12	1.44927E+0	-12.9325E-3
317.659E-6	15.5269E-12	1.49985E+0	-8.95505E-3	16.0323E-12	1.41989E+0	-7.91479E-3
312.656E-6	14.8457E-12	1.48455E+0	-21.7687E-3	15.6206E-12	1.37410E+0	-15.2029E-3
307.654E-6	14.4077E-12	1.45150E+0	-19.9144E-3	14.8646E-12	1.34579E+0	-25.0737E-3
302.651E-6	14.1143E-12	1.41419E+0	-19.9507E-3	14.2051E-12	1.32956E+0	-37.0753E-3
297.649E-6	13.6663E-12	1.39581E+0	-15.7942E-3	13.9502E-12	1.28767E+0	-39.9552E-3
292.646E-6	13.0839E-12	1.37584E+0	-4.57115E-3	13.5277E-12	1.23757E+0	-28.1013E-3
287.644E-6	12.7779E-12	1.34188E+0	-4.25178E-3	12.7221E-12	1.19851E+0	-27.1270E-3
282.641E-6	12.4999E-12	1.31593E+0	-7.63074E-3	12.1443E-12	1.15957E+0	-38.8992E-3
277.639E-6	12.1031E-12	1.29983E+0	-5.84459E-3	11.8759E-12	1.13424E+0	-38.1298E-3
272.636E-6	11.4387E-12	1.27056E+0	-7.46524E-3	11.4680E-12	1.12326E+0	-24.9106E-3
267.634E-6	11.1487E-12	1.23559E+0	-10.0227E-3	10.7767E-12	1.09779E+0	-11.0465E-3
262.631E-6	10.9026E-12	1.21212E+0	-12.9322E-3	10.5301E-12	1.06608E+0	-2.64917E-3
257.629E-6	10.4507E-12	1.19427E+0	-18.9631E-3	10.2436E-12	1.05514E+0	-7.58448E-3
252.626E-6	9.95261E-12	1.16439E+0	-25.9804E-3	9.92856E-12	1.04889E+0	-13.3389E-3
247.624E-6	9.70370E-12	1.12404E+0	-23.1557E-3	9.53593E-12	1.02305E+0	-11.8418E-3
242.621E-6	9.56626E-12	1.09720E+0	-9.47443E-3	9.52213E-12	985.914E-3	-8.42937E-3
237.619E-6	9.19891E-12	1.08477E+0	-7.22367E-3	9.32164E-12	949.329E-3	-2.82536E-3
232.616E-6	8.69532E-12	1.06446E+0	-18.5459E-3	8.86412E-12	906.496E-3	-7.61951E-3
227.614E-6	8.33607E-12	1.02908E+0	-24.6198E-3	8.34943E-12	874.162E-3	-18.8692E-3
222.611E-6	8.06579E-12	993.776E-3	-17.5692E-3	8.11460E-12	862.802E-3	-18.7501E-3
217.609E-6	7.70028E-12	968.920E-3	-5.37245E-3	7.86993E-12	848.883E-3	-9.98952E-3
212.606E-6	7.33853E-12	942.985E-3	37.1272E-6	7.44073E-12	816.553E-3	-7.22955E-3
207.604E-6	7.13437E-12	908.079E-3	-10.1108E-3	7.03523E-12	770.005E-3	-13.4530E-3
202.601E-6	6.87274E-12	880.164E-3	-17.8867E-3	6.84485E-12	745.032E-3	-17.7962E-3
197.599E-6	6.51536E-12	860.378E-3	-11.8767E-3	6.66141E-12	742.672E-3	-12.9437E-3
192.596E-6	6.25356E-12	842.112E-3	-9.97383E-3	6.24288E-12	724.606E-3	-5.92148E-3
187.594E-6	6.13467E-12	822.974E-3	-13.9619E-3	5.89662E-12	693.653E-3	1.26131E-3
182.591E-6	5.87702E-12	796.511E-3	-17.3797E-3	5.80523E-12	675.212E-3	-275.460E-6
177.589E-6	5.48970E-12	773.028E-3	-20.8600E-3	5.55883E-12	659.427E-3	-16.8472E-3
172.586E-6	5.27130E-12	756.238E-3	-17.2758E-3	5.32675E-12	635.449E-3	-22.4436E-3
167.584E-6	5.19781E-12	732.842E-3	-9.23071E-3	5.03120E-12	615.349E-3	-7.01753E-3
162.581E-6	4.94648E-12	699.780E-3	-6.62242E-3	4.97421E-12	593.624E-3	2.32171E-3
157.579E-6	4.60661E-12	671.320E-3	-2.13873E-3	4.76459E-12	566.453E-3	-4.37716E-3
152.576E-6	4.47741E-12	644.920E-3	7.07063E-3	4.46039E-12	546.066E-3	-12.7504E-3
147.574E-6	4.36869E-12	613.198E-3	7.66463E-3	4.21631E-12	531.615E-3	-18.3644E-3
142.571E-6	4.15473E-12	596.163E-3	-4.45296E-3	4.19642E-12	516.706E-3	-16.9726E-3
137.569E-6	3.85139E-12	588.436E-3	-11.0112E-3	3.96969E-12	502.458E-3	-12.5264E-3
132.566E-6	3.70052E-12	569.211E-3	-11.5780E-3	3.59096E-12	487.507E-3	-27.7507E-3
127.564E-6	3.51432E-12	550.291E-3	-7.67295E-3	3.46611E-12	476.422E-3	-43.3937E-3
122.561E-6	3.29221E-12	540.061E-3	2.81477E-3	3.30826E-12	470.012E-3	-29.5215E-3
117.559E-6	3.09258E-12	532.654E-3	5.56637E-3	3.14346E-12	454.683E-3	-9.14584E-3
112.556E-6	2.95114E-12	507.737E-3	2.67407E-3	2.82766E-12	429.716E-3	1.74543E-3
107.554E-6	2.82115E-12	475.800E-3	-1.15234E-3	2.72353E-12	411.268E-3	2.04603E-3
102.551E-6	2.62060E-12	462.990E-3	-10.8797E-3	2.67317E-12	400.005E-3	-4.15542E-3
97.5488E-6	2.45332E-12	455.769E-3	-26.2614E-3	2.47628E-12	394.442E-3	-2.89343E-3
92.5463E-6	2.38780E-12	457.390E-3	-31.1765E-3	2.29804E-12	399.305E-3	-3.02094E-3
87.5438E-6	2.25264E-12	462.728E-3	-18.3008E-3	2.20168E-12	400.385E-3	-12.6219E-3
82.5413E-6	2.04639E-12	451.525E-3	-3.60277E-3	2.13625E-12	391.715E-3	-18.2105E-3
77.5388E-6	1.85710E-12	436.356E-3	3.01205E-3	1.97421E-12	386.845E-3	-14.9298E-3
72.5363E-6	1.78649E-12	420.219E-3	-7.17549E-3	1.71053E-12	388.160E-3	-17.4833E-3
67.5338E-6	1.66876E-12	404.056E-3	-23.3080E-3	1.67695E-12	384.230E-3	-20.3609E-3
62.5313E-6	1.48518E-12	403.922E-3	-28.5823E-3	1.60547E-12	379.589E-3	-9.70667E-3
57.5288E-6	1.38855E-12	392.610E-3	-29.6630E-3	1.39126E-12	382.482E-3	-4.26188E-3
52.5263E-6	1.32610E-12	359.731E-3	-30.4646E-3	1.13414E-12	376.421E-3	-8.56819E-3
47.5238E-6	1.15004E-12	350.089E-3	-25.4276E-3	1.15483E-12	366.125E-3	-6.70708E-3
42.5213E-6	950.725E-15	371.307E-3	-12.5647E-3	1.09322E-12	364.439E-3	100.202E-6
37.5188E-6	916.153E-15	390.322E-3	-163.644E-6	841.734E-15	352.101E-3	4.74889E-3
32.5163E-6	819.290E-15	385.367E-3	2.13170E-3	662.142E-15	339.104E-3	5.99777E-3
27.5138E-6	682.179E-15	374.005E-3	-5.98627E-3	653.711E-15	349.348E-3	-937.700E-6
22.5113E-6	436.103E-15	368.158E-3	-18.4037E-3	529.835E-15	360.138E-3	-9.45924E-3
17.5088E-6	367.194E-15	360.749E-3	-16.7183E-3	268.962E-15	360.732E-3	-5.08169E-3
12.5063E-6	286.915E-15	364.566E-3	-12.2311E-3	143.125E-15	369.340E-3	5.05427E-3
7.50375E-6	119.339E-15	369.753E-3	-26.0515E-3	172.239E-15	380.173E-3	7.74200E-3
2.50125E-6	-55.6313E-15	354.918E-3	-34.3995E-3	19.5030E-15	381.438E-3	7.16253E-3
-2.50125E-6	-139.930E-15	344.519E-3	-22.2099E-3	-228.125E-15	388.291E-3	-6.86046E-3
-7.50375E-6	-243.088E-15	355.569E-3	-6.18991E-3	-357.005E-15	406.869E-3	-32.2682E-3
-12.5063E-6	-395.187E-15	368.141E-3	-3.41643E-3	-340.665E-15	421.057E-3	-31.6907E-3
-17.5088E-6	-542.317E-15	369.149E-3	-4.69665E-3	-510.474E-15	436.702E-3	-14.2698E-3
-22.5113E-6	-619.718E-15	359.855E-3	-6.79347E-3	-789.823E-15	450.744E-3	-14.8024E-3
-27.5138E-6	-781.243E-15	351.785E-3	-11.6473E-3	-866.597E-15	451.182E-3	-19.3278E-3
-32.5163E-6	-979.459E-15	362.759E-3	-10.5211E-3	-950.110E-15	460.901E-3	-14.4944E-3
-37.5188E-6	-1.06737E-12	383.078E-3	-3.19638E-3	-1.13527E-12	468.683E-3	-12.4398E-3
-42.5213E-6	-1.15991E-12	402.888E-3	-3.23012E-3	-1.38405E-12	463.388E-3	-19.3762E-3
-47.5238E-6	-1.38914E-12	419.695E-3	-13.9249E-3	-1.46745E-12	475.217E-3	-20.6452E-3
-52.5263E-6	-1.54504E-12	430.723E-3	-15.2459E-3	-1.50949E-12	498.431E-3	-14.8697E-3
-57.5288E-6	-1.69889E-12	446.693E-3	-10.9255E-3	-1.72120E-12	510.221E-3	-8.76431E-3
-62.5313E-6	-1.81822E-12	463.851E-3	-9.65772E-3	-1.94646E-12	512.983E-3	3.84093E-3
-67.5338E-6	-2.03598E-12	471.171E-3	-12.5444E-3	-2.05535E-12	529.368E-3	5.32981E-3
-72.5363E-6	-2.25359E-12	480.362E-3	-24.1993E-3	-2.10614E-12	554.758E-3	-8.12538E-3
-77.5388E-6	-2.43646E-12	505.691E-3	-30.6618E-3	-2.40086E-12	580.138E-3	-18.8014E-3
-82.5413E-6	-2.51442E-12	535.226E-3	-23.5311E-3	-2.67046E-12	618.956E-3	-18.0386E-3
-87.5438E-6	-2.73480E-12	553.799E-3	-19.8064E-3	-2.76266E-12	650.707E-3	-12.8381E-3
-92.5463E-6	-3.02020E-12	570.427E-3	-20.9008E-3	-2.88833E-12	665.832E-3	-24.9406E-3
-97.5488E-6	-3.23039E-12	590.920E-3	-20.1817E-3	-3.32038E-12	690.806E-3	-45.3742E-3
-102.551E-6	-3.31982E-12	608.197E-3	-23.2017E-3	-3.62183E-12	720.931E-3	-37.8239E-3
-107.554E-6	-3.55993E-12	626.818E-3	-25.2213E-3	-3.67724E-12	741.963E-3	-9.55271E-3
-112.556E-6	-3.83872E-12	640.529E-3	-17.0340E-3	-3.90947E-12	759.205E-3	-58.4977E-6
-117.559E-6	-4.09636E-12	656.300E-3	-3.22800E-3	-4.29594E-12	782.856E-3	-14.4247E-3
-122.561E-6	-4.28200E-12	689.184E-3	-1.23628E-3	-4.61122E-12	812.880E-3	-27.8613E-3
-127.564E-6	-4.51295E-12	720.104E-3	-8.88511E-3	-4.68874E-12	837.317E-3	-28.3614E-3
-132.566E-6	-4.90023E-12	735.988E-3	-10.2030E-3	-4.96970E-12	861.996E-3	-35.7560E-3
-137.569E-6	-5.20758E-12	751.643E-3	-6.06764E-3	-5.34521E-12	896.220E-3	-43.7818E-3
-142.571E-6	-5.48127E-12	790.164E-3	-5.69979E-3	-5.59584E-12	928.830E-3	-44.6637E-3
-147.574E-6	-5.75436E-12	837.448E-3	-16.1133E-3	-5.68018E-12	960.213E-3	-48.1279E-3
-152.576E-6	-5.99038E-12	863.461E-3	-27.3449E-3	-5.95771E-12	1.00307E+0	-46.5323E-3
-157.579E-6	-6.35422E-12	882.685E-3	-25.5388E-3	-6.32039E-12	1.05434E+0	-34.0856E-3
-162.581E-6	-6.69053E-12	914.634E-3	-17.4764E-3	-6.61845E-12	1.09820E+0	-13.6321E-3
-167.584E-6	-7.10247E-12	951.998E-3	-15.1413E-3	-6.91045E-12	1.13213E+0	-484.907E-6
-172.586E-6	-7.46076E-12	985.470E-3	-18.4545E-3	-7.43095E-12	1.17779E+0	-6.90244E-3
-177.589E-6	-7.84047E-12	1.02223E+0	-18.1187E-3	-8.01566E-12	1.24330E+0	-12.6327E-3
-182.591E-6	-8.27143E-12	1.06737E+0	-18.3999E-3	-8.26147E-12	1.30808E+0	-7.95595E-3
-187.594E-6	-8.63032E-12	1.11694E+0	-13.8162E-3	-8.69438E-12	1.36249E+0	-6.56417E-3
-192.596E-6	-8.95355E-12	1.16506E+0	1.58560E-3	-9.28977E-12	1.40732E+0	-17.0800E-3
-197.599E-6	-9.29969E-12	1.20261E+0	2.62209E-3	-9.95368E-12	1.45169E+0	-31.9799E-3
-202.601E-6	-9.83754E-12	1.23430E+0	-9.04184E-3	-10.1862E-12	1.50695E+0	-39.3551E-3
-207.604E-6	-10.2862E-12	1.27102E+0	-13.8554E-3	-10.5157E-12	1.55740E+0	-44.0329E-3
-212.606E-6	-10.6778E-12	1.30880E+0	-11.8818E-3	-11.3017E-12	1.59805E+0	-37.4209E-3
-217.609E-6	-11.1510E-12	1.35076E+0	-11.9233E-3	-11.9439E-12	1.64447E+0	-18.8404E-3
-222.611E-6	-11.6883E-12	1.40128E+0	-15.2295E-3	-12.1154E-12	1.67792E+0	367.745E-6
-227.614E-6	-12.3750E-12	1.44973E+0	-14.3575E-3	-12.4533E-12	1.69940E+0	9.84238E-3
-232.616E-6	-12.8543E-12	1.50394E+0	-12.7406E-3	-13.1877E-12	1.73739E+0	2.45740E-3
-237.619E-6	-13.3806E-12	1.56155E+0	-2.09544E-3	-13.6463E-12	1.77809E+0	-11.2490E-3
-242.621E-6	-13.8780E-12	1.61092E+0	6.58017E-3	-14.0019E-12	1.81507E+0	-20.5136E-3
-247.624E-6	-14.5379E-12	1.66717E+0	-10.7326E-3	-14.3498E-12	1.87570E+0	-20.6459E-3
-252.626E-6	-15.1139E-12	1.72287E+0	-22.4576E-3	-15.1089E-12	1.96101E+0	-19.7641E-3
-257.629E-6	-15.7475E-12	1.76546E+0	-17.9721E-3	-15.7605E-12	2.04084E+0	-24.4620E-3
-262.631E-6	-16.3575E-12	1.81166E+0	-24.9338E-3	-16.3656E-12	2.10032E+0	-28.6998E-3
-267.634E-6	-17.1178E-12	1.87068E+0	-36.8604E-3	-17.0829E-12	2.14820E+0	-27.5897E-3
-272.636E-6	-18.0023E-12	1.93479E+0	-39.6450E-3	-18.0537E-12	2.21387E+0	-12.8224E-3
-277.639E-6	-18.5419E-12	1.99916E+0	-35.7485E-3	-18.7524E-12	2.30206E+0	5.17683E-3
-282.641E-6	-19.1704E-12	2.05801E+0	-24.1023E-3	-19.4497E-12	2.37969E+0	-3.53713E-3
-287.644E-6	-20.0010E-12	2.11387E+0	-8.27045E-3	-20.4828E-12	2.43532E+0	-16.3873E-3
-292.646E-6	-20.6819E-12	2.17568E+0	-4.12884E-3	-21.4452E-12	2.47546E+0	-8.13050E-3
-297.649E-6	-21.5075E-12	2.23365E+0	-17.0795E-3	-22.2981E-12	2.51257E+0	-10.1398E-3
-302.651E-6	-22.1842E-12	2.28378E+0	-17.4182E-3	-22.7687E-12	2.55023E+0	-16.1859E-3
-307.654E-6	-23.1894E-12	2.32899E+0	-7.86544E-3	-23.7635E-12	2.58133E+0	-9.43502E-3
-312.656E-6	-23.9029E-12	2.37376E+0	-22.1213E-3	-24.6157E-12	2.61889E+0	-11.0942E-3
-317.659E-6	-24.5876E-12	2.42777E+0	-34.7801E-3	-25.2374E-12	2.67545E+0	-21.1763E-3
-322.661E-6	-25.2206E-12	2.47916E+0	-31.3489E-3	-25.6392E-12	2.72051E+0	-18.8137E-3
-327.664E-6	-26.3753E-12	2.52103E+0	-34.0341E-3	-26.6498E-12	2.76198E+0	-10.4860E-3
-332.666E-6	-26.9795E-12	2.56279E+0	-24.8419E-3	-27.7093E-12	2.81454E+0	-12.9094E-3
-337.669E-6	-27.7195E-12	2.61377E+0	-2.56276E-3	-28.3964E-12	2.85061E+0	-26.3205E-3
-342.671E-6	-28.8501E-12	2.66894E+0	-8.18997E-3	-29.1160E-12	2.88782E+0	-33.6627E-3
-347.674E-6	-29.7622E-12	2.71347E+0	-31.8590E-3	-30.1662E-12	2.94219E+0	-38.6192E-3
-352.676E-6	-30.5517E-12	2.75308E+0	-33.8128E-3	-31.1244E-12	2.99765E+0	-47.3085E-3
-357.679E-6	-31.1259E-12	2.79835E+0	-19.9589E-3	-31.7843E-12	3.03917E+0	-50.2274E-3
-362.681E-6	-32.6863E-12	2.83836E+0	-11.1354E-3	-32.8506E-12	3.06077E+0	-47.1741E-3
-367.684E-6	-33.8298E-12	2.87406E+0	-7.33384E-3	-33.9871E-12	3.08270E+0	-38.6454E-3
-372.686E-6	-34.8398E-12	2.93262E+0	-6.87612E-3	-35.2983E-12	3.12908E+0	-29.1300E-3
-377.689E-6	-35.9927E-12	2.99437E+0	-19.3686E-3	-36.2819E-12	3.17137E+0	-21.7138E-3
-382.691E-6	-37.5867E-12	3.03554E+0	-30.5427E-3	-36.9996E-12	3.18956E+0	-16.5489E-3
-387.694E-6	-38.7572E-12	3.08236E+0	-22.5124E-3	-38.2333E-12	3.20771E+0	-9.52648E-3
-392.696E-6	-39.5582E-12	3.13761E+0	-19.5352E-3	-39.2497E-12	3.22144E+0	-12.0254E-3
-397.699E-6	-40.4249E-12	3.18162E+0	-26.2862E-3	-39.8286E-12	3.22942E+0	-23.1743E-3
-402.701E-6	-41.7307E-12	3.20395E+0	-24.3845E-3	-40.8666E-12	3.24841E+0	-30.1020E-3
-407.704E-6	-42.8017E-12	3.22130E+0	-20.4056E-3	-42.0584E-12	3.28385E+0	-28.1334E-3
-412.706E-6	-43.4613E-12	3.26239E+0	-15.7844E-3	-42.8545E-12	3.31473E+0	-14.4500E-3
-417.709E-6	-44.5475E-12	3.31570E+0	-16.6415E-3	-43.9314E-12	3.32921E+0	1.44908E-3
-422.711E-6	-45.5550E-12	3.34573E+0	-27.8627E-3	-45.3279E-12	3.36219E+0	-5.03040E-3
-427.714E-6	-46.6642E-12	3.34571E+0	-31.0036E-3	-46.7942E-12	3.41647E+0	-22.9628E-3
-432.716E-6	-47.3551E-12	3.34160E+0	-26.2180E-3	-47.8729E-12	3.45403E+0	-16.6925E-3
-437.719E-6	-48.1815E-12	3.34409E+0	-23.8921E-3	-49.0985E-12	3.47313E+0	-571.280E-6
-442.721E-6	-49.0494E-12	3.35110E+0	-31.0737E-3	-50.4604E-12	3.47589E+0	1.14729E-3
-447.724E-6	-50.2317E-12	3.35854E+0	-38.4688E-3	-52.1007E-12	3.47167E+0	-54.7312E-6
-452.726E-6	-51.2651E-12	3.35132E+0	-25.5128E-3	-53.1731E-12	3.46897E+0	-6.47878E-3
-457.729E-6	-52.5374E-12	3.34962E+0	-17.3309E-3	-53.7343E-12	3.45821E+0	-30.5188E-3
-462.731E-6	-53.5262E-12	3.37355E+0	-31.8194E-3	-55.0977E-12	3.43125E+0	-47.6086E-3
-467.734E-6	-54.6770E-12	3.38060E+0	-38.6639E-3	-56.2578E-12	3.38503E+0	-40.8180E-3
-472.736E-6	-56.2550E-12	3.36945E+0	-32.5006E-3	-57.3033E-12	3.34815E+0	-30.3506E-3
-477.739E-6	-57.7185E-12	3.38128E+0	-21.7707E-3	-57.8722E-12	3.32536E+0	-21.7673E-3
-482.741E-6	-58.7517E-12	3.39717E+0	-13.6513E-3	-58.4118E-12	3.30300E+0	-10.6019E-3
-487.744E-6	-59.6942E-12	3.39852E+0	-9.65342E-3	-59.4047E-12	3.29362E+0	-15.0049E-3
-492.746E-6	-61.3075E-12	3.39714E+0	-15.7296E-3	-60.2756E-12	3.28724E+0	-29.5540E-3
-497.749E-6	-62.6646E-12	3.39329E+0	-36.5673E-3	-61.2647E-12	3.27882E+0	-36.8486E-3
-502.751E-6	-63.6986E-12	3.38274E+0	-42.7898E-3	-62.2542E-12	3.28311E+0	-36.5474E-3
-507.754E-6	-64.2753E-12	3.36509E+0	-36.6047E-3	-63.3521E-12	3.29389E+0	-30.4444E-3
-512.756E-6	-65.6165E-12	3.35223E+0	-34.2459E-3	-64.8346E-12	3.29344E+0	-24.7791E-3
-517.759E-6	-66.5650E-12	3.35342E+0	-31.7276E-3	-66.2873E-12	3.27796E+0	-28.1703E-3
-522.761E-6	-67.3870E-12	3.35212E+0	-36.0848E-3	-68.2193E-12	3.25513E+0	-28.8075E-3
-527.764E-6	-68.1670E-12	3.33173E+0	-45.1380E-3	-69.2790E-12	3.24006E+0	-17.3721E-3
-532.766E-6	-68.9414E-12	3.29174E+0	-45.8213E-3	-71.2125E-12	3.23139E+0	-12.2584E-3
-537.769E-6	-69.9097E-12	3.23806E+0	-44.7991E-3	-72.6093E-12	3.22186E+0	-23.0449E-3
-542.771E-6	-70.8025E-12	3.19738E+0	-40.0019E-3	-74.5419E-12	3.21157E+0	-27.9190E-3
-547.774E-6	-71.9132E-12	3.18056E+0	-25.6198E-3	-74.8918E-12	3.16884E+0	-15.5037E-3
-552.776E-6	-72.6046E-12	3.16460E+0	-23.0619E-3	-75.7376E-12	3.10163E+0	-2.10315E-3
-557.779E-6	-73.0819E-12	3.14306E+0	-38.5765E-3	-76.2775E-12	3.04132E+0	-4.23917E-3
-562.781E-6	-75.0033E-12	3.11385E+0	-43.4661E-3	-77.4501E-12	2.96636E+0	31.7299E-6
-567.784E-6	-76.4214E-12	3.07649E+0	-24.1551E-3	-77.9918E-12	2.87717E+0	14.2810E-3
-572.786E-6	-78.0785E-12	3.04327E+0	-17.8619E-3	-78.6278E-12	2.81078E+0	3.76089E-3
-577.789E-6	-78.2357E-12	3.00296E+0	-42.5155E-3	-78.4749E-12	2.75890E+0	-6.43146E-3
-582.791E-6	-80.0767E-12	2.95137E+0	-55.8924E-3	-78.5958E-12	2.70498E+0	851.955E-6
-587.794E-6	-80.8331E-12	2.90142E+0	-39.0040E-3	-78.6712E-12	2.66244E+0	4.78255E-3
-592.796E-6	-82.6346E-12	2.85573E+0	-19.3496E-3	-79.7270E-12	2.63671E+0	2.90109E-3
-597.799E-6	-82.7839E-12	2.83044E+0	-17.4376E-3	-80.3903E-12	2.61621E+0	-4.15029E-3
-602.801E-6	-84.0187E-12	2.82317E+0	-26.4086E-3	-81.4371E-12	2.59602E+0	-15.5510E-3
-607.804E-6	-85.0333E-12	2.79506E+0	-36.9116E-3	-82.8967E-12	2.56665E+0	-31.9938E-3
-612.806E-6	-85.6987E-12	2.74771E+0	-40.3747E-3	-85.4778E-12	2.52375E+0	-42.6873E-3
-617.809E-6	-86.6176E-12	2.71115E+0	-28.1639E-3	-86.5924E-12	2.48705E+0	-50.0017E-3
-622.811E-6	-87.2691E-12	2.66741E+0	-6.08274E-3	-88.3022E-12	2.46294E+0	-52.3628E-3
-627.814E-6	-88.4241E-12	2.60398E+0	2.19320E-3	-89.2079E-12	2.44234E+0	-35.5653E-3
-632.816E-6	-89.2519E-12	2.55102E+0	-6.83060E-3	-91.1444E-12	2.40726E+0	-21.6917E-3
-637.819E-6	-89.7499E-12	2.50833E+0	-6.35112E-3	-92.6919E-12	2.34718E+0	-27.6593E-3
-642.821E-6	-90.6219E-12	2.46485E+0	-7.00971E-3	-93.7417E-12	2.27947E+0	-26.8164E-3
-647.824E-6	-91.3900E-12	2.42559E+0	-15.8472E-3	-93.2623E-12	2.22158E+0	-14.7138E-3
-652.826E-6	-92.4407E-12	2.38209E+0	-11.1508E-3	-93.8924E-12	2.16674E+0	-21.2348E-3
-657.829E-6	-92.8994E-12	2.32554E+0	-2.69460E-3	-93.9936E-12	2.09227E+0	-32.1385E-3
-662.831E-6	-93.4541E-12	2.26914E+0	-1.20340E-3	-94.2597E-12	2.00228E+0	-13.7177E-3
-667.834E-6	-94.5966E-12	2.22574E+0	5.67298E-3	-94.4681E-12	1.93908E+0	11.6787E-3
-672.836E-6	-95.4537E-12	2.17671E+0	10.8522E-3	-94.2807E-12	1.89511E+0	3.85591E-3
-677.839E-6	-95.8069E-12	2.12672E+0	-5.31709E-3	-94.4191E-12	1.84911E+0	-12.1622E-3
-682.841E-6	-96.5642E-12	2.08265E+0	-11.0822E-3	-94.4524E-12	1.82449E+0	-20.9081E-3
-687.844E-6	-97.4564E-12	2.01819E+0	-2.63394E-3	-94.7756E-12	1.79771E+0	-37.0472E-3
-692.846E-6	-97.7692E-12	1.95631E+0	-22.9942E-3	-95.3573E-12	1.73143E+0	-39.9688E-3
-697.849E-6	-98.3744E-12	1.92049E+0	-45.8485E-3	-96.1931E-12	1.66793E+0	-20.9916E-3
-702.851E-6	-98.5382E-12	1.88024E+0	-33.7560E-3	-97.5517E-12	1.64246E+0	-17.7014E-3
-707.854E-6	-98.9521E-12	1.83072E+0	-16.3793E-3	-97.9489E-12	1.62097E+0	-34.9900E-3
-712.856E-6	-99.3216E-12	1.78322E+0	-16.2443E-3	-99.3909E-12	1.57819E+0	-30.8502E-3
-717.859E-6	-100.584E-12	1.72652E+0	-12.2767E-3	-100.800E-12	1.53091E+0	-23.0844E-3
-722.861E-6	-101.101E-12	1.67403E+0	3.46075E-3	-102.278E-12	1.49426E+0	-27.4213E-3
-727.864E-6	-101.120E-12	1.64069E+0	7.01831E-3	-103.193E-12	1.47232E+0	-25.7350E-3
-732.866E-6	-101.835E-12	1.60475E+0	481.645E-6	-104.172E-12	1.44994E+0	-8.26986E-3
-737.869E-6	-102.730E-12	1.54861E+0	-8.42057E-3	-104.156E-12	1.38705E+0	6.79772E-3
-742.871E-6	-103.118E-12	1.48733E+0	-14.5007E-3	-104.531E-12	1.30394E+0	-5.96321E-3
-747.874E-6	-103.362E-12	1.44392E+0	-2.78353E-3	-105.726E-12	1.23919E+0	-36.1552E-3
-752.876E-6	-103.779E-12	1.40320E+0	6.96378E-3	-105.011E-12	1.18874E+0	-48.4406E-3
-757.879E-6	-104.367E-12	1.35703E+0	-10.3457E-3	-104.765E-12	1.15828E+0	-40.1559E-3
-762.881E-6	-104.539E-12	1.32820E+0	-31.6261E-3	-104.530E-12	1.13165E+0	-38.8748E-3
-767.884E-6	-105.428E-12	1.30430E+0	-37.2937E-3	-105.105E-12	1.08508E+0	-34.7258E-3
-772.886E-6	-105.008E-12	1.25676E+0	-40.8562E-3	-105.483E-12	1.04312E+0	-12.1369E-3
-777.889E-6	-105.339E-12	1.20054E+0	-35.5935E-3	-105.334E-12	1.01906E+0	8.88450E-3
-782.891E-6	-106.582E-12	1.15746E+0	-25.1801E-3	-105.973E-12	1.00078E+0	4.55459E-3
-787.894E-6	-107.234E-12	1.12200E+0	-35.1798E-3	-106.269E-12	978.600E-3	-5.23478E-3
-792.896E-6	-106.953E-12	1.09153E+0	-39.9713E-3	-107.550E-12	947.356E-3	-14.2818E-3
-797.899E-6	-107.498E-12	1.05752E+0	-14.4510E-3	-107.799E-12	910.847E-3	-18.9584E-3
-802.901E-6	-108.003E-12	1.01746E+0	-7.33208E-3	-107.886E-12	878.149E-3	-15.7603E-3
-807.904E-6	-108.928E-12	976.226E-3	-18.0381E-3	-108.935E-12	857.774E-3	-27.7309E-3
-812.906E-6	-109.166E-12	943.604E-3	-6.13216E-3	-110.271E-12	832.826E-3	-38.6546E-3
-817.909E-6	-109.630E-12	915.774E-3	-6.45865E-3	-109.965E-12	788.340E-3	-33.5143E-3
-822.911E-6	-109.781E-12	887.947E-3	-22.8529E-3	-110.079E-12	758.727E-3	-20.2099E-3
-827.914E-6	-110.530E-12	859.545E-3	-28.5493E-3	-110.232E-12	731.761E-3	-14.2751E-3
-832.916E-6	-110.877E-12	812.554E-3	-32.4397E-3	-110.683E-12	688.228E-3	-26.4705E-3
-837.919E-6	-111.053E-12	774.052E-3	-30.5693E-3	-110.562E-12	678.873E-3	-41.0534E-3
-842.921E-6	-111.476E-12	751.865E-3	-13.6532E-3	-110.018E-12	681.623E-3	-39.8257E-3
-847.924E-6	-110.971E-12	712.261E-3	10.2851E-3	-109.487E-12	648.650E-3	-25.0805E-3
-852.926E-6	-110.714E-12	678.050E-3	5.04721E-3	-110.528E-12	602.285E-3	-13.6252E-3
-857.929E-6	-111.461E-12	656.733E-3	-15.6538E-3	-110.718E-12	567.478E-3	-2.80755E-3
-862.931E-6	-111.174E-12	636.778E-3	-11.2564E-3	-110.470E-12	545.836E-3	5.04762E-3
-867.934E-6	-110.596E-12	623.000E-3	-7.21642E-3	-111.216E-12	515.765E-3	-15.9477E-3
-872.936E-6	-110.467E-12	603.942E-3	-11.4757E-3	-111.364E-12	475.707E-3	-36.0062E-3
-877.939E-6	-112.046E-12	580.414E-3	-12.7901E-3	-112.454E-12	470.464E-3	-31.5141E-3
-882.941E-6	-111.463E-12	568.433E-3	-20.8643E-3	-113.296E-12	485.206E-3	-36.6250E-3
-887.944E-6	-111.641E-12	563.920E-3	-30.9612E-3	-113.192E-12	468.232E-3	-37.2060E-3
-892.946E-6	-111.789E-12	541.676E-3	-36.1654E-3	-112.960E-12	436.570E-3	-12.5257E-3
-897.949E-6	-111.797E-12	507.714E-3	-25.6173E-3	-113.824E-12	421.384E-3	-2.87127E-3
-902.951E-6	-112.251E-12	487.954E-3	-21.0158E-3	-113.954E-12	408.841E-3	-24.9167E-3
-907.954E-6	-112.718E-12	485.978E-3	-41.5180E-3	-113.572E-12	395.395E-3	-43.6901E-3
-912.956E-6	-112.617E-12	475.617E-3	-51.7575E-3	-113.257E-12	381.938E-3	-43.0431E-3
-917.959E-6	-112.166E-12	446.038E-3	-36.3446E-3	-112.610E-12	362.665E-3	-28.9380E-3
-922.961E-6	-113.369E-12	428.322E-3	-17.0258E-3	-112.623E-12	344.474E-3	-10.4447E-3
-927.964E-6	-113.289E-12	427.424E-3	-23.0592E-3	-112.649E-12	331.043E-3	1.07445E-3
-932.966E-6	-113.128E-12	408.394E-3	-41.0221E-3	-111.717E-12	330.716E-3	-337.167E-6
-937.969E-6	-113.492E-12	367.366E-3	-37.4007E-3	-112.052E-12	340.278E-3	-14.5600E-3
-942.971E-6	-113.126E-12	335.908E-3	-25.7922E-3	-112.525E-12	340.136E-3	-22.4327E-3
-947.974E-6	-113.902E-12	321.034E-3	-33.0742E-3	-112.620E-12	322.118E-3	-13.7818E-3
-952.976E-6	-113.626E-12	329.186E-3	-46.5151E-3	-112.751E-12	306.655E-3	-9.04670E-3
-957.979E-6	-113.728E-12	337.600E-3	-36.1901E-3	-112.844E-12	298.860E-3	-9.40102E-3
-962.981E-6	-113.286E-12	338.091E-3	-9.83291E-3	-114.212E-12	278.138E-3	-5.53477E-3
-967.984E-6	-114.299E-12	350.379E-3	5.47178E-3	-115.410E-12	265.348E-3	6.01256E-3
-972.986E-6	-114.263E-12	343.911E-3	6.50692E-3	-115.029E-12	261.729E-3	10.3008E-3
-977.989E-6	-113.739E-12	311.269E-3	-7.01449E-3	-115.311E-12	264.881E-3	-4.13377E-3
-982.991E-6	-114.334E-12	288.687E-3	-13.8132E-3	-116.134E-12	277.797E-3	-13.9201E-3
-987.994E-6	-114.551E-12	277.621E-3	1.77574E-3	-116.983E-12	260.276E-3	-21.0810E-3
-992.997E-6	-114.752E-12	258.960E-3	2.64457E-3	-115.932E-12	224.315E-3	-31.2943E-3
-997.999E-6	-114.619E-12	248.480E-3	-13.7447E-3	-114.869E-12	213.702E-3	-40.6468E-3
-1.00300E-3	-115.746E-12	244.033E-3	-17.8755E-3	-115.363E-12	227.448E-3	-45.9955E-3
-1.00800E-3	-114.731E-12	242.352E-3	-6.48349E-3	-115.019E-12	235.787E-3	-35.7094E-3
-1.01301E-3	-114.497E-12	253.084E-3	9.75590E-3	-113.999E-12	233.420E-3	-19.9754E-3
-1.01801E-3	-114.960E-12	247.412E-3	13.7695E-3	-112.857E-12	237.281E-3	-12.4458E-3
-1.02301E-3	-115.597E-12	238.985E-3	3.67369E-3	-112.224E-12	225.287E-3	-11.0006E-3
-1.02801E-3	-114.936E-12	237.360E-3	-6.10174E-3	-113.568E-12	196.383E-3	-14.1275E-3
-1.03302E-3	-114.392E-12	222.338E-3	-11.1945E-3	-113.711E-12	189.174E-3	-10.5831E-3
-1.03802E-3	-114.766E-12	227.495E-3	-3.55358E-3	-114.080E-12	197.577E-3	-3.56972E-3
-1.04302E-3	-114.744E-12	243.362E-3	-2.39308E-3	-113.759E-12	200.689E-3	-12.6125E-3
-1.04802E-3	-114.941E-12	233.849E-3	-23.3161E-3	-115.799E-12	191.969E-3	-17.0821E-3
-1.05303E-3	-113.963E-12	215.400E-3	-21.4894E-3	-116.792E-12	182.589E-3	-11.6220E-3
-1.05803E-3	-114.173E-12	196.851E-3	6.25443E-3	-117.193E-12	183.337E-3	-14.2238E-3
-1.06303E-3	-114.670E-12	184.378E-3	-861.633E-6	-118.275E-12	184.078E-3	-12.1631E-3
-1.06803E-3	-114.690E-12	189.350E-3	-26.9336E-3	-118.468E-12	204.023E-3	-9.90273E-3
-1.07304E-3	-115.289E-12	206.853E-3	-28.5549E-3	-119.079E-12	224.523E-3	-13.5736E-3
-1.07804E-3	-115.723E-12	206.993E-3	-20.9549E-3	-118.391E-12	220.272E-3	-19.4277E-3
-1.08304E-3	-116.213E-12	200.618E-3	-17.2687E-3	-119.053E-12	213.579E-3	-30.4911E-3
-1.08804E-3	-116.617E-12	217.051E-3	-6.21648E-3	-117.723E-12	192.832E-3	-31.4501E-3
-1.09305E-3	-117.159E-12	227.634E-3	-7.02993E-3	-116.813E-12	162.927E-3	-20.9105E-3
-1.09805E-3	-117.246E-12	237.869E-3	-35.2392E-3	-115.991E-12	161.589E-3	-36.1551E-3
-1.10305E-3	-117.323E-12	252.188E-3	-45.9533E-3	-116.151E-12	186.714E-3	-72.8914E-3
-1.10805E-3	-117.788E-12	234.666E-3	-44.3063E-3	-114.905E-12	198.814E-3	-59.7720E-3
-1.11306E-3	-116.870E-12	202.955E-3	-36.9508E-3	-114.021E-12	176.589E-3	-6.02535E-3
-1.11806E-3	-117.615E-12	197.375E-3	-19.5220E-3	-114.145E-12	172.263E-3	14.0810E-3
-1.12306E-3	-116.986E-12	206.762E-3	-17.0306E-3	-114.373E-12	217.979E-3	3.64605E-3
-1.12806E-3	-116.407E-12	220.767E-3	-28.3444E-3	-114.370E-12	252.697E-3	-595.136E-6
-1.13307E-3	-116.626E-12	224.255E-3	-32.0872E-3	-115.295E-12	249.286E-3	-673.714E-6
-1.13807E-3	-116.455E-12	202.386E-3	-15.9721E-3	-116.069E-12	244.102E-3	-5.91558E-3
-1.14307E-3	-115.672E-12	204.252E-3	-19.0971E-3	-117.248E-12	244.900E-3	-18.0700E-3
-1.14807E-3	-115.487E-12	225.539E-3	-44.6608E-3	-118.308E-12	257.622E-3	-17.6377E-3
-1.15308E-3	-115.341E-12	230.549E-3	-40.2005E-3	-119.295E-12	274.934E-3	-1.78928E-3
-1.15808E-3	-115.157E-12	219.489E-3	-20.6556E-3	-118.701E-12	267.509E-3	-13.9496E-3
-1.16308E-3	-115.351E-12	197.241E-3	-14.7789E-3	-118.666E-12	244.904E-3	-37.1825E-3
-1.16808E-3	-115.518E-12	199.226E-3	-4.81512E-3	-118.943E-12	224.074E-3	-28.9486E-3
-1.17309E-3	-116.110E-12	225.471E-3	-9.25318E-3	-119.730E-12	208.559E-3	-14.4968E-3
-1.17809E-3	-116.222E-12	242.306E-3	-25.1301E-3	-119.028E-12	216.811E-3	-9.14330E-3
-1.18309E-3	-117.007E-12	244.634E-3	-8.48872E-3	-117.743E-12	249.640E-3	-3.62865E-3
-1.18809E-3	-117.287E-12	234.603E-3	20.2894E-3	-116.963E-12	276.083E-3	-4.31390E-3
-1.19310E-3	-117.988E-12	239.124E-3	17.5998E-3	-117.126E-12	289.483E-3	-12.6528E-3
-1.19810E-3	-118.392E-12	255.147E-3	-1.66287E-3	-116.351E-12	286.714E-3	-26.9200E-3
-1.20310E-3	-118.019E-12	253.421E-3	-4.86251E-3	-115.301E-12	281.077E-3	-33.3598E-3
-1.20810E-3	-118.705E-12	247.579E-3	10.7827E-3	-114.987E-12	291.870E-3	-20.9613E-3
-1.21311E-3	-119.362E-12	240.531E-3	18.9839E-3	-115.761E-12	294.894E-3	-1.45768E-3
-1.21811E-3	-119.139E-12	239.366E-3	4.20468E-3	-116.050E-12	284.972E-3	1.34830E-3
-1.22311E-3	-118.519E-12	264.699E-3	-21.2344E-3	-116.141E-12	291.122E-3	-24.1283E-3
-1.22811E-3	-118.662E-12	286.446E-3	-40.7581E-3	-116.447E-12	309.536E-3	-49.6950E-3
-1.23312E-3	-119.392E-12	280.334E-3	-42.2196E-3	-117.489E-12	321.574E-3	-27.3119E-3
-1.23812E-3	-118.610E-12	282.617E-3	-30.5420E-3	-118.885E-12	327.807E-3	5.01600E-3
-1.24312E-3	-118.029E-12	301.855E-3	-15.8218E-3	-119.670E-12	332.953E-3	-7.62034E-3
-1.24812E-3	-118.118E-12	314.914E-3	-53.5186E-6	-119.614E-12	343.063E-3	-20.7927E-3
-1.25313E-3	-118.389E-12	324.014E-3	1.42303E-3	-120.532E-12	354.829E-3	-12.3480E-3
-1.25813E-3	-117.739E-12	327.777E-3	-16.3726E-3	-120.755E-12	358.463E-3	-11.1856E-3
-1.26313E-3	-117.910E-12	330.652E-3	-37.1456E-3	-120.824E-12	350.137E-3	-4.54957E-3
-1.26813E-3	-118.015E-12	345.970E-3	-53.6603E-3	-119.988E-12	336.943E-3	-4.03817E-3
-1.27314E-3	-117.366E-12	350.564E-3	-48.0547E-3	-119.779E-12	347.178E-3	-21.4536E-3
-1.27814E-3	-118.856E-12	332.383E-3	-24.7064E-3	-119.225E-12	373.701E-3	-29.3076E-3
-1.28314E-3	-119.242E-12	330.681E-3	-16.0749E-3	-118.791E-12	375.923E-3	-38.4482E-3
-1.28814E-3	-118.564E-12	363.996E-3	-6.53361E-3	-118.453E-12	366.997E-3	-49.5709E-3
-1.29315E-3	-118.716E-12	384.742E-3	4.25207E-3	-118.251E-12	370.662E-3	-36.5572E-3
-1.29815E-3	-119.997E-12	366.067E-3	-13.6826E-3	-117.936E-12	380.363E-3	-30.2961E-3
-1.30315E-3	-120.109E-12	356.101E-3	-30.2653E-3	-118.649E-12	404.677E-3	-61.2873E-3
-1.30815E-3	-119.863E-12	364.554E-3	-24.2227E-3	-119.158E-12	440.877E-3	-68.9446E-3
-1.31316E-3	-120.553E-12	376.228E-3	-20.9890E-3	-119.781E-12	456.505E-3	-29.0415E-3
-1.31816E-3	-121.172E-12	396.063E-3	-13.5051E-3	-120.101E-12	445.457E-3	-6.02427E-3
-1.32316E-3	-121.149E-12	407.946E-3	1.61197E-3	-121.150E-12	428.312E-3	-20.0607E-3
-1.32816E-3	-120.911E-12	411.082E-3	-1.37354E-3	-121.704E-12	435.024E-3	-23.9281E-3
-1.33317E-3	-121.218E-12	420.724E-3	-15.4766E-3	-122.388E-12	462.110E-3	-7.94427E-3
-1.33817E-3	-121.180E-12	439.593E-3	-17.1844E-3	-122.931E-12	466.816E-3	-9.42351E-3
-1.34317E-3	-121.742E-12	456.563E-3	-21.7796E-3	-122.864E-12	460.274E-3	-17.2290E-3
-1.34817E-3	-121.514E-12	457.428E-3	-41.8165E-3	-122.947E-12	463.232E-3	-14.4579E-3
-1.35318E-3	-121.197E-12	448.805E-3	-49.2727E-3	-123.189E-12	465.764E-3	-25.1473E-3
-1.35818E-3	-121.616E-12	444.446E-3	-34.0712E-3	-122.908E-12	465.579E-3	-37.2660E-3
-1.36318E-3	-121.257E-12	440.453E-3	-11.9375E-3	-122.153E-12	466.445E-3	-40.1282E-3
-1.36818E-3	-121.452E-12	443.108E-3	-5.31907E-3	-121.932E-12	468.701E-3	-34.4350E-3
-1.37319E-3	-121.403E-12	470.421E-3	-21.6789E-3	-121.262E-12	481.519E-3	-20.0087E-3
-1.37819E-3	-121.157E-12	486.268E-3	-30.9203E-3	-120.599E-12	498.261E-3	-15.9283E-3
-1.38319E-3	-121.086E-12	469.666E-3	-14.3824E-3	-120.790E-12	494.678E-3	-15.7304E-3
-1.38819E-3	-121.792E-12	467.662E-3	-8.12963E-3	-121.218E-12	491.806E-3	-15.0678E-3
-1.39320E-3	-121.621E-12	481.998E-3	-13.3830E-3	-121.833E-12	508.121E-3	-15.6770E-3
-1.39820E-3	-121.880E-12	492.433E-3	1.50586E-3	-122.013E-12	520.617E-3	-5.13617E-3
-1.40320E-3	-122.462E-12	499.326E-3	6.13119E-3	-122.876E-12	526.232E-3	981.515E-6
-1.40820E-3	-122.857E-12	495.154E-3	605.765E-6	-123.513E-12	548.812E-3	-12.8885E-3
-1.41321E-3	-123.478E-12	488.598E-3	-3.69007E-3	-124.103E-12	563.000E-3	-33.4266E-3
-1.41821E-3	-123.161E-12	495.572E-3	-30.6305E-3	-124.290E-12	540.641E-3	-35.3532E-3
-1.42321E-3	-123.672E-12	520.149E-3	-45.3996E-3	-124.618E-12	499.095E-3	-19.1242E-3
-1.42821E-3	-124.332E-12	539.378E-3	-39.3883E-3	-123.971E-12	475.796E-3	-16.0185E-3
-1.43322E-3	-125.658E-12	538.945E-3	-49.0663E-3	-123.475E-12	490.937E-3	-25.5137E-3
-1.43822E-3	-126.059E-12	537.278E-3	-46.9665E-3	-123.898E-12	521.396E-3	-14.6626E-3
-1.44322E-3	-126.123E-12	538.059E-3	-18.2761E-3	-123.800E-12	541.270E-3	-1.47859E-3
-1.44822E-3	-125.790E-12	535.757E-3	-2.71527E-3	-123.092E-12	536.122E-3	-9.32605E-3
-1.45323E-3	-125.467E-12	551.865E-3	-17.2743E-3	-123.169E-12	532.020E-3	-24.8738E-3
-1.45823E-3	-125.721E-12	565.053E-3	-32.6192E-3	-123.635E-12	559.813E-3	-27.3521E-3
-1.46323E-3	-124.917E-12	563.374E-3	-28.5120E-3	-124.068E-12	589.550E-3	-8.61840E-3
-1.46823E-3	-124.090E-12	565.581E-3	-23.1583E-3	-123.845E-12	585.084E-3	-9.68256E-3
-1.47324E-3	-123.326E-12	554.367E-3	-24.7472E-3	-124.041E-12	567.777E-3	-38.7369E-3
-1.47824E-3	-124.703E-12	542.010E-3	-19.2109E-3	-125.657E-12	574.896E-3	-51.8729E-3
-1.48324E-3	-125.287E-12	541.181E-3	-14.5512E-3	-126.537E-12	599.054E-3	-47.2943E-3
-1.48824E-3	-124.022E-12	544.686E-3	-35.5278E-3	-127.291E-12	594.066E-3	-45.7755E-3
-1.49325E-3	-123.906E-12	558.490E-3	-47.7751E-3	-127.920E-12	567.465E-3	-40.3590E-3
-1.49825E-3	-125.788E-12	566.132E-3	-27.8160E-3	-128.885E-12	569.225E-3	-23.2135E-3
-1.50325E-3	-126.369E-12	549.710E-3	-9.68562E-3	-130.018E-12	594.244E-3	-15.9215E-3
-1.50825E-3	-125.624E-12	541.091E-3	2.01520E-3	-129.619E-12	615.055E-3	-25.9989E-3
-1.51326E-3	-127.509E-12	562.262E-3	6.41504E-3	-128.446E-12	602.274E-3	-33.2551E-3
-1.51826E-3	-127.377E-12	570.694E-3	-3.76828E-3	-128.004E-12	562.047E-3	-33.9483E-3
-1.52326E-3	-128.003E-12	570.413E-3	-29.5198E-3	-128.058E-12	550.491E-3	-24.8965E-3
-1.52826E-3	-129.072E-12	587.655E-3	-44.5061E-3	-127.012E-12	562.094E-3	-10.3748E-3
-1.53327E-3	-129.853E-12	577.405E-3	-28.6217E-3	-125.773E-12	571.242E-3	-9.09390E-3
-1.53827E-3	-129.625E-12	560.357E-3	-7.07809E-3	-125.152E-12	583.339E-3	-3.23358E-3
-1.54327E-3	-130.240E-12	571.737E-3	-1.58112E-3	-124.655E-12	586.196E-3	18.5801E-3
-1.54827E-3	-130.694E-12	592.321E-3	-17.3131E-3	-125.403E-12	587.662E-3	10.7657E-3
-1.55328E-3	-130.963E-12	619.680E-3	-24.9389E-3	-125.392E-12	608.130E-3	-24.3087E-3
-1.55828E-3	-130.691E-12	624.621E-3	-4.57887E-3	-125.685E-12	633.548E-3	-34.7546E-3
-1.56328E-3	-129.401E-12	614.235E-3	13.9179E-3	-126.522E-12	636.708E-3	-15.2060E-3
-1.56828E-3	-130.456E-12	613.316E-3	14.2230E-3	-127.676E-12	627.387E-3	-2.91918E-3
-1.57329E-3	-129.971E-12	619.777E-3	328.195E-6	-129.747E-12	631.016E-3	-12.0746E-3
-1.57829E-3	-129.385E-12	634.682E-3	-7.65468E-3	-130.225E-12	646.195E-3	-31.1427E-3
-1.58329E-3	-128.281E-12	624.569E-3	3.36723E-3	-132.061E-12	650.637E-3	-39.8407E-3
-1.58829E-3	-128.063E-12	592.278E-3	20.6466E-3	-133.049E-12	630.800E-3	-11.2740E-3
-1.59330E-3	-128.510E-12	592.121E-3	27.9925E-3	-133.180E-12	608.915E-3	18.8322E-3
-1.59830E-3	-128.598E-12	616.408E-3	1.59762E-3	-133.782E-12	606.208E-3	8.73101E-3
-1.60330E-3	-128.110E-12	616.044E-3	-24.8121E-3	-133.901E-12	613.712E-3	-6.35399E-3
-1.60830E-3	-128.628E-12	591.739E-3	-20.8429E-3	-133.344E-12	625.064E-3	-9.59763E-3
-1.61331E-3	-129.718E-12	579.642E-3	-11.2365E-3	-132.549E-12	618.987E-3	-16.5289E-3
-1.61831E-3	-129.701E-12	586.444E-3	-4.09767E-3	-132.005E-12	591.645E-3	-21.7963E-3
-1.62331E-3	-130.468E-12	599.684E-3	2.16047E-3	-130.657E-12	569.469E-3	-22.1256E-3
-1.62831E-3	-131.269E-12	608.043E-3	-2.79267E-3	-129.806E-12	563.316E-3	-16.3560E-3
-1.63332E-3	-132.143E-12	605.423E-3	-10.4114E-3	-129.162E-12	582.719E-3	-8.15341E-3
-1.63832E-3	-131.980E-12	613.559E-3	-8.30754E-3	-128.850E-12	603.873E-3	-9.97049E-3
-1.64332E-3	-132.764E-12	616.904E-3	-1.65996E-3	-129.233E-12	593.684E-3	-3.96025E-3
-1.64832E-3	-133.405E-12	599.953E-3	-18.5884E-3	-129.076E-12	580.147E-3	113.604E-6
-1.65333E-3	-133.958E-12	589.605E-3	-59.6713E-3	-129.403E-12	599.544E-3	-22.2167E-3
-1.65833E-3	-133.251E-12	601.091E-3	-57.7448E-3	-131.513E-12	622.767E-3	-42.9779E-3
-1.66333E-3	-133.174E-12	618.896E-3	-14.4857E-3	-132.716E-12	623.893E-3	-40.8974E-3
-1.66833E-3	-133.698E-12	626.227E-3	510.846E-6	-133.665E-12	618.402E-3	-18.0513E-3
-1.67334E-3	-134.047E-12	642.131E-3	-4.95064E-3	-134.601E-12	613.464E-3	4.97873E-3
-1.67834E-3	-134.254E-12	658.088E-3	2.39729E-3	-136.525E-12	614.247E-3	7.19441E-3
-1.68334E-3	-133.402E-12	638.537E-3	8.62516E-3	-137.743E-12	620.157E-3	-12.3344E-3
-1.68834E-3	-133.276E-12	598.216E-3	4.72201E-3	-138.077E-12	618.156E-3	-41.2519E-3
-1.69335E-3	-133.550E-12	580.621E-3	-1.79271E-3	-137.808E-12	606.313E-3	-48.8602E-3
-1.69835E-3	-133.362E-12	590.315E-3	5.06316E-3	-137.502E-12	590.258E-3	-29.9397E-3
-1.70335E-3	-133.448E-12	616.161E-3	7.80304E-3	-137.425E-12	590.891E-3	-29.5629E-3
-1.70835E-3	-132.952E-12	629.119E-3	-13.7058E-3	-136.471E-12	615.034E-3	-44.5738E-3
-1.71336E-3	-133.213E-12	606.966E-3	-22.4922E-3	-136.236E-12	641.668E-3	-47.9773E-3
-1.71836E-3	-134.382E-12	598.273E-3	-4.89469E-3	-134.920E-12	649.515E-3	-47.1919E-3
-1.72336E-3	-134.317E-12	616.862E-3	3.56760E-3	-134.489E-12	628.620E-3	-42.1728E-3
-1.72836E-3	-134.241E-12	629.061E-3	-1.36788E-3	-133.279E-12	598.875E-3	-26.6333E-3
-1.73337E-3	-134.702E-12	626.142E-3	996.190E-6	-133.378E-12	603.626E-3	-21.1273E-3
-1.73837E-3	-135.816E-12	625.463E-3	-12.7635E-3	-133.722E-12	643.247E-3	-30.8285E-3
-1.74337E-3	-136.081E-12	634.041E-3	-23.1726E-3	-133.413E-12	661.498E-3	-11.1036E-3
-1.74837E-3	-136.957E-12	631.264E-3	-4.87696E-3	-135.006E-12	632.681E-3	19.9758E-3
-1.75338E-3	-136.861E-12	626.811E-3	5.82331E-3	-136.874E-12	604.024E-3	5.88294E-3
-1.75838E-3	-137.498E-12	624.738E-3	4.72926E-3	-137.377E-12	596.192E-3	-21.9037E-3
-1.76338E-3	-137.937E-12	604.519E-3	-7.95358E-3	-137.650E-12	595.827E-3	-15.9842E-3
-1.76838E-3	-138.737E-12	592.766E-3	-26.1410E-3	-139.997E-12	593.639E-3	-11.1247E-3
-1.77339E-3	-137.722E-12	623.160E-3	-22.5947E-3	-140.962E-12	591.043E-3	-30.4561E-3
-1.77839E-3	-138.082E-12	659.814E-3	-20.4905E-3	-140.660E-12	606.446E-3	-35.3239E-3
-1.78339E-3	-138.821E-12	662.758E-3	-20.4932E-3	-140.358E-12	624.629E-3	-16.0101E-3
-1.78839E-3	-138.543E-12	640.063E-3	-7.10442E-3	-140.514E-12	631.248E-3	-11.6001E-3
-1.79340E-3	-137.585E-12	629.966E-3	-10.1955E-3	-140.591E-12	633.963E-3	-28.9312E-3
-1.79840E-3	-138.561E-12	641.514E-3	-12.2167E-3	-140.125E-12	621.072E-3	-33.7901E-3
-1.80340E-3	-139.201E-12	625.017E-3	1.67998E-3	-138.848E-12	600.455E-3	-31.0519E-3
-1.80840E-3	-139.070E-12	602.317E-3	2.67669E-3	-139.615E-12	611.460E-3	-38.3793E-3
-1.81341E-3	-138.439E-12	618.288E-3	-6.37161E-3	-139.420E-12	635.354E-3	-30.8069E-3
-1.81841E-3	-138.932E-12	634.120E-3	-13.9705E-3	-138.926E-12	631.620E-3	-9.85216E-3
-1.82341E-3	-139.289E-12	624.392E-3	-18.1764E-3	-139.414E-12	618.803E-3	-21.2939E-3
-1.82841E-3	-140.241E-12	614.948E-3	-25.0930E-3	-139.349E-12	600.357E-3	-51.0994E-3
-1.83342E-3	-139.233E-12	601.939E-3	-39.2993E-3	-139.719E-12	584.579E-3	-55.0413E-3
-1.83842E-3	-139.269E-12	572.596E-3	-57.3657E-3	-140.193E-12	597.620E-3	-24.3746E-3
-1.84342E-3	-139.800E-12	562.297E-3	-64.1791E-3	-139.678E-12	616.323E-3	3.40424E-3
-1.84842E-3	-140.010E-12	588.816E-3	-49.6981E-3	-140.842E-12	602.776E-3	11.5998E-3
-1.85343E-3	-139.880E-12	612.163E-3	-48.4887E-3	-142.267E-12	592.061E-3	8.87137E-3
-1.85843E-3	-139.204E-12	612.315E-3	-45.2739E-3	-141.652E-12	625.102E-3	-14.2912E-3
-1.86343E-3	-139.881E-12	603.258E-3	-9.17140E-3	-141.263E-12	651.695E-3	-33.8449E-3
-1.86843E-3	-140.672E-12	596.585E-3	16.2701E-3	-142.723E-12	635.170E-3	-21.6930E-3
-1.87344E-3	-141.347E-12	615.584E-3	6.02880E-3	-142.953E-12	622.134E-3	556.572E-6
-1.87844E-3	-141.963E-12	640.656E-3	-13.4350E-3	-141.484E-12	633.952E-3	-10.6768E-3
-1.88344E-3	-142.424E-12	648.626E-3	-17.5537E-3	-140.392E-12	648.244E-3	-27.0129E-3
-1.88844E-3	-142.675E-12	647.534E-3	-6.00120E-3	-141.256E-12	657.995E-3	-16.1902E-3
-1.89345E-3	-143.663E-12	636.948E-3	-8.54273E-3	-141.424E-12	651.969E-3	-4.34815E-3
-1.89845E-3	-143.515E-12	626.022E-3	-21.2607E-3	-142.084E-12	633.535E-3	832.450E-6
-1.90345E-3	-143.175E-12	622.122E-3	-23.1682E-3	-142.037E-12	620.111E-3	-15.2103E-3
-1.90845E-3	-143.614E-12	620.887E-3	-34.7433E-3	-142.681E-12	617.959E-3	-46.7076E-3
-1.91346E-3	-143.637E-12	617.716E-3	-40.1739E-3	-143.832E-12	608.854E-3	-41.3053E-3
-1.91846E-3	-144.094E-12	613.212E-3	-27.7005E-3	-145.556E-12	605.099E-3	-12.3749E-3
-1.92346E-3	-144.264E-12	618.676E-3	-5.57328E-3	-145.911E-12	639.727E-3	-15.0243E-3
-1.92846E-3	-144.103E-12	640.245E-3	18.1120E-3	-146.004E-12	675.349E-3	-24.0354E-3
-1.93347E-3	-143.989E-12	654.319E-3	9.78588E-3	-146.336E-12	675.591E-3	-3.38281E-3
-1.93847E-3	-144.319E-12	628.767E-3	-20.1375E-3	-147.029E-12	665.499E-3	9.60150E-3
-1.94347E-3	-144.044E-12	605.821E-3	-11.6745E-3	-147.712E-12	661.674E-3	-4.80335E-3
-1.94847E-3	-143.785E-12	628.657E-3	13.7187E-3	-147.052E-12	646.562E-3	-6.18863E-3
-1.95348E-3	-144.853E-12	663.841E-3	13.2547E-3	-146.237E-12	638.006E-3	398.394E-6
-1.95848E-3	-144.890E-12	667.772E-3	10.1392E-3	-146.115E-12	646.026E-3	-19.4397E-3
-1.96348E-3	-146.052E-12	641.497E-3	-132.063E-6	-145.598E-12	648.270E-3	-41.5632E-3
-1.96848E-3	-146.223E-12	630.599E-3	-17.5526E-3	-145.217E-12	639.101E-3	-28.4565E-3
-1.97349E-3	-147.193E-12	648.321E-3	-20.1034E-3	-144.118E-12	626.452E-3	10.0212E-3
-1.97849E-3	-147.413E-12	654.158E-3	-20.0510E-3	-144.473E-12	622.546E-3	24.6711E-3
-1.98349E-3	-147.399E-12	642.659E-3	-27.2523E-3	-143.704E-12	631.266E-3	-3.33322E-3
-1.98849E-3	-148.553E-12	642.684E-3	-25.6925E-3	-143.974E-12	643.096E-3	-34.8207E-3
-1.99350E-3	-147.926E-12	639.155E-3	-4.34280E-3	-144.255E-12	653.005E-3	-31.8257E-3
-1.99850E-3	-147.572E-12	625.869E-3	10.6253E-3	-144.865E-12	646.736E-3	4.37050E-3
-2.00350E-3	-147.815E-12	627.014E-3	-19.4303E-3	-145.921E-12	632.588E-3	39.1857E-3
-2.00850E-3	-147.848E-12	646.721E-3	-45.1543E-3	-148.583E-12	635.970E-3	27.6434E-3
-2.01351E-3	-147.335E-12	661.942E-3	-35.7920E-3	-149.505E-12	646.814E-3	-1.87111E-3
-2.01851E-3	-147.153E-12	654.062E-3	-41.2697E-3	-149.958E-12	656.784E-3	-8.77409E-3
-2.02351E-3	-147.752E-12	642.314E-3	-47.0191E-3	-151.310E-12	650.481E-3	-10.6279E-3
-2.02851E-3	-147.311E-12	647.253E-3	-17.8790E-3	-152.634E-12	634.341E-3	-15.2483E-3
-2.03352E-3	-147.913E-12	655.245E-3	7.50125E-3	-152.163E-12	633.262E-3	-24.3802E-3
-2.03852E-3	-147.128E-12	648.994E-3	12.3699E-3	-152.099E-12	637.949E-3	-31.6030E-3
-2.04352E-3	-148.015E-12	643.778E-3	8.60645E-3	-150.520E-12	650.020E-3	-26.1875E-3
-2.04852E-3	-148.952E-12	657.190E-3	-12.0728E-3	-150.345E-12	667.287E-3	-31.3591E-3
-2.05353E-3	-149.079E-12	668.449E-3	-15.3538E-3	-149.635E-12	652.938E-3	-39.2061E-3
-2.05853E-3	-149.662E-12	662.316E-3	7.81103E-3	-148.931E-12	625.374E-3	-19.4172E-3
-2.06353E-3	-150.314E-12	640.011E-3	13.7024E-3	-147.304E-12	627.647E-3	-957.623E-6
-2.06853E-3	-151.185E-12	626.335E-3	-2.48312E-3	-146.687E-12	647.695E-3	-17.2448E-3
-2.07354E-3	-150.908E-12	652.849E-3	-18.7374E-3	-146.221E-12	663.272E-3	-32.8072E-3
-2.07854E-3	-151.565E-12	668.479E-3	-14.4393E-3	-147.544E-12	675.036E-3	-27.0572E-3
-2.08354E-3	-151.403E-12	651.990E-3	-4.13181E-3	-147.438E-12	681.803E-3	-37.9738E-3
-2.08854E-3	-150.742E-12	658.304E-3	-9.43408E-3	-147.692E-12	679.673E-3	-52.7257E-3
-2.09355E-3	-151.523E-12	660.442E-3	-9.72556E-3	-148.902E-12	663.895E-3	-26.7349E-3
-2.09855E-3	-150.978E-12	624.923E-3	-1.27674E-3	-151.172E-12	650.562E-3	-3.57807E-3
-2.10355E-3	-149.517E-12	622.192E-3	2.58477E-3	-151.934E-12	651.474E-3	-16.9931E-3
-2.10855E-3	-149.604E-12	647.503E-3	-2.40438E-3	-153.201E-12	655.304E-3	-11.0709E-3
-2.11356E-3	-149.910E-12	647.263E-3	-16.9992E-3	-154.401E-12	670.699E-3	429.609E-6
-2.11856E-3	-149.091E-12	653.563E-3	-14.7095E-3	-155.719E-12	680.048E-3	-33.3912E-3
-2.12356E-3	-148.474E-12	664.049E-3	-6.99853E-3	-156.258E-12	666.193E-3	-55.1082E-3
-2.12856E-3	-149.064E-12	648.290E-3	-19.8721E-3	-155.400E-12	645.468E-3	-32.5910E-3
-2.13357E-3	-150.058E-12	633.637E-3	-25.8571E-3	-155.730E-12	637.309E-3	-26.0516E-3
-2.13857E-3	-151.664E-12	628.310E-3	-26.5509E-3	-155.673E-12	638.637E-3	-37.0983E-3
-2.14357E-3	-151.880E-12	622.340E-3	-33.3998E-3	-153.811E-12	646.439E-3	-29.0900E-3
-2.14857E-3	-151.334E-12	643.672E-3	-30.7387E-3	-152.366E-12	647.382E-3	-26.6785E-3
-2.15358E-3	-153.632E-12	673.061E-3	-17.7992E-3	-152.072E-12	633.338E-3	-33.6196E-3
-2.15858E-3	-155.534E-12	668.046E-3	-6.00616E-3	-152.432E-12	638.114E-3	-36.4691E-3
-2.16358E-3	-154.955E-12	669.113E-3	-2.19301E-3	-151.741E-12	646.841E-3	-37.5809E-3
-2.16858E-3	-154.842E-12	689.062E-3	-18.5620E-3	-151.609E-12	653.240E-3	-20.7741E-3
-2.17359E-3	-156.260E-12	674.453E-3	-34.5774E-3	-152.204E-12	678.546E-3	-4.72348E-3
-2.17859E-3	-156.108E-12	650.094E-3	-12.5717E-3	-153.147E-12	686.131E-3	-4.13188E-3
-2.18359E-3	-155.512E-12	660.132E-3	12.7216E-3	-154.402E-12	674.560E-3	-23.7617E-3
-2.18859E-3	-154.618E-12	668.961E-3	6.45131E-3	-155.087E-12	664.795E-3	-46.0273E-3
-2.19360E-3	-155.211E-12	659.469E-3	240.444E-6	-156.390E-12	679.082E-3	-49.1663E-3
-2.19860E-3	-153.928E-12	663.112E-3	1.21801E-3	-157.514E-12	700.082E-3	-45.3805E-3
-2.20360E-3	-153.893E-12	670.551E-3	-5.24954E-3	-158.354E-12	677.686E-3	-24.1823E-3
-2.20860E-3	-153.769E-12	655.336E-3	-25.8910E-3	-159.202E-12	659.362E-3	-13.2900E-3
-2.21361E-3	-154.244E-12	651.543E-3	-59.9504E-3	-159.835E-12	670.013E-3	-23.8003E-3
-2.21861E-3	-154.080E-12	669.360E-3	-59.4128E-3	-160.201E-12	684.874E-3	-23.8745E-3
-2.22361E-3	-154.418E-12	666.023E-3	-37.6481E-3	-159.650E-12	707.649E-3	-30.0607E-3
-2.22861E-3	-155.475E-12	656.217E-3	-32.4094E-3	-158.294E-12	691.004E-3	-22.9713E-3
-2.23362E-3	-155.859E-12	676.419E-3	-28.2435E-3	-158.315E-12	653.396E-3	5.08499E-3
-2.23862E-3	-156.605E-12	699.803E-3	-32.0589E-3	-157.609E-12	668.781E-3	-5.78302E-3
-2.24362E-3	-158.023E-12	701.029E-3	-40.2279E-3	-156.447E-12	702.323E-3	-33.8863E-3
-2.24862E-3	-158.870E-12	683.240E-3	-36.3075E-3	-156.180E-12	696.688E-3	-36.4182E-3
-2.25363E-3	-160.050E-12	652.695E-3	-16.1872E-3	-156.987E-12	677.885E-3	-31.9708E-3
-2.25863E-3	-160.101E-12	627.070E-3	-9.29010E-3	-156.556E-12	667.114E-3	-27.7690E-3
-2.26363E-3	-160.247E-12	644.110E-3	-22.0535E-3	-156.788E-12	660.746E-3	-34.2009E-3
-2.26863E-3	-160.019E-12	687.228E-3	-16.1014E-3	-158.296E-12	669.037E-3	-49.3984E-3
-2.27364E-3	-161.023E-12	691.937E-3	-13.8686E-3	-159.361E-12	670.662E-3	-26.4103E-3
-2.27864E-3	-160.353E-12	669.830E-3	-25.0629E-3	-160.669E-12	656.638E-3	-5.31441E-3
-2.28364E-3	-160.204E-12	650.591E-3	-21.2499E-3	-161.522E-12	651.549E-3	-25.4912E-3
-2.28864E-3	-159.899E-12	646.250E-3	-18.3788E-3	-162.156E-12	650.881E-3	-32.5713E-3
-2.29365E-3	-160.121E-12	647.414E-3	-32.1488E-3	-162.586E-12	662.458E-3	-17.7774E-3
-2.29865E-3	-159.701E-12	641.254E-3	-37.7613E-3	-162.888E-12	683.271E-3	-1.83561E-3
-2.30365E-3	-159.677E-12	643.829E-3	-19.8097E-3	-162.602E-12	666.510E-3	3.34868E-3
-2.30865E-3	-159.799E-12	655.666E-3	-11.4325E-3	-162.897E-12	637.669E-3	6.96342E-3
-2.31366E-3	-159.708E-12	671.107E-3	-11.4453E-3	-162.005E-12	663.243E-3	1.61977E-3
-2.31866E-3	-161.373E-12	668.005E-3	12.6303E-3	-161.823E-12	701.283E-3	-21.4490E-3
-2.32366E-3	-162.148E-12	657.187E-3	26.6107E-3	-161.514E-12	686.558E-3	-20.2188E-3
-2.32866E-3	-162.240E-12	668.591E-3	7.39826E-3	-161.201E-12	666.810E-3	-12.2942E-3
-2.33367E-3	-161.953E-12	679.352E-3	-24.5530E-3	-161.384E-12	676.858E-3	-38.9151E-3
-2.33867E-3	-162.777E-12	666.904E-3	-30.3444E-3	-160.530E-12	677.195E-3	-66.0677E-3
-2.34367E-3	-163.021E-12	641.567E-3	-21.1140E-3	-161.303E-12	669.126E-3	-65.9578E-3
-2.34867E-3	-163.326E-12	625.897E-3	-31.9110E-3	-162.274E-12	676.252E-3	-43.4379E-3
-2.35368E-3	-162.989E-12	629.892E-3	-26.1276E-3	-162.849E-12	691.265E-3	-10.6495E-3
-2.35868E-3	-162.936E-12	635.829E-3	682.739E-6	-163.249E-12	697.702E-3	7.73276E-3
-2.36368E-3	-162.945E-12	648.517E-3	6.50397E-3	-164.248E-12	696.585E-3	2.15949E-3
-2.36868E-3	-162.354E-12	675.720E-3	-7.88099E-3	-165.730E-12	709.079E-3	-12.7132E-3
-2.37369E-3	-162.190E-12	669.618E-3	-22.6493E-3	-165.843E-12	716.431E-3	4.04153E-3
-2.37869E-3	-163.452E-12	637.911E-3	-23.8428E-3	-166.652E-12	696.450E-3	24.4021E-3
-2.38369E-3	-163.751E-12	637.453E-3	3.95870E-3	-166.174E-12	681.867E-3	11.3444E-3
-2.38869E-3	-163.552E-12	658.868E-3	10.7593E-3	-167.054E-12	685.378E-3	1.64259E-3
-2.39370E-3	-165.183E-12	654.266E-3	-18.1987E-3	-166.353E-12	675.546E-3	1.16098E-3
-2.39870E-3	-166.450E-12	626.183E-3	-23.3268E-3	-165.621E-12	653.058E-3	4.41483E-3
-2.40370E-3	-166.125E-12	629.436E-3	-2.70534E-3	-165.106E-12	636.579E-3	7.74650E-3
-2.40870E-3	-166.606E-12	667.416E-3	14.1495E-3	-165.458E-12	637.201E-3	-4.32944E-3
-2.41371E-3	-166.998E-12	684.112E-3	14.1205E-3	-164.609E-12	664.065E-3	-24.5372E-3
-2.41871E-3	-167.200E-12	664.756E-3	9.78499E-3	-163.010E-12	696.997E-3	-22.9397E-3
-2.42371E-3	-167.323E-12	649.468E-3	5.50052E-3	-164.040E-12	701.530E-3	-10.1821E-3
-2.42871E-3	-167.947E-12	661.013E-3	-2.98960E-3	-164.853E-12	675.259E-3	-21.4104E-3
-2.43372E-3	-166.928E-12	664.856E-3	4.99972E-3	-165.225E-12	666.045E-3	-24.5338E-3
-2.43872E-3	-166.398E-12	660.930E-3	17.7785E-3	-165.258E-12	683.624E-3	-23.0790E-3
-2.44372E-3	-164.923E-12	674.577E-3	8.10508E-3	-167.303E-12	704.505E-3	-47.1800E-3
-2.44872E-3	-164.880E-12	682.456E-3	-20.6687E-3	-167.532E-12	719.225E-3	-53.6572E-3
-2.45373E-3	-164.696E-12	676.719E-3	-47.0144E-3	-169.290E-12	723.528E-3	-21.8974E-3
-2.45873E-3	-163.396E-12	676.705E-3	-54.3119E-3	-168.781E-12	712.734E-3	-1.64370E-3
-2.46373E-3	-164.109E-12	688.337E-3	-40.5490E-3	-169.066E-12	678.309E-3	-18.9280E-3
-2.46873E-3	-164.613E-12	685.363E-3	-11.0822E-3	-169.738E-12	653.315E-3	-30.5240E-3
-2.47374E-3	-166.100E-12	665.688E-3	2.51133E-3	-170.001E-12	663.918E-3	-21.3140E-3
-2.47874E-3	-166.791E-12	643.925E-3	-9.75381E-3	-168.714E-12	675.243E-3	-27.7358E-3
-2.48374E-3	-168.486E-12	632.043E-3	-3.78144E-3	-168.013E-12	645.291E-3	-41.7071E-3
-2.48874E-3	-170.000E-12	651.335E-3	7.22964E-3	-167.879E-12	617.025E-3	-43.0899E-3
-2.49375E-3	-171.793E-12	671.243E-3	1.93630E-3	-167.617E-12	628.436E-3	-21.9468E-3
-2.49875E-3	-172.573E-12	673.525E-3	-1.78791E-3	-167.284E-12	651.461E-3	17.0761E-3
-2.50375E-3	-173.192E-12	680.244E-3	3.55144E-3	-166.163E-12	652.671E-3	21.2384E-3
-2.50875E-3	-173.376E-12	676.147E-3	1.32080E-3	-167.392E-12	628.935E-3	1.79369E-3
-2.51376E-3	-172.930E-12	669.691E-3	1.72143E-3	-167.531E-12	636.656E-3	-3.35661E-3
-2.51876E-3	-173.252E-12	676.083E-3	19.5666E-3	-169.276E-12	657.185E-3	-9.38824E-3
-2.52376E-3	-172.680E-12	687.919E-3	21.2208E-3	-168.598E-12	649.919E-3	1.91725E-3
-2.52876E-3	-171.506E-12	691.965E-3	15.0432E-3	-171.047E-12	659.614E-3	23.4130E-3
-2.53377E-3	-169.452E-12	687.978E-3	21.2117E-3	-171.807E-12	666.976E-3	10.0059E-3
-2.53877E-3	-168.512E-12	688.439E-3	15.9350E-3	-173.332E-12	640.283E-3	-23.7788E-3
-2.54377E-3	-168.384E-12	682.298E-3	-3.89421E-3	-173.887E-12	646.513E-3	-38.7668E-3
-2.54877E-3	-167.622E-12	664.367E-3	-29.6009E-3	-174.460E-12	675.894E-3	-40.1506E-3
-2.55378E-3	-168.285E-12	653.400E-3	-43.3748E-3	-175.395E-12	664.842E-3	-36.3887E-3
-2.55878E-3	-167.733E-12	662.696E-3	-22.4773E-3	-174.649E-12	661.282E-3	-12.8528E-3
-2.56378E-3	-168.577E-12	678.045E-3	-7.56187E-3	-173.289E-12	672.697E-3	-14.1986E-3
-2.56878E-3	-169.946E-12	682.289E-3	-11.8180E-3	-171.815E-12	651.648E-3	-34.8120E-3
-2.57379E-3	-172.257E-12	649.689E-3	-4.16887E-3	-171.298E-12	627.676E-3	-25.8789E-3
-2.57879E-3	-172.746E-12	605.231E-3	9.97003E-3	-171.918E-12	632.409E-3	-9.60096E-3
-2.58379E-3	-175.168E-12	605.213E-3	2.39986E-3	-171.043E-12	648.580E-3	12.8089E-3
-2.58879E-3	-176.922E-12	627.243E-3	-22.3121E-3	-169.199E-12	657.677E-3	28.0489E-3
-2.59380E-3	-177.649E-12	640.267E-3	-8.89312E-3	-168.902E-12	672.970E-3	20.4156E-3
-2.59880E-3	-178.616E-12	649.042E-3	18.7495E-3	-170.096E-12	679.849E-3	13.9056E-3
-2.60380E-3	-178.787E-12	647.326E-3	10.8252E-3	-170.359E-12	654.118E-3	5.14694E-3
-2.60880E-3	-178.923E-12	642.680E-3	6.51214E-3	-171.068E-12	641.615E-3	-11.6603E-3
-2.61381E-3	-176.826E-12	657.981E-3	13.9416E-3	-171.694E-12	657.563E-3	-26.3116E-3
-2.61881E-3	-176.410E-12	677.240E-3	6.92023E-3	-173.960E-12	670.074E-3	-55.5653E-3
-2.62381E-3	-174.548E-12	680.255E-3	-7.01500E-3	-176.016E-12	678.697E-3	-66.1410E-3
-2.62881E-3	-173.322E-12	670.791E-3	-18.2262E-3	-177.719E-12	677.458E-3	-24.6209E-3
-2.63382E-3	-172.205E-12	661.770E-3	-25.7399E-3	-178.051E-12	671.164E-3	-11.0745E-3
-2.63882E-3	-171.618E-12	661.394E-3	-30.9437E-3	-179.376E-12	670.785E-3	-52.9509E-3
-2.64382E-3	-171.813E-12	667.437E-3	-27.9145E-3	-181.284E-12	665.489E-3	-81.2379E-3
-2.64882E-3	-172.960E-12	664.048E-3	-18.6578E-3	-181.055E-12	645.591E-3	-65.2578E-3
-2.65383E-3	-172.127E-12	649.943E-3	-22.7932E-3	-180.122E-12	635.693E-3	-30.9537E-3
-2.65883E-3	-172.831E-12	640.143E-3	-29.1828E-3	-178.246E-12	657.223E-3	-13.5354E-3
-2.66383E-3	-174.885E-12	630.824E-3	-22.1527E-3	-178.164E-12	664.007E-3	-17.8311E-3
-2.66883E-3	-176.881E-12	638.795E-3	-14.1834E-3	-177.330E-12	650.515E-3	-17.1981E-3
-2.67384E-3	-176.423E-12	667.284E-3	-15.4193E-3	-176.105E-12	668.145E-3	4.60215E-3
-2.67884E-3	-178.623E-12	667.360E-3	-28.7313E-3	-174.783E-12	676.567E-3	22.3111E-3
-2.68384E-3	-179.329E-12	666.399E-3	-24.9801E-3	-174.022E-12	634.022E-3	16.4140E-3
-2.68884E-3	-180.217E-12	692.631E-3	3.87631E-3	-174.222E-12	611.656E-3	-10.2032E-3
-2.69385E-3	-180.072E-12	684.029E-3	16.9835E-3	-174.699E-12	653.672E-3	-12.5660E-3
-2.69885E-3	-179.766E-12	664.159E-3	5.75663E-3	-175.503E-12	703.139E-3	20.7278E-3
-2.70385E-3	-179.239E-12	649.558E-3	-4.41505E-3	-175.527E-12	721.200E-3	18.8329E-3
-2.70885E-3	-179.637E-12	628.551E-3	-7.20300E-3	-177.065E-12	716.773E-3	-12.7276E-3
-2.71386E-3	-178.555E-12	646.666E-3	-23.6522E-3	-178.814E-12	675.992E-3	-8.44855E-3
-2.71886E-3	-177.401E-12	684.632E-3	-46.4289E-3	-180.620E-12	644.623E-3	5.19071E-3
-2.72386E-3	-178.783E-12	683.851E-3	-45.3539E-3	-181.251E-12	666.306E-3	5.44402E-3
-2.72886E-3	-178.787E-12	657.255E-3	-30.3196E-3	-182.174E-12	694.834E-3	4.31541E-3
-2.73387E-3	-177.657E-12	649.722E-3	-27.6399E-3	-183.989E-12	705.200E-3	-16.0802E-3
-2.73887E-3	-178.231E-12	660.140E-3	-28.9510E-3	-183.332E-12	708.295E-3	-35.9276E-3
-2.74387E-3	-180.279E-12	664.767E-3	-4.66038E-3	-183.805E-12	698.666E-3	-13.1885E-3
-2.74887E-3	-180.320E-12	667.437E-3	26.7266E-3	-183.173E-12	678.437E-3	14.9554E-3
-2.75388E-3	-180.264E-12	663.586E-3	28.5268E-3	-182.443E-12	664.038E-3	-6.16303E-3
-2.75888E-3	-182.384E-12	651.301E-3	24.1478E-3	-182.101E-12	670.176E-3	-30.5924E-3
-2.76388E-3	-182.980E-12	650.773E-3	17.5403E-3	-181.581E-12	676.169E-3	-30.2253E-3
-2.76888E-3	-182.536E-12	661.926E-3	-5.46723E-3	-179.891E-12	669.452E-3	-50.0842E-3
-2.77389E-3	-181.343E-12	662.037E-3	-1.34386E-3	-179.983E-12	668.749E-3	-64.8252E-3
-2.77889E-3	-182.142E-12	653.238E-3	20.6159E-3	-180.645E-12	663.109E-3	-19.8271E-3
-2.78389E-3	-182.243E-12	664.632E-3	27.7396E-3	-180.530E-12	661.714E-3	14.4409E-3
-2.78889E-3	-181.275E-12	659.506E-3	28.3874E-3	-179.655E-12	674.098E-3	521.677E-6
-2.79390E-3	-180.659E-12	627.348E-3	-4.04864E-3	-180.732E-12	673.658E-3	-19.9407E-3
-2.79890E-3	-180.446E-12	638.504E-3	-45.2475E-3	-181.877E-12	680.975E-3	-46.9163E-3
-2.80390E-3	-180.391E-12	662.960E-3	-44.9834E-3	-183.364E-12	699.671E-3	-55.2834E-3
-2.80890E-3	-180.217E-12	658.895E-3	-21.6541E-3	-182.417E-12	677.408E-3	-40.7996E-3
-2.81391E-3	-180.967E-12	671.080E-3	-14.7370E-3	-183.506E-12	638.648E-3	-10.0525E-3
-2.81891E-3	-181.652E-12	671.432E-3	-29.5279E-3	-184.266E-12	623.928E-3	48.0329E-3
-2.82391E-3	-183.055E-12	655.617E-3	-44.9967E-3	-184.380E-12	632.649E-3	68.8379E-3
-2.82891E-3	-185.393E-12	659.855E-3	-40.3447E-3	-185.013E-12	650.519E-3	30.5653E-3
-2.83392E-3	-184.666E-12	643.868E-3	-20.9503E-3	-184.924E-12	663.101E-3	10.9412E-3
-2.83892E-3	-186.239E-12	635.748E-3	-18.4683E-3	-184.477E-12	684.606E-3	-1.20371E-3
-2.84392E-3	-188.652E-12	665.836E-3	-19.5127E-3	-184.049E-12	700.114E-3	-56.8742E-3
-2.84892E-3	-188.089E-12	668.428E-3	-8.25340E-3	-184.255E-12	675.665E-3	-94.1906E-3
-2.85393E-3	-187.903E-12	664.326E-3	-8.80598E-3	-182.977E-12	673.567E-3	-35.5941E-3
-2.85893E-3	-187.339E-12	686.336E-3	-2.78728E-3	-183.501E-12	708.216E-3	29.1839E-3
-2.86393E-3	-186.808E-12	707.425E-3	6.95816E-3	-184.196E-12	687.450E-3	23.6609E-3
-2.86893E-3	-186.263E-12	709.013E-3	-1.88232E-3	-184.652E-12	659.780E-3	-11.6432E-3
-2.87394E-3	-183.951E-12	700.901E-3	-9.71089E-3	-183.962E-12	684.039E-3	-52.1373E-3
-2.87894E-3	-182.485E-12	694.925E-3	-19.6707E-3	-184.152E-12	708.051E-3	-35.6479E-3
-2.88394E-3	-182.025E-12	674.372E-3	-30.5185E-3	-185.428E-12	718.191E-3	32.7390E-3
-2.88894E-3	-182.737E-12	662.107E-3	-16.5456E-3	-186.569E-12	712.634E-3	35.3477E-3
-2.89395E-3	-181.813E-12	664.369E-3	4.96170E-3	-186.353E-12	682.344E-3	9.19501E-3
-2.89895E-3	-180.966E-12	674.098E-3	-7.35519E-3	-186.553E-12	656.517E-3	37.5737E-3
-2.90395E-3	-182.434E-12	688.561E-3	-33.2909E-3	-187.394E-12	668.681E-3	38.9973E-3
-2.90895E-3	-184.783E-12	688.253E-3	-27.6507E-3	-188.247E-12	691.811E-3	1.15770E-3
-2.91396E-3	-186.064E-12	688.606E-3	-23.1790E-3	-187.378E-12	685.550E-3	-17.4654E-3
-2.91896E-3	-187.176E-12	687.617E-3	-39.3106E-3	-186.959E-12	689.200E-3	-27.9165E-3
-2.92396E-3	-189.320E-12	690.263E-3	-25.6227E-3	-186.043E-12	702.588E-3	-42.3084E-3
-2.92896E-3	-191.169E-12	699.759E-3	2.16489E-3	-186.938E-12	684.912E-3	-56.0367E-3
-2.93397E-3	-192.605E-12	706.581E-3	6.66282E-3	-186.848E-12	662.381E-3	-42.1606E-3
-2.93897E-3	-193.833E-12	707.495E-3	8.81542E-3	-186.176E-12	660.827E-3	-10.3892E-3
-2.94397E-3	-192.313E-12	696.927E-3	-96.8444E-6	-186.331E-12	677.181E-3	-11.8062E-3
-2.94897E-3	-190.535E-12	688.674E-3	-22.9897E-3	-188.602E-12	703.661E-3	-16.5287E-3
-2.95398E-3	-191.103E-12	674.867E-3	-20.9537E-3	-188.388E-12	723.249E-3	2.88894E-3
-2.95898E-3	-190.189E-12	683.854E-3	-11.5749E-3	-189.478E-12	716.402E-3	7.99987E-3
-2.96398E-3	-187.645E-12	721.575E-3	-21.5812E-3	-189.924E-12	708.836E-3	17.4092E-3
-2.96898E-3	-185.892E-12	722.090E-3	-13.7072E-3	-192.702E-12	725.271E-3	16.1025E-3
-2.97399E-3	-185.080E-12	688.671E-3	-21.2656E-3	-193.866E-12	739.004E-3	-15.8160E-3
-2.97899E-3	-186.175E-12	668.170E-3	-63.2314E-3	-194.258E-12	729.599E-3	-30.1850E-3
-2.98399E-3	-185.818E-12	658.342E-3	-67.6996E-3	-194.266E-12	725.709E-3	-30.6659E-3
-2.98899E-3	-186.015E-12	644.789E-3	-21.0414E-3	-194.833E-12	723.891E-3	-33.3922E-3
-2.99400E-3	-186.543E-12	653.540E-3	37.0575E-3	-194.968E-12	694.252E-3	-17.1150E-3
-2.99900E-3	-190.072E-12	684.386E-3	48.8172E-3	-195.059E-12	663.674E-3	8.88217E-3
-3.00400E-3	-191.926E-12	716.504E-3	12.7483E-3	-193.269E-12	649.352E-3	11.5929E-3
-3.00900E-3	-193.560E-12	747.407E-3	-6.98818E-3	-191.362E-12	635.869E-3	19.3974E-3
-3.01401E-3	-194.804E-12	752.537E-3	-16.2814E-3	-190.775E-12	618.564E-3	23.3043E-3
-3.01901E-3	-196.512E-12	728.723E-3	-37.1889E-3	-190.425E-12	622.194E-3	6.66997E-3
-3.02401E-3	-197.393E-12	698.303E-3	-51.4560E-3	-189.164E-12	651.764E-3	-4.52383E-3
-3.02901E-3	-197.587E-12	694.776E-3	-53.8623E-3	-186.762E-12	671.148E-3	-27.9619E-3
-3.03402E-3	-197.844E-12	714.900E-3	-43.5564E-3	-187.782E-12	671.406E-3	-48.4152E-3
-3.03902E-3	-196.014E-12	732.031E-3	-40.8804E-3	-189.651E-12	679.297E-3	-37.9875E-3
-3.04402E-3	-195.320E-12	744.591E-3	-33.4940E-3	-189.633E-12	699.062E-3	-26.0477E-3
-3.04902E-3	-193.620E-12	723.448E-3	-14.4752E-3	-190.853E-12	700.328E-3	-14.6500E-3
-3.05403E-3	-192.650E-12	682.499E-3	-7.09147E-3	-192.848E-12	701.961E-3	19.0041E-3
-3.05903E-3	-191.292E-12	669.040E-3	9.17908E-3	-196.673E-12	722.496E-3	32.6439E-3
-3.06403E-3	-190.450E-12	660.346E-3	27.2385E-3	-197.322E-12	722.015E-3	12.9934E-3
-3.06903E-3	-189.275E-12	650.772E-3	8.15393E-3	-199.068E-12	715.504E-3	-7.02678E-3
-3.07404E-3	-189.962E-12	665.296E-3	-14.0456E-3	-199.072E-12	721.905E-3	-10.8465E-3
-3.07904E-3	-190.831E-12	676.313E-3	-21.1681E-3	-200.577E-12	717.198E-3	-22.0657E-3
-3.08404E-3	-191.442E-12	682.121E-3	-34.4868E-3	-201.850E-12	707.088E-3	-29.5149E-3
-3.08904E-3	-193.406E-12	721.568E-3	-35.0680E-3	-199.915E-12	694.070E-3	-3.79791E-3
-3.09405E-3	-195.469E-12	743.257E-3	-31.1505E-3	-198.824E-12	677.509E-3	-3.13873E-3
-3.09905E-3	-197.141E-12	719.048E-3	-37.4341E-3	-198.173E-12	685.310E-3	-28.8332E-3
-3.10405E-3	-198.318E-12	720.349E-3	-41.0675E-3	-196.708E-12	697.838E-3	-48.5544E-3
-3.10905E-3	-200.173E-12	739.642E-3	-50.5858E-3	-195.164E-12	679.098E-3	-40.2905E-3
-3.11406E-3	-201.398E-12	750.806E-3	-45.0683E-3	-193.527E-12	664.846E-3	-12.7524E-3
-3.11906E-3	-200.632E-12	755.479E-3	-10.1995E-3	-193.435E-12	684.085E-3	-22.1307E-3
-3.12406E-3	-200.235E-12	729.536E-3	30.4004E-3	-192.490E-12	697.627E-3	-43.1484E-3
-3.12906E-3	-199.587E-12	685.717E-3	40.3314E-3	-192.166E-12	673.860E-3	-27.3432E-3
-3.13407E-3	-198.423E-12	665.311E-3	5.30572E-3	-193.049E-12	652.668E-3	-1.88061E-3
-3.13907E-3	-195.877E-12	660.820E-3	-12.6440E-3	-194.390E-12	660.530E-3	-9.61534E-3
-3.14407E-3	-196.446E-12	637.580E-3	-18.1917E-3	-196.004E-12	682.522E-3	-14.0785E-3
-3.14907E-3	-195.770E-12	632.692E-3	-53.9599E-3	-197.872E-12	708.667E-3	-1.98420E-3
-3.15408E-3	-194.407E-12	660.968E-3	-59.0165E-3	-199.570E-12	731.657E-3	-12.5228E-3
-3.15908E-3	-195.809E-12	661.351E-3	-29.8149E-3	-201.467E-12	751.870E-3	-25.5558E-3
-3.16408E-3	-196.897E-12	661.113E-3	-19.7722E-3	-203.263E-12	745.952E-3	-21.3657E-3
-3.16908E-3	-197.509E-12	682.741E-3	-18.1029E-3	-204.081E-12	709.754E-3	-24.6533E-3
-3.17409E-3	-198.549E-12	672.315E-3	-15.9192E-3	-204.187E-12	677.840E-3	-20.0999E-3
-3.17909E-3	-199.073E-12	676.352E-3	-24.1545E-3	-204.412E-12	676.481E-3	-4.64818E-3
-3.18409E-3	-200.965E-12	705.188E-3	-37.4021E-3	-203.828E-12	686.394E-3	-7.95695E-3
-3.18909E-3	-203.192E-12	677.302E-3	-44.6509E-3	-201.818E-12	674.644E-3	-7.85617E-3
-3.19410E-3	-203.457E-12	639.042E-3	-58.8472E-3	-201.159E-12	670.605E-3	3.64187E-3
-3.19910E-3	-203.678E-12	661.615E-3	-71.7522E-3	-199.948E-12	695.521E-3	17.6433E-3
-3.20410E-3	-203.874E-12	695.184E-3	-59.9776E-3	-198.902E-12	706.174E-3	28.9134E-3
-3.20910E-3	-203.263E-12	690.744E-3	-34.5411E-3	-197.880E-12	681.851E-3	23.2215E-3
-3.21411E-3	-202.498E-12	686.673E-3	-17.9058E-3	-197.626E-12	628.126E-3	11.5770E-3
-3.21911E-3	-201.075E-12	706.592E-3	-17.9359E-3	-197.739E-12	593.471E-3	3.09516E-3
-3.22411E-3	-199.519E-12	713.770E-3	-13.9897E-3	-198.439E-12	620.893E-3	10.5014E-3
-3.22911E-3	-198.825E-12	700.393E-3	-18.2221E-3	-198.930E-12	668.946E-3	12.8627E-3
-3.23412E-3	-197.951E-12	660.990E-3	-28.9524E-3	-200.589E-12	690.819E-3	2.83621E-3
-3.23912E-3	-197.953E-12	630.470E-3	-24.7024E-3	-201.851E-12	677.931E-3	15.2324E-3
-3.24412E-3	-198.498E-12	638.974E-3	-18.7874E-3	-202.559E-12	678.724E-3	20.6770E-3
-3.24912E-3	-199.381E-12	646.145E-3	-19.0123E-3	-203.527E-12	703.558E-3	-13.8911E-3
-3.25413E-3	-201.914E-12	658.524E-3	-22.1735E-3	-205.051E-12	713.893E-3	-42.1280E-3
-3.25913E-3	-202.271E-12	694.901E-3	-32.9883E-3	-206.536E-12	701.156E-3	-12.0571E-3
-3.26413E-3	-204.537E-12	714.964E-3	-32.2622E-3	-207.169E-12	656.479E-3	30.0094E-3
-3.26913E-3	-205.819E-12	703.691E-3	-14.8144E-3	-206.401E-12	635.550E-3	19.8862E-3
-3.27414E-3	-207.003E-12	689.252E-3	-16.1226E-3	-205.737E-12	658.148E-3	-6.17706E-3
-3.27914E-3	-208.495E-12	688.369E-3	-8.60187E-3	-206.129E-12	654.954E-3	-12.3322E-3
-3.28414E-3	-208.531E-12	694.238E-3	10.6837E-3	-205.493E-12	629.657E-3	-21.8345E-3
-3.28914E-3	-207.264E-12	710.267E-3	-24.8807E-3	-202.570E-12	611.354E-3	-34.1998E-3
-3.29415E-3	-206.538E-12	707.006E-3	-60.5160E-3	-203.429E-12	617.003E-3	-42.6527E-3
-3.29915E-3	-206.166E-12	674.697E-3	-47.7722E-3	-203.850E-12	647.668E-3	-35.2860E-3
-3.30415E-3	-205.178E-12	678.617E-3	-59.6170E-3	-204.463E-12	690.704E-3	-4.75312E-3
-3.30915E-3	-204.194E-12	703.401E-3	-67.4682E-3	-204.098E-12	729.101E-3	46.5610E-6
-3.31416E-3	-202.384E-12	703.981E-3	-38.1171E-3	-203.906E-12	716.709E-3	-10.3028E-3
-3.31916E-3	-202.031E-12	686.729E-3	-26.4273E-3	-205.568E-12	661.006E-3	9.06297E-3
-3.32416E-3	-202.479E-12	658.513E-3	-24.3050E-3	-206.710E-12	632.065E-3	23.9949E-3
-3.32916E-3	-202.962E-12	647.740E-3	-14.1934E-3	-208.225E-12	635.703E-3	17.9444E-3
-3.33417E-3	-203.284E-12	668.711E-3	-16.3914E-3	-207.668E-12	635.578E-3	11.3055E-3
-3.33917E-3	-204.620E-12	688.450E-3	-37.1999E-3	-208.176E-12	663.929E-3	1.03048E-3
-3.34417E-3	-207.233E-12	689.297E-3	-44.0711E-3	-208.910E-12	706.734E-3	-29.7319E-3
-3.34917E-3	-208.113E-12	688.673E-3	-33.1268E-3	-210.223E-12	698.507E-3	-60.9685E-3
-3.35418E-3	-209.749E-12	697.050E-3	-37.8623E-3	-208.957E-12	660.023E-3	-63.2360E-3
-3.35918E-3	-211.628E-12	697.001E-3	-38.1086E-3	-208.314E-12	633.471E-3	-33.7171E-3
-3.36418E-3	-213.316E-12	672.481E-3	-21.6889E-3	-207.540E-12	617.938E-3	-7.44579E-3
-3.36918E-3	-213.997E-12	651.883E-3	-13.9501E-3	-208.071E-12	618.301E-3	-15.4642E-3
-3.37419E-3	-212.968E-12	664.320E-3	15.5105E-3	-208.216E-12	630.347E-3	-18.0994E-3
-3.37919E-3	-212.677E-12	688.948E-3	34.2561E-3	-206.559E-12	656.618E-3	-22.9952E-3
-3.38419E-3	-211.236E-12	719.949E-3	5.84942E-3	-207.036E-12	675.674E-3	-54.4334E-3
-3.38919E-3	-208.490E-12	748.681E-3	-8.01277E-3	-207.936E-12	672.683E-3	-58.8177E-3
-3.39420E-3	-207.372E-12	726.621E-3	-17.1008E-3	-208.685E-12	669.746E-3	-22.2077E-3
-3.39920E-3	-206.861E-12	692.500E-3	-43.2572E-3	-208.714E-12	687.571E-3	4.19783E-3
-3.40420E-3	-205.924E-12	691.239E-3	-54.4194E-3	-210.413E-12	700.741E-3	-7.13664E-3
-3.40920E-3	-205.304E-12	677.954E-3	-50.5507E-3	-211.143E-12	675.224E-3	-29.1244E-3
-3.41421E-3	-205.740E-12	655.797E-3	-40.4592E-3	-214.612E-12	657.186E-3	-41.4829E-3
-3.41921E-3	-207.292E-12	658.457E-3	-5.36598E-3	-212.810E-12	665.025E-3	-62.4714E-3
-3.42421E-3	-209.387E-12	639.655E-3	30.7902E-3	-212.327E-12	657.729E-3	-61.6469E-3
-3.42921E-3	-210.264E-12	606.725E-3	51.9977E-3	-213.204E-12	644.903E-3	-15.6887E-3
-3.43422E-3	-210.367E-12	626.040E-3	71.2224E-3	-213.114E-12	659.743E-3	22.0397E-3
-3.43922E-3	-213.868E-12	689.419E-3	46.0775E-3	-211.814E-12	646.904E-3	18.4407E-3
-3.44422E-3	-215.632E-12	715.172E-3	-5.64633E-3	-211.183E-12	591.648E-3	-7.62439E-3
-3.44922E-3	-216.311E-12	688.177E-3	-15.7002E-3	-209.427E-12	572.416E-3	-28.3557E-3
-3.45423E-3	-217.584E-12	664.232E-3	-7.12143E-3	-207.953E-12	589.487E-3	-25.7306E-3
-3.45923E-3	-217.504E-12	659.549E-3	-22.2801E-3	-209.544E-12	593.585E-3	13.8098E-3
-3.46423E-3	-216.033E-12	687.585E-3	-50.2318E-3	-208.434E-12	600.040E-3	44.5864E-3
-3.46923E-3	-214.820E-12	719.752E-3	-48.2866E-3	-207.345E-12	615.774E-3	28.4694E-3
-3.47424E-3	-214.278E-12	714.272E-3	-19.3421E-3	-208.736E-12	632.906E-3	-11.8586E-3
-3.47924E-3	-211.931E-12	684.115E-3	-10.2872E-3	-210.515E-12	652.723E-3	-42.6450E-3
-3.48424E-3	-210.103E-12	651.031E-3	-8.58078E-3	-212.134E-12	683.298E-3	-49.1935E-3
-3.48924E-3	-209.139E-12	616.082E-3	-11.5791E-3	-212.374E-12	718.675E-3	-47.1340E-3
-3.49425E-3	-209.692E-12	605.600E-3	-20.2593E-3	-214.677E-12	706.347E-3	-38.0162E-3
-3.49925E-3	-208.449E-12	614.250E-3	-23.3303E-3	-216.514E-12	690.066E-3	-16.3211E-3
-3.50425E-3	-208.951E-12	619.917E-3	-7.25444E-3	-218.239E-12	730.942E-3	-12.5638E-3
-3.50925E-3	-210.683E-12	661.743E-3	23.5465E-3	-219.094E-12	752.054E-3	-35.4599E-3
-3.51426E-3	-213.258E-12	691.312E-3	20.9566E-3	-218.398E-12	708.956E-3	-46.2569E-3
-3.51926E-3	-214.572E-12	652.617E-3	-15.3296E-3	-218.456E-12	648.556E-3	-38.8011E-3
-3.52426E-3	-216.410E-12	612.283E-3	-32.9613E-3	-218.404E-12	601.421E-3	-21.5286E-3
-3.52926E-3	-218.329E-12	615.061E-3	-12.2846E-3	-217.351E-12	590.945E-3	20.0442E-3
-3.53427E-3	-220.676E-12	631.239E-3	-5.89476E-3	-214.238E-12	621.934E-3	60.2632E-3
-3.53927E-3	-221.215E-12	652.930E-3	-24.7680E-3	-214.936E-12	650.674E-3	50.1318E-3
-3.54427E-3	-220.382E-12	671.042E-3	-35.6579E-3	-212.984E-12	647.145E-3	16.0555E-3
-3.54927E-3	-221.648E-12	659.836E-3	-33.6587E-3	-212.855E-12	628.391E-3	-6.91514E-3
-3.55428E-3	-221.802E-12	644.084E-3	-34.7447E-3	-211.695E-12	631.412E-3	-16.7912E-3
-3.55928E-3	-220.014E-12	657.721E-3	-18.1788E-3	-211.840E-12	623.388E-3	-15.5018E-3
-3.56428E-3	-217.407E-12	693.081E-3	6.45591E-3	-212.826E-12	615.476E-3	-5.96557E-3
-3.56928E-3	-216.627E-12	724.091E-3	-8.26575E-3	-215.275E-12	657.053E-3	-2.88219E-3
-3.57429E-3	-215.518E-12	730.237E-3	-37.1853E-3	-216.807E-12	676.759E-3	-7.92108E-3
-3.57929E-3	-214.155E-12	697.151E-3	-45.5199E-3	-217.253E-12	654.858E-3	708.112E-6
-3.58429E-3	-213.408E-12	660.460E-3	-32.0426E-3	-219.871E-12	645.555E-3	13.8570E-3
-3.58929E-3	-213.731E-12	656.866E-3	-19.3606E-3	-221.903E-12	634.192E-3	12.6154E-3
-3.59430E-3	-214.215E-12	668.359E-3	-16.1101E-3	-222.525E-12	634.586E-3	-2.78212E-3
-3.59930E-3	-215.487E-12	664.600E-3	-38.8604E-3	-223.736E-12	674.576E-3	-7.93461E-3
-3.60430E-3	-216.208E-12	651.771E-3	-79.1096E-3	-222.028E-12	684.712E-3	2.54341E-3
-3.60930E-3	-218.531E-12	676.333E-3	-70.7472E-3	-221.321E-12	669.649E-3	-3.40604E-3
-3.61431E-3	-220.698E-12	729.913E-3	-36.1383E-3	-221.282E-12	677.750E-3	-23.3110E-3
-3.61931E-3	-222.288E-12	746.032E-3	-31.8488E-3	-220.605E-12	669.984E-3	-38.0903E-3
-3.62431E-3	-222.464E-12	688.904E-3	-33.0290E-3	-218.563E-12	645.421E-3	-43.1168E-3
-3.62931E-3	-223.112E-12	633.157E-3	-43.1596E-3	-216.766E-12	643.655E-3	-30.2389E-3
-3.63432E-3	-224.874E-12	640.036E-3	-70.4310E-3	-216.313E-12	650.898E-3	-11.8519E-3
-3.63932E-3	-223.687E-12	666.865E-3	-62.2665E-3	-215.290E-12	635.055E-3	-19.9958E-3
-3.64432E-3	-221.766E-12	681.197E-3	-25.0560E-3	-215.883E-12	632.332E-3	-37.9397E-3
-3.64932E-3	-220.597E-12	662.770E-3	-24.4129E-3	-214.112E-12	666.394E-3	-21.2362E-3
-3.65433E-3	-220.838E-12	625.565E-3	-28.6474E-3	-215.558E-12	679.343E-3	4.73572E-3
-3.65933E-3	-219.523E-12	622.461E-3	2.20741E-3	-217.397E-12	671.882E-3	12.5703E-3
-3.66433E-3	-218.676E-12	654.350E-3	9.01216E-3	-219.791E-12	663.468E-3	5.82029E-3
-3.66933E-3	-218.801E-12	667.888E-3	-14.0765E-3	-221.383E-12	648.344E-3	-15.7235E-3
-3.67434E-3	-218.067E-12	638.357E-3	-27.9754E-3	-222.644E-12	659.510E-3	-38.2887E-3
-3.67934E-3	-219.546E-12	611.408E-3	-45.4568E-3	-224.721E-12	693.533E-3	-39.4239E-3
-3.68434E-3	-221.322E-12	627.843E-3	-57.3965E-3	-225.461E-12	690.354E-3	-28.6855E-3
-3.68934E-3	-221.567E-12	657.455E-3	-28.7545E-3	-226.710E-12	676.108E-3	-11.6760E-3
-3.69435E-3	-221.768E-12	661.496E-3	75.4047E-6	-226.028E-12	692.221E-3	-9.08779E-3
-3.69935E-3	-225.901E-12	647.553E-3	-11.4899E-3	-225.724E-12	670.453E-3	-29.3408E-3
-3.70435E-3	-226.945E-12	646.522E-3	-29.8485E-3	-224.980E-12	635.692E-3	-33.7349E-3
-3.70935E-3	-226.582E-12	664.497E-3	-32.5759E-3	-224.400E-12	646.650E-3	-25.8078E-3
-3.71436E-3	-226.580E-12	684.997E-3	-30.4648E-3	-223.058E-12	632.149E-3	-30.6586E-3
-3.71936E-3	-227.036E-12	688.868E-3	-29.2089E-3	-221.565E-12	596.414E-3	-40.7771E-3
-3.72436E-3	-227.112E-12	694.781E-3	-25.2075E-3	-221.837E-12	600.373E-3	-47.0397E-3
-3.72936E-3	-225.059E-12	703.308E-3	-12.2645E-3	-221.008E-12	602.762E-3	-42.1960E-3
-3.73437E-3	-223.738E-12	667.847E-3	9.76183E-3	-221.888E-12	614.690E-3	-26.5011E-3
-3.73937E-3	-222.464E-12	650.302E-3	8.49036E-3	-220.112E-12	646.525E-3	-26.5328E-3
-3.74437E-3	-222.262E-12	662.100E-3	-25.8415E-3	-220.842E-12	627.127E-3	-25.1788E-3
-3.74937E-3	-221.978E-12	653.342E-3	-55.9200E-3	-220.499E-12	606.351E-3	3.94934E-3
-3.75438E-3	-221.789E-12	655.115E-3	-64.5813E-3	-222.652E-12	654.149E-3	21.3742E-3
-3.75938E-3	-221.628E-12	652.335E-3	-40.3736E-3	-223.854E-12	689.680E-3	-15.3388E-3
-3.76438E-3	-222.686E-12	652.824E-3	-21.5345E-3	-224.922E-12	656.195E-3	-54.3266E-3
-3.76938E-3	-223.958E-12	655.680E-3	-33.5650E-3	-226.119E-12	658.656E-3	-42.0487E-3
-3.77439E-3	-225.938E-12	630.787E-3	-48.9435E-3	-227.511E-12	699.173E-3	-37.8276E-3
-3.77939E-3	-227.587E-12	606.780E-3	-69.5581E-3	-229.906E-12	694.788E-3	-52.8542E-3
-3.78439E-3	-228.858E-12	620.005E-3	-60.8070E-3	-228.377E-12	683.528E-3	-57.2041E-3
-3.78939E-3	-231.380E-12	664.057E-3	-30.5584E-3	-229.191E-12	671.088E-3	-49.7787E-3
-3.79440E-3	-232.025E-12	687.613E-3	-32.9383E-3	-228.560E-12	653.501E-3	-11.5632E-3
-3.79940E-3	-232.197E-12	684.498E-3	-33.2027E-3	-228.213E-12	646.949E-3	16.1168E-3
-3.80440E-3	-230.714E-12	669.203E-3	-33.4938E-3	-228.168E-12	663.093E-3	4.18189E-3
-3.80940E-3	-230.176E-12	665.452E-3	-43.5944E-3	-228.423E-12	703.746E-3	-10.8491E-3
-3.81441E-3	-227.822E-12	703.622E-3	-29.6467E-3	-228.949E-12	714.289E-3	-21.7337E-3
-3.81941E-3	-225.927E-12	718.097E-3	-19.0507E-3	-227.886E-12	685.393E-3	-23.6666E-3
-3.82441E-3	-224.985E-12	695.329E-3	1.05457E-3	-228.761E-12	652.369E-3	-8.36298E-3
-3.82941E-3	-223.163E-12	674.976E-3	22.0458E-3	-228.887E-12	635.525E-3	4.33422E-3
-3.83442E-3	-222.632E-12	630.401E-3	11.2038E-3	-229.635E-12	628.960E-3	16.9384E-3
-3.83942E-3	-222.627E-12	580.066E-3	-21.9413E-3	-228.570E-12	624.136E-3	31.9478E-3
-3.84442E-3	-223.177E-12	566.033E-3	-48.8348E-3	-230.438E-12	623.140E-3	21.9683E-3
-3.84942E-3	-224.367E-12	587.379E-3	-33.2056E-3	-230.280E-12	615.106E-3	-863.090E-6
-3.85443E-3	-226.691E-12	602.632E-3	-4.58807E-3	-229.910E-12	612.108E-3	-8.96552E-3
-3.85943E-3	-228.383E-12	597.025E-3	-5.82348E-3	-230.026E-12	607.459E-3	-8.54048E-3
-3.86443E-3	-229.867E-12	613.322E-3	-31.5048E-3	-230.673E-12	602.147E-3	-13.5936E-3
-3.86943E-3	-232.314E-12	633.853E-3	-28.9106E-3	-230.309E-12	604.329E-3	12.7234E-3
-3.87444E-3	-235.052E-12	636.086E-3	-8.78495E-3	-228.856E-12	616.541E-3	76.4306E-3
-3.87944E-3	-235.728E-12	668.636E-3	17.1615E-3	-230.165E-12	648.060E-3	70.1287E-3
-3.88444E-3	-235.490E-12	697.393E-3	56.4109E-3	-229.433E-12	679.917E-3	8.17318E-3
-3.88944E-3	-235.502E-12	669.620E-3	53.3726E-3	-228.843E-12	696.832E-3	-7.43518E-3
-3.89445E-3	-235.884E-12	649.061E-3	26.7172E-3	-228.585E-12	678.479E-3	15.9155E-3
-3.89945E-3	-234.236E-12	664.936E-3	13.0054E-3	-229.563E-12	633.362E-3	55.2155E-3
-3.90445E-3	-233.239E-12	661.160E-3	-7.76159E-3	-230.384E-12	628.152E-3	57.5473E-3
-3.90945E-3	-230.064E-12	672.995E-3	-18.8190E-3	-231.124E-12	663.843E-3	27.0697E-3
-3.91446E-3	-227.640E-12	746.579E-3	4.87050E-3	-232.608E-12	668.461E-3	32.2392E-3
-3.91946E-3	-226.885E-12	771.547E-3	18.7334E-3	-232.948E-12	652.812E-3	39.3490E-3
-3.92446E-3	-226.506E-12	730.672E-3	4.89014E-3	-234.933E-12	662.457E-3	4.38043E-3
-3.92946E-3	-226.318E-12	682.228E-3	26.7999E-3	-235.862E-12	664.266E-3	-29.6032E-3
-3.93447E-3	-225.353E-12	626.947E-3	48.1498E-3	-236.371E-12	662.773E-3	-42.2366E-3
-3.93947E-3	-228.479E-12	605.063E-3	16.8357E-3	-236.686E-12	690.630E-3	-31.7648E-3
-3.94447E-3	-230.583E-12	629.209E-3	11.2789E-3	-236.304E-12	714.389E-3	-1.42766E-3
-3.94947E-3	-231.805E-12	673.016E-3	21.7459E-3	-237.444E-12	716.602E-3	15.7056E-3
-3.95448E-3	-234.831E-12	687.691E-3	-17.7421E-3	-236.346E-12	702.419E-3	28.6989E-3
-3.95948E-3	-236.640E-12	666.210E-3	-38.2855E-3	-234.723E-12	664.229E-3	25.7650E-3
-3.96448E-3	-237.123E-12	647.983E-3	-11.1118E-3	-233.314E-12	622.617E-3	-4.39064E-3
-3.96948E-3	-238.807E-12	649.559E-3	17.3664E-3	-232.338E-12	615.693E-3	-20.9691E-3
-3.97449E-3	-240.899E-12	681.645E-3	25.0516E-3	-231.388E-12	624.587E-3	-8.94899E-3
-3.97949E-3	-238.980E-12	686.247E-3	13.7097E-3	-229.859E-12	624.491E-3	24.8703E-3
-3.98449E-3	-238.817E-12	658.823E-3	4.24200E-3	-229.730E-12	641.645E-3	24.5634E-3
-3.98949E-3	-237.780E-12	681.520E-3	2.95773E-3	-229.892E-12	662.382E-3	-25.4782E-3
-3.99450E-3	-236.294E-12	717.091E-3	26.0718E-3	-231.799E-12	652.246E-3	-41.8479E-3
-3.99950E-3	-234.623E-12	704.528E-3	23.8424E-3	-232.034E-12	650.802E-3	-32.6482E-3
-4.00450E-3	-234.134E-12	675.997E-3	-3.05140E-3	-234.657E-12	674.122E-3	-44.9704E-3
-4.00950E-3	-232.980E-12	648.847E-3	16.1193E-3	-235.215E-12	709.902E-3	-37.5117E-3
-4.01451E-3	-232.188E-12	636.301E-3	27.3225E-3	-237.962E-12	740.338E-3	-21.6328E-3
-4.01951E-3	-231.720E-12	650.119E-3	4.65137E-3	-238.376E-12	717.387E-3	-59.7915E-3
-4.02451E-3	-231.066E-12	657.700E-3	-11.0878E-3	-241.034E-12	676.231E-3	-76.2594E-3
-4.02951E-3	-234.544E-12	661.735E-3	-2.38296E-3	-241.807E-12	670.029E-3	-40.8967E-3
-4.03452E-3	-236.125E-12	667.359E-3	12.8034E-3	-241.972E-12	664.756E-3	-31.6999E-3
-4.03952E-3	-237.876E-12	676.089E-3	21.8256E-3	-241.986E-12	646.614E-3	-7.11035E-3
-4.04452E-3	-237.712E-12	681.557E-3	24.1247E-3	-242.319E-12	656.049E-3	40.1140E-3
-4.04952E-3	-239.742E-12	679.063E-3	-24.7037E-3	-241.339E-12	683.196E-3	-6.10565E-3
-4.05453E-3	-241.133E-12	675.460E-3	-76.3016E-3	-238.346E-12	663.881E-3	-92.5611E-3
-4.05953E-3	-242.478E-12	639.801E-3	-75.3864E-3	-237.855E-12	633.495E-3	-83.9659E-3
-4.06453E-3	-241.141E-12	621.435E-3	-92.4500E-3	-236.580E-12	644.056E-3	-44.4732E-3
-4.06953E-3	-239.725E-12	654.502E-3	-85.2572E-3	-235.081E-12	644.869E-3	-45.8056E-3
-4.07454E-3	-241.277E-12	673.087E-3	-22.2533E-3	-234.219E-12	619.032E-3	-22.0968E-3
-4.07954E-3	-240.533E-12	662.222E-3	10.1454E-3	-234.560E-12	619.449E-3	17.1267E-3
-4.08454E-3	-239.245E-12	643.451E-3	5.42439E-3	-233.488E-12	645.665E-3	2.98923E-3
-4.08954E-3	-238.907E-12	627.005E-3	-5.96385E-3	-235.405E-12	661.160E-3	-12.4960E-3
-4.09455E-3	-237.520E-12	626.580E-3	-26.4275E-3	-237.384E-12	681.386E-3	5.78541E-3
-4.09955E-3	-238.006E-12	671.616E-3	-64.4026E-3	-238.340E-12	711.262E-3	6.02815E-3
-4.10455E-3	-238.549E-12	710.525E-3	-101.223E-3	-239.662E-12	710.620E-3	-11.1933E-3
-4.10955E-3	-238.953E-12	685.086E-3	-82.0844E-3	-243.529E-12	666.218E-3	-26.9003E-3
-4.11456E-3	-240.256E-12	655.857E-3	-16.0088E-3	-245.944E-12	625.927E-3	-37.7294E-3
-4.11956E-3	-241.684E-12	664.054E-3	28.1368E-3	-246.884E-12	637.931E-3	-48.6860E-3
-4.12456E-3	-243.476E-12	666.273E-3	27.5450E-3	-247.696E-12	685.077E-3	-51.9206E-3
-4.12956E-3	-246.222E-12	680.125E-3	-12.0073E-3	-247.934E-12	713.324E-3	-24.3352E-3
-4.13457E-3	-246.281E-12	730.215E-3	-38.0204E-3	-246.950E-12	720.046E-3	-692.809E-6
-4.13957E-3	-246.494E-12	738.543E-3	-45.4079E-3	-247.145E-12	713.729E-3	-8.01361E-3
-4.14457E-3	-246.900E-12	707.046E-3	-73.3815E-3	-245.743E-12	682.782E-3	-25.3092E-3
-4.14957E-3	-248.075E-12	711.483E-3	-86.8091E-3	-243.766E-12	634.633E-3	-54.1286E-3
-4.15458E-3	-246.063E-12	717.603E-3	-78.2786E-3	-242.596E-12	607.366E-3	-55.1395E-3
-4.15958E-3	-244.726E-12	695.319E-3	-51.9322E-3	-241.580E-12	635.558E-3	-8.72312E-3
-4.16458E-3	-243.914E-12	704.551E-3	-30.3303E-3	-240.375E-12	671.248E-3	23.6653E-3
-4.16958E-3	-243.133E-12	729.991E-3	-32.5316E-3	-240.225E-12	657.176E-3	10.7581E-3
-4.17459E-3	-241.794E-12	725.325E-3	-26.1081E-3	-240.481E-12	636.826E-3	-26.8206E-3
-4.17959E-3	-240.268E-12	701.456E-3	1.71130E-3	-240.318E-12	666.965E-3	-38.5064E-3
-4.18459E-3	-241.423E-12	692.969E-3	50.4899E-3	-241.376E-12	708.971E-3	-15.2559E-3
-4.18959E-3	-242.248E-12	683.739E-3	69.8993E-3	-242.985E-12	705.776E-3	-9.37661E-3
-4.19460E-3	-242.504E-12	657.973E-3	31.8768E-3	-243.780E-12	659.267E-3	-28.2709E-3
-4.19960E-3	-243.300E-12	643.760E-3	225.394E-6	-245.335E-12	615.747E-3	-49.7806E-3
-4.20460E-3	-245.622E-12	637.280E-3	-7.76425E-3	-246.643E-12	611.191E-3	-60.1384E-3
-4.20960E-3	-247.635E-12	653.304E-3	-20.9191E-3	-247.164E-12	639.039E-3	-36.1757E-3
-4.21461E-3	-248.738E-12	676.535E-3	-10.0166E-3	-247.635E-12	649.501E-3	13.3755E-3
-4.21961E-3	-250.166E-12	669.637E-3	-8.63715E-3	-248.751E-12	642.788E-3	24.8301E-3
-4.22461E-3	-251.438E-12	640.489E-3	-30.8645E-3	-248.953E-12	645.382E-3	-23.8820E-3
-4.22961E-3	-250.327E-12	618.553E-3	-29.9737E-3	-248.480E-12	647.400E-3	-45.3435E-3
-4.23462E-3	-251.629E-12	621.505E-3	-32.8848E-3	-247.982E-12	653.001E-3	-11.9337E-3
-4.23962E-3	-251.240E-12	628.047E-3	-30.2469E-3	-246.825E-12	658.617E-3	783.422E-6
-4.24462E-3	-248.801E-12	642.879E-3	-16.4347E-3	-247.348E-12	674.700E-3	-28.4315E-3
-4.24962E-3	-247.345E-12	664.616E-3	-37.4497E-3	-247.012E-12	709.073E-3	-26.0010E-3
-4.25463E-3	-246.372E-12	658.812E-3	-53.4380E-3	-246.710E-12	717.971E-3	-8.31065E-3
-4.25963E-3	-243.988E-12	639.432E-3	-23.5646E-3	-247.589E-12	697.735E-3	-19.4433E-3
-4.26463E-3	-243.103E-12	648.855E-3	-128.688E-6	-248.499E-12	663.152E-3	-26.3475E-3
-4.26963E-3	-243.138E-12	675.935E-3	4.43698E-3	-248.595E-12	624.529E-3	-45.5702E-3
-4.27464E-3	-243.765E-12	674.605E-3	-7.44804E-3	-248.173E-12	627.050E-3	-47.9887E-3
-4.27964E-3	-242.739E-12	635.646E-3	-28.9119E-3	-249.770E-12	654.478E-3	-4.05890E-3
-4.28464E-3	-243.605E-12	600.665E-3	-36.4712E-3	-249.807E-12	664.684E-3	6.76478E-3
-4.28964E-3	-244.222E-12	592.619E-3	-35.1167E-3	-251.217E-12	667.332E-3	-19.6732E-3
-4.29465E-3	-246.857E-12	599.103E-3	-9.25973E-3	-251.809E-12	656.257E-3	-4.31490E-3
-4.29965E-3	-248.895E-12	627.502E-3	4.55793E-3	-251.545E-12	635.103E-3	12.5409E-3
-4.30465E-3	-250.502E-12	647.012E-3	-22.7117E-3	-251.643E-12	618.917E-3	-6.24556E-3
-4.30965E-3	-250.535E-12	661.878E-3	-38.2514E-3	-251.466E-12	643.962E-3	-25.1692E-3
-4.31466E-3	-253.879E-12	676.379E-3	-36.1494E-3	-250.751E-12	698.942E-3	-47.2374E-3
-4.31966E-3	-254.885E-12	657.683E-3	-13.4401E-3	-248.786E-12	681.583E-3	-66.1830E-3
-4.32466E-3	-251.920E-12	649.723E-3	-8.67025E-3	-249.789E-12	629.026E-3	-59.0748E-3
-4.32966E-3	-251.201E-12	683.805E-3	-46.1228E-3	-248.302E-12	623.877E-3	-56.4623E-3
-4.33467E-3	-251.379E-12	712.349E-3	-45.3659E-3	-248.158E-12	622.317E-3	-74.5621E-3
-4.33967E-3	-250.666E-12	687.737E-3	-39.5056E-3	-247.956E-12	615.388E-3	-49.4853E-3
-4.34467E-3	-248.016E-12	626.494E-3	-50.9935E-3	-248.720E-12	620.923E-3	9.25433E-3
-4.34967E-3	-248.017E-12	573.429E-3	-37.3154E-3	-250.344E-12	634.490E-3	39.8663E-3
-4.35468E-3	-246.863E-12	540.547E-3	-5.16790E-3	-252.742E-12	655.587E-3	45.9777E-3
-4.35968E-3	-246.626E-12	544.604E-3	9.56056E-3	-253.052E-12	675.197E-3	27.5840E-3
-4.36468E-3	-247.371E-12	570.444E-3	-10.4739E-3	-253.432E-12	690.644E-3	2.95720E-3
-4.36968E-3	-247.159E-12	568.910E-3	2.16270E-3	-256.301E-12	671.551E-3	-5.59205E-3
-4.37469E-3	-248.576E-12	605.549E-3	29.6084E-3	-257.203E-12	649.140E-3	-5.21810E-3
-4.37969E-3	-251.638E-12	684.016E-3	9.39213E-3	-256.482E-12	670.372E-3	-18.9511E-3
-4.38469E-3	-252.858E-12	678.062E-3	-13.9300E-3	-256.856E-12	664.941E-3	-47.4739E-3
-4.38969E-3	-251.849E-12	637.792E-3	-30.6913E-3	-257.137E-12	633.109E-3	-48.5703E-3
-4.39470E-3	-255.734E-12	638.994E-3	-43.8071E-3	-257.139E-12	632.911E-3	-56.7773E-3
-4.39970E-3	-257.064E-12	633.110E-3	-33.7667E-3	-255.476E-12	646.966E-3	-81.3426E-3
-4.40470E-3	-254.973E-12	621.620E-3	-18.7597E-3	-254.271E-12	647.679E-3	-70.0757E-3
-4.40970E-3	-257.204E-12	632.483E-3	-7.07536E-3	-253.443E-12	642.891E-3	-54.7674E-3
-4.41471E-3	-256.517E-12	651.660E-3	360.004E-6	-252.044E-12	633.190E-3	-42.9787E-3
-4.41971E-3	-256.292E-12	662.134E-3	-16.0399E-3	-250.710E-12	622.269E-3	-12.1116E-3
-4.42471E-3	-253.015E-12	672.018E-3	-22.8309E-3	-251.508E-12	607.083E-3	-6.29634E-3
-4.42971E-3	-252.644E-12	673.490E-3	10.5451E-3	-252.539E-12	610.002E-3	-14.7536E-3
-4.43472E-3	-250.984E-12	626.772E-3	30.2533E-3	-252.669E-12	645.371E-3	-11.0583E-3
-4.43972E-3	-251.276E-12	599.246E-3	3.43899E-3	-252.968E-12	654.446E-3	-17.7697E-3
-4.44472E-3	-250.431E-12	638.892E-3	-38.9528E-3	-255.524E-12	640.123E-3	-10.2247E-3
-4.44972E-3	-251.550E-12	645.423E-3	-51.9449E-3	-257.898E-12	627.487E-3	-8.49156E-3
-4.45473E-3	-251.380E-12	633.170E-3	-69.6548E-3	-260.670E-12	630.815E-3	-43.9016E-3
-4.45973E-3	-253.593E-12	688.302E-3	-90.0535E-3	-259.850E-12	650.855E-3	-64.8568E-3
-4.46473E-3	-255.124E-12	710.998E-3	-94.1785E-3	-260.368E-12	685.024E-3	-36.6320E-3
-4.46973E-3	-254.728E-12	676.849E-3	-91.2946E-3	-262.242E-12	686.686E-3	13.4873E-3
-4.47474E-3	-258.964E-12	673.673E-3	-47.1068E-3	-261.440E-12	641.354E-3	24.9251E-3
-4.47974E-3	-260.665E-12	661.842E-3	-15.6683E-3	-259.912E-12	630.079E-3	-13.7249E-3
-4.48474E-3	-260.499E-12	649.785E-3	-55.9950E-3	-258.991E-12	632.723E-3	-72.1188E-3
-4.48974E-3	-260.190E-12	667.996E-3	-81.2776E-3	-258.329E-12	631.816E-3	-80.9478E-3
-4.49475E-3	-261.398E-12	662.899E-3	-42.8345E-3	-257.259E-12	644.725E-3	-23.8181E-3
-4.49975E-3	-260.811E-12	639.489E-3	-16.3900E-3	-255.472E-12	628.479E-3	6.69990E-3
-4.50475E-3	-258.976E-12	640.607E-3	-33.3688E-3	-253.474E-12	598.168E-3	-5.71688E-3
-4.50975E-3	-257.295E-12	648.569E-3	-52.9843E-3	-254.974E-12	608.901E-3	-19.0134E-3
-4.51476E-3	-255.692E-12	642.365E-3	-59.0755E-3	-255.052E-12	626.159E-3	-21.4470E-3
-4.51976E-3	-255.056E-12	632.565E-3	-55.3489E-3	-254.525E-12	620.198E-3	-13.4520E-3
-4.52476E-3	-253.607E-12	615.431E-3	-50.3332E-3	-255.986E-12	619.826E-3	-4.32036E-3
-4.52976E-3	-253.330E-12	587.398E-3	-61.8041E-3	-257.835E-12	623.664E-3	-10.9805E-3
-4.53477E-3	-253.292E-12	564.368E-3	-63.7098E-3	-259.140E-12	630.634E-3	-30.0943E-3
-4.53977E-3	-253.887E-12	563.006E-3	-47.5119E-3	-262.190E-12	646.546E-3	-29.1070E-3
-4.54477E-3	-255.796E-12	591.766E-3	-26.2421E-3	-263.687E-12	644.840E-3	-35.7156E-3
-4.54977E-3	-257.279E-12	617.722E-3	-14.8751E-3	-264.177E-12	612.495E-3	-37.9953E-3
-4.55478E-3	-258.516E-12	611.464E-3	-24.8221E-3	-265.214E-12	598.033E-3	-28.5750E-3
-4.55978E-3	-261.689E-12	604.314E-3	-32.8132E-3	-266.174E-12	657.057E-3	-62.4464E-3
-4.56478E-3	-263.066E-12	606.153E-3	-38.2452E-3	-265.051E-12	692.751E-3	-74.1941E-3
-4.56978E-3	-265.144E-12	631.060E-3	-36.7381E-3	-263.710E-12	646.119E-3	-28.8692E-3
-4.57479E-3	-267.910E-12	701.592E-3	-43.9446E-3	-263.349E-12	650.459E-3	-7.61878E-3
-4.57979E-3	-267.345E-12	714.929E-3	-71.1209E-3	-262.423E-12	688.301E-3	10.8813E-3
-4.58479E-3	-266.878E-12	643.592E-3	-104.857E-3	-260.486E-12	668.316E-3	43.3164E-3
-4.58979E-3	-266.312E-12	621.964E-3	-127.642E-3	-259.206E-12	654.729E-3	14.9153E-3
-4.59480E-3	-264.458E-12	632.707E-3	-108.981E-3	-257.756E-12	644.820E-3	-40.4530E-3
-4.59980E-3	-262.508E-12	628.233E-3	-56.3107E-3	-257.155E-12	586.150E-3	-42.5825E-3
-4.60480E-3	-262.459E-12	615.834E-3	3.81212E-3	-258.495E-12	554.794E-3	-38.1771E-3
-4.60980E-3	-260.397E-12	591.008E-3	17.7535E-3	-258.226E-12	609.940E-3	-53.9205E-3
-4.61481E-3	-260.381E-12	609.483E-3	-21.6695E-3	-258.681E-12	669.781E-3	-42.4034E-3
-4.61981E-3	-258.011E-12	633.972E-3	-29.3214E-3	-260.916E-12	657.225E-3	-38.0769E-3
-4.62481E-3	-258.654E-12	620.628E-3	-5.06790E-3	-263.298E-12	598.086E-3	-48.8854E-3
-4.62981E-3	-260.390E-12	627.570E-3	-8.28623E-3	-264.123E-12	561.640E-3	-57.5947E-3
-4.63482E-3	-261.079E-12	662.980E-3	5.10067E-3	-266.195E-12	604.484E-3	-70.8323E-3
-4.63982E-3	-261.511E-12	669.500E-3	28.8643E-3	-267.419E-12	641.816E-3	-72.5265E-3
-4.64482E-3	-263.199E-12	652.255E-3	13.3314E-3	-269.191E-12	616.973E-3	-54.2979E-3
-4.64982E-3	-264.807E-12	653.390E-3	-8.30804E-3	-268.810E-12	599.730E-3	-40.5312E-3
-4.65483E-3	-265.521E-12	626.067E-3	-32.6990E-3	-266.706E-12	571.746E-3	-53.4817E-3
-4.65983E-3	-266.188E-12	594.200E-3	-52.9618E-3	-267.560E-12	547.776E-3	-47.0138E-3
-4.66483E-3	-267.173E-12	629.975E-3	-37.7563E-3	-267.198E-12	582.344E-3	-20.1080E-3
-4.66983E-3	-268.570E-12	661.802E-3	3.10370E-3	-264.467E-12	614.921E-3	-10.7524E-3
-4.67484E-3	-267.588E-12	659.578E-3	45.7029E-3	-263.221E-12	594.317E-3	29.3111E-3
-4.67984E-3	-267.340E-12	660.758E-3	47.5831E-3	-261.940E-12	575.739E-3	61.7522E-3
-4.68484E-3	-266.179E-12	667.986E-3	-13.2837E-3	-260.222E-12	596.468E-3	10.5714E-3
-4.68984E-3	-264.715E-12	665.518E-3	-59.6568E-3	-259.396E-12	605.430E-3	-60.2816E-3
-4.69485E-3	-264.926E-12	661.622E-3	-53.8837E-3	-260.724E-12	595.567E-3	-56.1665E-3
-4.69985E-3	-263.900E-12	673.636E-3	-23.3053E-3	-261.242E-12	624.070E-3	-11.9102E-3
-4.70485E-3	-263.508E-12	655.609E-3	11.1069E-3	-263.062E-12	638.531E-3	-5.02005E-3
-4.70985E-3	-264.463E-12	615.260E-3	8.01872E-3	-264.028E-12	615.122E-3	8.32438E-3
-4.71486E-3	-265.338E-12	615.516E-3	-7.79377E-3	-265.278E-12	651.525E-3	45.8797E-3
-4.71986E-3	-264.797E-12	643.525E-3	-2.50933E-3	-267.892E-12	697.285E-3	57.0382E-3
-4.72486E-3	-266.910E-12	669.970E-3	-9.91722E-3	-270.072E-12	653.251E-3	55.8698E-3
-4.72986E-3	-268.151E-12	683.448E-3	-30.1423E-3	-269.460E-12	615.210E-3	44.8847E-3
-4.73487E-3	-269.488E-12	655.115E-3	-19.9715E-3	-269.665E-12	638.607E-3	-3.24561E-3
-4.73987E-3	-271.120E-12	619.823E-3	5.27698E-3	-271.395E-12	634.218E-3	-43.6320E-3
-4.74487E-3	-272.178E-12	636.087E-3	22.7784E-3	-271.196E-12	613.479E-3	-36.2146E-3
-4.74988E-3	-272.475E-12	671.327E-3	24.0551E-3	-268.742E-12	634.257E-3	-21.6717E-3
-4.75488E-3	-272.140E-12	665.801E-3	-11.9951E-3	-269.826E-12	644.349E-3	-4.66584E-3
-4.75988E-3	-272.619E-12	622.752E-3	-45.9924E-3	-269.780E-12	634.040E-3	21.7843E-3
-4.76488E-3	-272.543E-12	632.842E-3	-37.0068E-3	-264.575E-12	617.956E-3	29.0670E-3
-4.76988E-3	-272.585E-12	668.025E-3	-23.8069E-3	-265.288E-12	615.853E-3	-266.026E-6
-4.77489E-3	-270.194E-12	652.660E-3	-35.2186E-3	-266.369E-12	629.067E-3	-62.4377E-3
-4.77989E-3	-269.333E-12	641.042E-3	-38.1366E-3	-267.304E-12	632.754E-3	-87.5647E-3
-4.78489E-3	-268.363E-12	638.807E-3	-17.7144E-3	-266.369E-12	648.870E-3	-68.0985E-3
-4.78989E-3	-266.866E-12	623.315E-3	5.06387E-3	-268.479E-12	655.063E-3	-41.1205E-3
-4.79490E-3	-266.358E-12	619.941E-3	-13.4890E-3	-269.690E-12	680.157E-3	-15.0891E-3
-4.79990E-3	-267.711E-12	639.252E-3	-69.4179E-3	-270.377E-12	735.303E-3	-21.3181E-3
-4.80490E-3	-268.302E-12	626.296E-3	-89.2228E-3	-271.722E-12	732.798E-3	-52.5468E-3
-4.80990E-3	-271.028E-12	605.031E-3	-64.4609E-3	-273.343E-12	663.406E-3	-63.6223E-3
-4.81491E-3	-273.284E-12	624.607E-3	-39.3947E-3	-274.270E-12	618.707E-3	-31.5717E-3
-4.81991E-3	-273.602E-12	647.741E-3	-33.5110E-3	-275.184E-12	648.942E-3	10.8561E-3
-4.82491E-3	-275.887E-12	692.902E-3	-36.6071E-3	-275.104E-12	679.844E-3	21.9502E-3
-4.82991E-3	-277.515E-12	719.207E-3	3.59222E-3	-276.702E-12	648.373E-3	6.38527E-3
-4.83492E-3	-276.613E-12	676.879E-3	34.4008E-3	-274.336E-12	621.374E-3	-20.6280E-3
-4.83992E-3	-275.771E-12	608.235E-3	18.4319E-3	-273.542E-12	671.613E-3	-37.2285E-3
-4.84492E-3	-276.566E-12	574.674E-3	24.2298E-3	-272.241E-12	703.418E-3	-39.2828E-3
-4.84992E-3	-274.618E-12	604.988E-3	15.4162E-3	-273.172E-12	656.356E-3	-41.7446E-3
-4.85493E-3	-273.378E-12	642.724E-3	-36.2587E-3	-271.384E-12	628.494E-3	-16.1790E-3
-4.85993E-3	-272.744E-12	669.447E-3	-53.0850E-3	-270.965E-12	644.732E-3	22.7156E-3
-4.86493E-3	-271.369E-12	672.041E-3	-30.9830E-3	-270.286E-12	670.269E-3	22.2909E-3
-4.86993E-3	-270.130E-12	633.176E-3	675.503E-6	-271.326E-12	685.762E-3	-6.81414E-3
-4.87494E-3	-269.698E-12	626.500E-3	13.7576E-3	-273.304E-12	672.168E-3	-41.0746E-3
-4.87994E-3	-269.439E-12	644.714E-3	-10.0624E-3	-274.262E-12	639.831E-3	-45.8712E-3
-4.88494E-3	-270.119E-12	629.355E-3	-24.0320E-3	-274.482E-12	628.568E-3	-3.40779E-3
-4.88995E-3	-272.028E-12	613.361E-3	-35.4428E-3	-275.641E-12	646.130E-3	33.8304E-3
-4.89495E-3	-270.828E-12	613.611E-3	-49.6228E-3	-278.294E-12	642.523E-3	45.9624E-3
-4.89995E-3	-274.585E-12	608.852E-3	-53.0090E-3	-278.207E-12	603.706E-3	24.2058E-3
-4.90495E-3	-276.500E-12	604.962E-3	-73.3299E-3	-276.197E-12	589.516E-3	-41.0302E-3
-4.90995E-3	-276.571E-12	627.684E-3	-73.6102E-3	-277.517E-12	602.186E-3	-72.7682E-3
-4.91496E-3	-278.092E-12	645.333E-3	-40.7980E-3	-276.899E-12	631.083E-3	-58.2034E-3
-4.91996E-3	-280.765E-12	656.377E-3	-26.9480E-3	-275.651E-12	647.467E-3	-58.4313E-3
-4.92496E-3	-280.812E-12	690.805E-3	-53.0864E-3	-274.518E-12	604.711E-3	-72.5056E-3
-4.92996E-3	-279.512E-12	701.222E-3	-79.7592E-3	-274.809E-12	573.107E-3	-85.1063E-3
-4.93497E-3	-280.475E-12	661.523E-3	-83.6096E-3	-273.508E-12	569.161E-3	-70.8646E-3
-4.93997E-3	-276.378E-12	630.150E-3	-89.1334E-3	-272.543E-12	580.042E-3	-40.3225E-3
-4.94497E-3	-276.266E-12	656.326E-3	-74.7919E-3	-273.281E-12	625.661E-3	-35.3196E-3
-4.94997E-3	-275.199E-12	711.031E-3	-35.7262E-3	-272.696E-12	652.562E-3	-26.5195E-3
-4.95498E-3	-272.891E-12	721.537E-3	302.692E-6	-273.984E-12	646.082E-3	4.29787E-3
-4.95998E-3	-272.991E-12	686.729E-3	5.56389E-3	-275.384E-12	630.407E-3	10.2709E-3
-4.96498E-3	-273.158E-12	646.738E-3	-15.9619E-3	-276.678E-12	619.327E-3	-17.5401E-3
-4.96998E-3	-273.891E-12	601.106E-3	-33.2219E-3	-278.825E-12	641.430E-3	-47.3477E-3
-4.97499E-3	-273.655E-12	568.562E-3	-35.8602E-3	-281.400E-12	669.880E-3	-60.9244E-3
-4.97999E-3	-277.101E-12	581.962E-3	-32.3293E-3	-282.590E-12	654.309E-3	-43.9708E-3
-4.98499E-3	-277.390E-12	620.014E-3	-26.9618E-3	-283.120E-12	660.751E-3	-20.5664E-3
-4.98999E-3	-279.216E-12	632.115E-3	-5.66967E-3	-284.002E-12	687.013E-3	-10.6575E-3
-4.99500E-3	-280.436E-12	644.965E-3	-7.22008E-3	-284.747E-12	667.344E-3	14.9065E-3
-5.00000E-3	-282.588E-12	681.621E-3	-1.64427E-3	-283.533E-12	674.510E-3	27.1100E-3
