Experiment	bias spectroscopy	
Date	19.01.2016 19:09:45	
User		
X (m)	50.3593E-9	
Y (m)	256.509E-9	
Z (m)	-132.578E-9	
Z offset (m)	0E+0	
Settling time (s)	200E-6	
Integration time (s)	5E-3	
Z-Ctrl hold	TRUE	
Final Z (m)	N/A	
Filter type	None	
Order		
Cutoff frq		
Comment01	MnPc/Pb(111)	
Comment02	dz =00pm	
Comment03	7 Sweeps	
Comment04	MagField =0.T	
Comment05	Divider 1:10	
Comment06	Setpoint:5mV,200 pA	
Comment07	Lockin: 50uVrms,5ms,5mV	
Comment08	Gain:9; 912Hz modulation	
Comment09	T=1.06K	
Bias>Bias (V)	5E-3	
Bias>Calibration (V/V)	81.475E-3	
Bias>Offset (V)	1.046E-3	
Bias Spectroscopy>Sweep Start (V)	5E-3	
Bias Spectroscopy>Sweep End (V)	-5E-3	
Bias Spectroscopy>Num Pixel	2000	
Bias Spectroscopy>Z Avg time (s)	500E-3	
Bias Spectroscopy>Z offset (m)	0E+0	
Bias Spectroscopy>1st Settling time (s)	500E-3	
Bias Spectroscopy>Settling time (s)	200E-6	
Bias Spectroscopy>Integration time (s)	5E-3	
Bias Spectroscopy>End Settling time (s)	500E-3	
Bias Spectroscopy>Z control time (s)	500E-3	
Bias Spectroscopy>Max Slew rate (V/s)	Inf	
Bias Spectroscopy>backward sweep	TRUE	
Bias Spectroscopy>Z-controller hold	TRUE	
Bias Spectroscopy>Number of sweeps	7	
Bias Spectroscopy>Channels	Current (A);X% LockIn (V);Y% LockIn (V)	
Bias Spectroscopy>Reset Bias	TRUE	
Bias Spectroscopy>Record final Z	FALSE	
Bias Spectroscopy>Lock-In run	FALSE	
Bias Spectroscopy>Sweep mode	Linear	
Bias Spectroscopy>MultiLine Settings : Segment Start (V), Segment End (V), Settling (s), Integration (s), Steps (xn)	100E-3,3.3E-3,100E-6,10E-3,2500;3.3E-3,-3.3E-3,100E-6,10E-3,10;-3.3E-3,-100E-3,100E-6,10E-3,2500	
Current>Current (A)	200.475E-12	
Current>Calibration (A/V)	999.99900E-12	
Current>Offset (A)	-455.429E-15	
Current>Gain	LN 10^9	
Z-Controller>Z (m)	-132.575E-9	
Z-Controller>Controller name	log Current	
Z-Controller>Controller status	ON	
Z-Controller>Setpoint	200E-12	
Z-Controller>Setpoint unit	A	
Z-Controller>P gain	2.96994E-12	
Z-Controller>I gain	67.0321E-9	
Z-Controller>Time const (s)	44.3062E-6	
Z-Controller>TipLift (m)	0E+0	
Z-Controller>Switch off delay (s)	50E-3	
Current (A)	201.323E-12	
Z (m)	-132.575E-9	

[DATA]
Bias calc (V)	Current (A)	X% LockIn (V)	Y% LockIn (V)	Current [bwd] (A)	X% LockIn [bwd] (V)	Y% LockIn [bwd] (V)
5.00000E-3	201.088E-12	570.388E-3	-19.0390E-3	201.224E-12	562.291E-3	-24.0264E-3
4.99500E-3	201.619E-12	597.784E-3	-28.4813E-3	200.408E-12	566.132E-3	-7.90626E-3
4.98999E-3	200.345E-12	615.730E-3	-33.4234E-3	199.264E-12	543.753E-3	-14.1789E-3
4.98499E-3	199.850E-12	603.248E-3	-16.0193E-3	198.148E-12	530.859E-3	-11.7597E-3
4.97999E-3	198.336E-12	599.370E-3	14.4361E-3	197.003E-12	538.490E-3	8.79114E-3
4.97499E-3	198.555E-12	605.387E-3	33.6626E-3	195.145E-12	533.858E-3	14.8749E-3
4.96998E-3	197.824E-12	602.990E-3	22.7800E-3	194.520E-12	551.516E-3	5.58996E-3
4.96498E-3	195.985E-12	599.183E-3	3.32501E-3	194.243E-12	585.153E-3	1.15083E-3
4.95998E-3	194.870E-12	580.221E-3	-10.4078E-3	192.703E-12	590.230E-3	1.46616E-3
4.95498E-3	194.455E-12	570.583E-3	-29.8006E-3	191.467E-12	570.940E-3	17.9148E-3
4.94997E-3	193.149E-12	583.061E-3	-32.2486E-3	192.103E-12	561.036E-3	31.7152E-3
4.94497E-3	193.361E-12	577.461E-3	-34.5841E-3	192.997E-12	572.380E-3	22.1541E-3
4.93997E-3	193.197E-12	559.559E-3	-33.1104E-3	193.317E-12	588.872E-3	5.07961E-3
4.93497E-3	192.804E-12	550.164E-3	-5.31893E-3	193.602E-12	597.819E-3	-6.61865E-3
4.92996E-3	194.199E-12	543.629E-3	12.9899E-3	194.608E-12	606.420E-3	-478.865E-6
4.92496E-3	195.611E-12	544.065E-3	-5.40764E-3	196.288E-12	609.330E-3	-7.06636E-3
4.91996E-3	196.037E-12	555.123E-3	-26.0590E-3	197.517E-12	610.739E-3	-20.6259E-3
4.91496E-3	195.874E-12	558.917E-3	-46.5698E-3	198.772E-12	633.961E-3	-25.2835E-3
4.90995E-3	196.820E-12	556.945E-3	-61.1114E-3	199.115E-12	631.589E-3	-47.8787E-3
4.90495E-3	197.929E-12	576.932E-3	-36.5142E-3	199.138E-12	595.643E-3	-56.3864E-3
4.89995E-3	198.077E-12	585.497E-3	-7.54265E-3	199.180E-12	561.520E-3	-40.8632E-3
4.89495E-3	197.085E-12	576.935E-3	-1.00143E-3	198.595E-12	531.670E-3	-39.7672E-3
4.88995E-3	195.849E-12	574.499E-3	-6.62713E-3	197.415E-12	517.851E-3	-56.3417E-3
4.88494E-3	196.373E-12	580.747E-3	-7.08248E-3	196.746E-12	531.323E-3	-50.3921E-3
4.87994E-3	196.458E-12	591.348E-3	-19.6554E-3	195.620E-12	556.011E-3	-9.93069E-3
4.87494E-3	195.207E-12	589.101E-3	-29.6573E-3	193.817E-12	581.422E-3	17.0640E-3
4.86993E-3	194.665E-12	574.883E-3	-26.4371E-3	192.308E-12	598.219E-3	9.52823E-3
4.86493E-3	193.545E-12	564.616E-3	-43.2905E-3	190.445E-12	593.414E-3	-3.99689E-3
4.85993E-3	193.569E-12	577.226E-3	-48.0794E-3	189.312E-12	583.538E-3	-9.83187E-3
4.85493E-3	192.957E-12	587.038E-3	-23.0537E-3	189.155E-12	580.764E-3	-22.8481E-3
4.84992E-3	192.479E-12	579.033E-3	-16.1455E-3	188.765E-12	573.516E-3	-34.0019E-3
4.84492E-3	191.379E-12	568.478E-3	-38.7643E-3	188.354E-12	562.345E-3	-38.5681E-3
4.83992E-3	191.915E-12	556.277E-3	-53.6344E-3	188.260E-12	545.892E-3	-48.6344E-3
4.83492E-3	192.050E-12	544.439E-3	-44.8705E-3	189.049E-12	544.705E-3	-28.3439E-3
4.82991E-3	191.364E-12	551.040E-3	-30.7851E-3	189.678E-12	573.981E-3	1.63082E-3
4.82491E-3	191.221E-12	563.625E-3	-1.15426E-3	190.517E-12	595.944E-3	-3.75288E-3
4.81991E-3	191.148E-12	574.989E-3	41.7395E-3	191.318E-12	598.578E-3	-11.0361E-3
4.81491E-3	191.168E-12	593.660E-3	42.1461E-3	191.953E-12	595.901E-3	-1.10791E-3
4.80990E-3	191.408E-12	602.301E-3	13.6609E-3	192.649E-12	600.367E-3	-5.80177E-3
4.80490E-3	192.489E-12	596.122E-3	4.70149E-3	192.897E-12	604.104E-3	-16.8001E-3
4.79990E-3	192.393E-12	583.225E-3	18.8169E-3	192.524E-12	601.047E-3	-8.67896E-3
4.79490E-3	192.225E-12	578.127E-3	24.8476E-3	193.331E-12	600.459E-3	2.62863E-3
4.78989E-3	192.475E-12	574.416E-3	5.31658E-3	193.440E-12	580.351E-3	-934.091E-6
4.78489E-3	192.440E-12	578.945E-3	-25.7243E-3	192.969E-12	552.003E-3	-21.4726E-3
4.77989E-3	192.019E-12	576.955E-3	-30.5181E-3	191.921E-12	545.239E-3	-39.6691E-3
4.77489E-3	191.709E-12	553.284E-3	-11.3609E-3	191.427E-12	566.626E-3	-33.0062E-3
4.76988E-3	191.066E-12	548.379E-3	-17.8788E-3	189.284E-12	588.299E-3	-5.52510E-3
4.76488E-3	190.359E-12	571.118E-3	-41.1971E-3	189.384E-12	573.407E-3	16.7206E-3
4.75988E-3	189.324E-12	580.683E-3	-42.1106E-3	188.001E-12	553.490E-3	10.9333E-3
4.75488E-3	188.483E-12	573.370E-3	-15.6980E-3	187.462E-12	550.166E-3	-14.9965E-3
4.74988E-3	187.086E-12	554.087E-3	6.72276E-3	187.116E-12	552.514E-3	-48.4922E-3
4.74487E-3	186.867E-12	529.634E-3	4.21868E-3	186.728E-12	552.715E-3	-72.4619E-3
4.73987E-3	186.221E-12	528.368E-3	-26.6163E-3	186.200E-12	541.098E-3	-50.2653E-3
4.73487E-3	185.679E-12	529.690E-3	-37.4540E-3	186.445E-12	538.509E-3	-7.74869E-3
4.72986E-3	184.908E-12	521.539E-3	-14.0424E-3	185.812E-12	553.260E-3	-522.670E-6
4.72486E-3	185.323E-12	537.977E-3	-4.44464E-3	185.528E-12	567.131E-3	-16.7499E-3
4.71986E-3	184.707E-12	584.411E-3	-13.0450E-3	186.018E-12	568.507E-3	-22.7286E-3
4.71486E-3	184.583E-12	587.091E-3	-35.0622E-3	186.714E-12	555.750E-3	-24.4027E-3
4.70985E-3	185.724E-12	553.062E-3	-70.2455E-3	186.003E-12	551.505E-3	-25.6825E-3
4.70485E-3	186.542E-12	540.275E-3	-66.6316E-3	186.371E-12	550.468E-3	-57.9611E-3
4.69985E-3	187.582E-12	545.823E-3	-13.7070E-3	187.264E-12	558.681E-3	-87.1928E-3
4.69485E-3	187.811E-12	568.482E-3	9.30953E-3	187.433E-12	598.279E-3	-51.0812E-3
4.68984E-3	188.744E-12	587.381E-3	2.90295E-3	187.403E-12	613.095E-3	-8.48581E-3
4.68484E-3	188.932E-12	586.375E-3	-4.58637E-3	188.061E-12	578.680E-3	173.017E-6
4.67984E-3	188.789E-12	585.009E-3	-23.1768E-3	187.592E-12	560.089E-3	-9.73574E-3
4.67484E-3	188.755E-12	587.492E-3	-49.6328E-3	187.565E-12	583.968E-3	-28.6741E-3
4.66983E-3	187.507E-12	583.912E-3	-40.7895E-3	186.245E-12	587.033E-3	-35.8969E-3
4.66483E-3	186.968E-12	595.569E-3	-7.00476E-3	186.349E-12	565.342E-3	-35.7174E-3
4.65983E-3	186.479E-12	606.835E-3	-4.83178E-3	185.070E-12	576.368E-3	-26.3608E-3
4.65483E-3	184.521E-12	598.000E-3	-1.91117E-3	184.710E-12	588.877E-3	-2.00067E-3
4.64982E-3	183.633E-12	587.115E-3	-405.196E-6	184.252E-12	585.946E-3	-1.87174E-3
4.64482E-3	182.978E-12	582.892E-3	-10.0771E-3	183.457E-12	580.261E-3	-30.7081E-3
4.63982E-3	181.508E-12	559.884E-3	-14.2959E-3	182.552E-12	562.340E-3	-50.8197E-3
4.63482E-3	181.046E-12	538.705E-3	-25.9345E-3	181.584E-12	557.727E-3	-44.0232E-3
4.62981E-3	180.324E-12	553.187E-3	-41.5949E-3	181.174E-12	579.764E-3	-14.1315E-3
4.62481E-3	180.530E-12	565.171E-3	-38.2989E-3	181.132E-12	586.299E-3	12.0666E-3
4.61981E-3	180.974E-12	561.206E-3	-18.5393E-3	181.182E-12	563.830E-3	14.3094E-3
4.61481E-3	181.667E-12	557.277E-3	-17.7315E-3	181.098E-12	554.018E-3	14.8853E-3
4.60980E-3	183.194E-12	558.561E-3	-16.4432E-3	181.448E-12	560.244E-3	15.4284E-3
4.60480E-3	184.500E-12	561.338E-3	15.2415E-3	182.456E-12	560.315E-3	2.16012E-3
4.59980E-3	184.869E-12	585.971E-3	30.9115E-3	182.951E-12	561.847E-3	1.64537E-3
4.59480E-3	186.582E-12	605.420E-3	27.3688E-3	182.868E-12	558.051E-3	19.7033E-3
4.58979E-3	186.799E-12	588.398E-3	13.4159E-3	183.790E-12	564.970E-3	30.5037E-3
4.58479E-3	187.564E-12	565.397E-3	-13.9465E-3	184.891E-12	604.907E-3	32.3960E-3
4.57979E-3	187.678E-12	551.587E-3	-23.0440E-3	184.686E-12	619.251E-3	10.3361E-3
4.57479E-3	187.642E-12	547.778E-3	-24.8282E-3	184.769E-12	585.671E-3	-13.2600E-3
4.56978E-3	185.987E-12	569.190E-3	-25.4195E-3	184.516E-12	567.578E-3	-11.9684E-3
4.56478E-3	185.090E-12	599.710E-3	-7.88394E-3	184.623E-12	556.686E-3	-19.0777E-3
4.55978E-3	183.664E-12	599.041E-3	14.1935E-3	183.554E-12	546.944E-3	-18.5778E-3
4.55478E-3	182.532E-12	585.617E-3	21.4528E-3	183.676E-12	568.448E-3	6.26906E-6
4.54977E-3	180.788E-12	594.719E-3	16.6584E-3	181.992E-12	580.712E-3	9.28963E-3
4.54477E-3	179.577E-12	603.137E-3	-4.83542E-3	180.806E-12	580.995E-3	8.35335E-3
4.53977E-3	178.708E-12	585.744E-3	-20.8264E-3	180.882E-12	579.620E-3	-1.01852E-3
4.53477E-3	176.910E-12	578.391E-3	-12.0494E-3	180.303E-12	562.370E-3	-4.60772E-3
4.52976E-3	176.435E-12	588.294E-3	-8.14348E-3	179.490E-12	564.373E-3	-556.563E-6
4.52476E-3	176.852E-12	594.942E-3	-17.6587E-3	179.247E-12	582.850E-3	241.481E-6
4.51976E-3	176.424E-12	593.680E-3	-18.2632E-3	179.557E-12	582.541E-3	5.99309E-3
4.51476E-3	176.618E-12	595.518E-3	-18.4256E-3	179.539E-12	583.234E-3	3.14302E-3
4.50975E-3	178.059E-12	594.104E-3	-34.5018E-3	180.850E-12	576.833E-3	-1.58882E-3
4.50475E-3	178.954E-12	581.356E-3	-44.8745E-3	181.841E-12	559.898E-3	-2.65994E-3
4.49975E-3	179.109E-12	580.429E-3	-40.7192E-3	181.768E-12	572.043E-3	-10.2803E-3
4.49475E-3	180.361E-12	594.685E-3	-32.5081E-3	183.504E-12	618.737E-3	-12.0525E-3
4.48974E-3	181.492E-12	612.820E-3	-31.9016E-3	184.497E-12	643.581E-3	5.71810E-3
4.48474E-3	182.341E-12	603.568E-3	-36.3249E-3	184.543E-12	618.895E-3	5.97607E-3
4.47974E-3	182.228E-12	588.797E-3	-30.6896E-3	183.870E-12	608.595E-3	-25.6321E-3
4.47474E-3	182.772E-12	607.809E-3	-27.5943E-3	183.178E-12	611.790E-3	-32.5437E-3
4.46973E-3	182.979E-12	607.791E-3	-31.4311E-3	182.055E-12	604.404E-3	-16.6727E-3
4.46473E-3	181.500E-12	572.651E-3	-30.8950E-3	181.029E-12	593.262E-3	-19.8938E-3
4.45973E-3	179.867E-12	563.365E-3	-13.1713E-3	178.870E-12	579.323E-3	-33.1500E-3
4.45473E-3	179.404E-12	578.799E-3	-5.20579E-3	177.006E-12	579.634E-3	-28.7201E-3
4.44972E-3	178.073E-12	577.921E-3	-10.0113E-3	175.829E-12	581.816E-3	-14.9820E-3
4.44472E-3	176.500E-12	587.722E-3	4.22782E-3	174.329E-12	582.606E-3	-5.10177E-3
4.43972E-3	176.135E-12	593.076E-3	9.28977E-3	172.545E-12	569.803E-3	-12.9347E-3
4.43472E-3	175.837E-12	563.053E-3	-3.11292E-3	171.279E-12	547.090E-3	-24.4927E-3
4.42971E-3	174.569E-12	554.634E-3	-871.433E-6	171.417E-12	566.613E-3	-25.1783E-3
4.42471E-3	174.151E-12	565.144E-3	23.6956E-3	171.197E-12	589.778E-3	-38.4104E-3
4.41971E-3	174.433E-12	556.761E-3	30.5731E-3	170.627E-12	577.312E-3	-54.0195E-3
4.41471E-3	174.121E-12	569.260E-3	11.6148E-3	171.799E-12	558.900E-3	-46.3991E-3
4.40970E-3	173.609E-12	587.573E-3	-9.84697E-3	172.530E-12	545.546E-3	-21.8172E-3
4.40470E-3	174.367E-12	591.208E-3	-18.0675E-3	172.398E-12	551.215E-3	-4.47550E-3
4.39970E-3	175.497E-12	598.477E-3	2.03878E-3	174.014E-12	567.300E-3	-5.41173E-3
4.39470E-3	175.564E-12	592.454E-3	11.9702E-3	174.636E-12	571.266E-3	-26.6589E-3
4.38969E-3	176.012E-12	575.127E-3	-8.86482E-3	175.671E-12	575.322E-3	-45.8478E-3
4.38469E-3	176.759E-12	577.629E-3	-29.8604E-3	176.671E-12	581.235E-3	-41.9557E-3
4.37969E-3	177.686E-12	579.880E-3	-35.4045E-3	176.821E-12	577.705E-3	-19.9691E-3
4.37469E-3	178.171E-12	567.713E-3	-22.1137E-3	177.043E-12	559.678E-3	3.90205E-3
4.36968E-3	177.357E-12	571.354E-3	-12.9395E-3	176.679E-12	541.974E-3	22.2042E-3
4.36468E-3	176.888E-12	580.810E-3	-25.1975E-3	175.778E-12	555.704E-3	20.8733E-3
4.35968E-3	176.196E-12	590.975E-3	-39.3465E-3	174.443E-12	578.331E-3	-9.64594E-3
4.35468E-3	175.364E-12	589.355E-3	-34.5662E-3	174.528E-12	576.273E-3	-23.7016E-3
4.34967E-3	174.523E-12	568.507E-3	-31.8102E-3	172.770E-12	564.960E-3	-24.6390E-3
4.34467E-3	173.274E-12	561.784E-3	-46.2957E-3	170.923E-12	554.772E-3	-12.6103E-3
4.33967E-3	172.426E-12	565.025E-3	-41.7571E-3	170.711E-12	538.559E-3	21.7865E-3
4.33467E-3	171.831E-12	544.823E-3	-41.3801E-3	170.289E-12	531.995E-3	17.9313E-3
4.32966E-3	171.209E-12	530.993E-3	-67.3673E-3	169.045E-12	534.046E-3	-13.4220E-3
4.32466E-3	169.178E-12	555.788E-3	-72.5253E-3	169.202E-12	528.862E-3	-12.1202E-3
4.31966E-3	168.260E-12	577.452E-3	-38.5489E-3	169.172E-12	535.496E-3	-2.35885E-3
4.31466E-3	168.238E-12	568.338E-3	-18.6159E-3	168.468E-12	573.634E-3	-6.19918E-3
4.30965E-3	167.548E-12	566.181E-3	-31.3673E-3	169.716E-12	606.339E-3	-31.7556E-3
4.30465E-3	167.019E-12	580.279E-3	-45.7243E-3	170.805E-12	605.873E-3	-76.3466E-3
4.29965E-3	167.883E-12	567.036E-3	-46.9819E-3	171.454E-12	601.901E-3	-75.9512E-3
4.29465E-3	168.185E-12	535.271E-3	-33.6138E-3	171.974E-12	603.360E-3	-46.8069E-3
4.28964E-3	169.337E-12	525.956E-3	-26.2025E-3	173.075E-12	586.432E-3	-39.7499E-3
4.28464E-3	169.761E-12	557.274E-3	-6.07179E-3	173.847E-12	577.554E-3	-25.9090E-3
4.27964E-3	171.563E-12	575.496E-3	7.13580E-3	175.202E-12	586.472E-3	-591.815E-6
4.27464E-3	171.672E-12	558.346E-3	-6.20375E-3	175.107E-12	591.672E-3	-2.32170E-3
4.26963E-3	172.944E-12	558.187E-3	-9.06617E-3	173.589E-12	594.602E-3	-24.9927E-3
4.26463E-3	173.487E-12	576.454E-3	7.06450E-3	173.631E-12	586.110E-3	-22.0273E-3
4.25963E-3	174.254E-12	605.151E-3	18.3173E-3	172.498E-12	568.910E-3	-10.4768E-3
4.25463E-3	174.020E-12	611.140E-3	16.7454E-3	171.558E-12	552.554E-3	-22.4947E-3
4.24962E-3	174.704E-12	581.203E-3	4.06140E-3	169.513E-12	534.663E-3	-21.5889E-3
4.24462E-3	173.023E-12	570.018E-3	-21.5729E-3	168.597E-12	516.993E-3	-14.7292E-3
4.23962E-3	172.634E-12	593.041E-3	-16.4136E-3	168.017E-12	527.215E-3	-30.8590E-3
4.23462E-3	170.933E-12	601.374E-3	5.34702E-3	167.359E-12	546.888E-3	-35.2782E-3
4.22961E-3	169.265E-12	593.657E-3	-3.44860E-3	165.663E-12	541.149E-3	-15.6699E-3
4.22461E-3	167.367E-12	597.924E-3	-13.1773E-3	164.774E-12	555.564E-3	-5.64280E-3
4.21961E-3	166.555E-12	589.757E-3	4.63783E-3	164.223E-12	573.149E-3	-14.5014E-3
4.21461E-3	165.170E-12	567.571E-3	13.6994E-3	164.564E-12	568.630E-3	-23.8013E-3
4.20960E-3	164.161E-12	554.143E-3	-3.79460E-3	164.350E-12	576.037E-3	-29.9151E-3
4.20460E-3	163.335E-12	565.488E-3	-11.0472E-3	163.638E-12	586.225E-3	-44.9245E-3
4.19960E-3	163.363E-12	574.705E-3	9.48023E-3	164.415E-12	585.332E-3	-53.5080E-3
4.19460E-3	164.320E-12	575.643E-3	29.3899E-3	165.348E-12	573.091E-3	-50.3797E-3
4.18959E-3	165.110E-12	583.223E-3	11.7919E-3	165.518E-12	571.338E-3	-47.8432E-3
4.18459E-3	165.216E-12	574.085E-3	-22.7620E-3	165.650E-12	597.341E-3	-20.1980E-3
4.17959E-3	167.477E-12	564.788E-3	-40.7925E-3	166.422E-12	605.543E-3	4.36051E-3
4.17459E-3	169.452E-12	563.230E-3	-25.0590E-3	167.402E-12	584.715E-3	-7.66248E-3
4.16958E-3	169.579E-12	562.449E-3	-5.28646E-3	167.766E-12	588.601E-3	-19.3565E-3
4.16458E-3	170.543E-12	575.636E-3	-3.75187E-3	168.140E-12	600.921E-3	-26.9269E-3
4.15958E-3	172.823E-12	590.706E-3	5.96799E-3	167.823E-12	582.416E-3	-41.6098E-3
4.15458E-3	172.613E-12	595.066E-3	9.03102E-3	167.897E-12	560.254E-3	-55.1034E-3
4.14957E-3	171.992E-12	595.135E-3	-17.7356E-3	167.690E-12	576.791E-3	-62.6863E-3
4.14457E-3	171.727E-12	586.104E-3	-41.5358E-3	167.081E-12	586.710E-3	-65.6929E-3
4.13957E-3	169.596E-12	580.319E-3	-20.2973E-3	165.654E-12	569.076E-3	-48.1345E-3
4.13457E-3	168.434E-12	594.316E-3	-3.02019E-3	164.548E-12	571.567E-3	-7.99506E-3
4.12956E-3	167.085E-12	615.657E-3	-29.0028E-3	163.505E-12	575.512E-3	25.7496E-3
4.12456E-3	165.739E-12	615.974E-3	-46.8041E-3	163.235E-12	575.964E-3	35.8799E-3
4.11956E-3	164.021E-12	596.883E-3	-31.4934E-3	162.586E-12	573.979E-3	14.9247E-3
4.11456E-3	162.261E-12	581.278E-3	-18.7757E-3	161.648E-12	573.106E-3	-5.39879E-3
4.10955E-3	161.584E-12	558.514E-3	-36.0578E-3	160.755E-12	573.080E-3	-8.88383E-3
4.10455E-3	160.733E-12	543.325E-3	-46.1440E-3	161.158E-12	563.896E-3	-32.0862E-3
4.09955E-3	160.571E-12	552.637E-3	-16.9705E-3	161.812E-12	568.810E-3	-53.2143E-3
4.09455E-3	160.040E-12	552.806E-3	20.0016E-3	160.815E-12	587.507E-3	-55.7626E-3
4.08954E-3	160.753E-12	541.325E-3	21.3840E-3	161.020E-12	596.138E-3	-50.8697E-3
4.08454E-3	161.132E-12	546.442E-3	-10.4390E-3	162.021E-12	593.917E-3	-31.3348E-3
4.07954E-3	161.717E-12	561.444E-3	-43.5075E-3	163.456E-12	596.627E-3	-14.5894E-3
4.07454E-3	162.469E-12	562.267E-3	-32.3619E-3	163.616E-12	622.575E-3	-14.7156E-3
4.06953E-3	163.813E-12	562.310E-3	22.8639E-3	165.066E-12	642.198E-3	-10.1254E-3
4.06453E-3	164.733E-12	586.948E-3	39.7949E-3	166.531E-12	619.582E-3	13.1051E-3
4.05953E-3	164.501E-12	600.802E-3	-2.17250E-3	167.123E-12	616.363E-3	22.8744E-3
4.05453E-3	164.762E-12	594.827E-3	-24.4764E-3	166.650E-12	641.088E-3	-4.29276E-3
4.04952E-3	164.722E-12	602.682E-3	-19.2541E-3	166.906E-12	636.876E-3	-24.8537E-3
4.04452E-3	163.564E-12	629.116E-3	-17.0896E-3	165.422E-12	637.909E-3	-26.3264E-3
4.03952E-3	163.571E-12	636.999E-3	-11.5479E-3	165.094E-12	645.788E-3	-32.8770E-3
4.03452E-3	163.400E-12	600.243E-3	6.64930E-3	163.665E-12	615.251E-3	-27.9484E-3
4.02951E-3	161.756E-12	554.716E-3	21.5737E-3	161.546E-12	578.769E-3	-9.07878E-3
4.02451E-3	160.635E-12	535.535E-3	18.5365E-3	159.436E-12	567.873E-3	-6.87911E-3
4.01951E-3	160.091E-12	556.192E-3	9.39146E-3	158.971E-12	561.410E-3	-29.4373E-3
4.01451E-3	159.041E-12	594.086E-3	-8.63797E-3	157.007E-12	559.266E-3	-28.9661E-3
4.00950E-3	158.113E-12	602.023E-3	-11.7010E-3	155.132E-12	565.706E-3	-14.5633E-3
4.00450E-3	157.129E-12	587.629E-3	7.52911E-3	154.153E-12	571.986E-3	-26.5840E-3
3.99950E-3	156.621E-12	582.199E-3	11.7091E-3	153.323E-12	595.480E-3	-35.6658E-3
3.99450E-3	156.467E-12	590.629E-3	-8.72376E-3	153.250E-12	617.645E-3	-21.4958E-3
3.98949E-3	156.377E-12	597.739E-3	-34.8419E-3	153.904E-12	616.283E-3	-6.28349E-3
3.98449E-3	155.892E-12	587.536E-3	-41.4585E-3	155.574E-12	608.868E-3	-6.68789E-3
3.97949E-3	156.530E-12	582.193E-3	-31.6371E-3	156.110E-12	601.958E-3	-4.63097E-3
3.97449E-3	156.689E-12	579.058E-3	-38.2544E-3	157.472E-12	598.703E-3	-9.63347E-3
3.96948E-3	158.170E-12	565.560E-3	-46.9416E-3	159.098E-12	607.296E-3	-12.1478E-3
3.96448E-3	158.616E-12	569.766E-3	-33.7435E-3	160.681E-12	634.385E-3	8.03660E-3
3.95948E-3	158.541E-12	574.414E-3	-15.9392E-3	161.792E-12	633.934E-3	6.05995E-3
3.95448E-3	158.799E-12	562.718E-3	-14.8313E-3	162.336E-12	608.909E-3	-7.32392E-3
3.94947E-3	160.374E-12	565.276E-3	-31.6218E-3	162.837E-12	603.442E-3	-11.8516E-3
3.94447E-3	160.163E-12	581.184E-3	-27.0382E-3	163.153E-12	594.387E-3	-30.2382E-3
3.93947E-3	159.461E-12	581.134E-3	-9.95105E-3	161.979E-12	567.367E-3	-40.2497E-3
3.93447E-3	159.854E-12	587.610E-3	-3.31128E-3	159.533E-12	552.924E-3	-41.7791E-3
3.92946E-3	160.208E-12	609.111E-3	8.93213E-3	158.701E-12	576.403E-3	-49.1809E-3
3.92446E-3	159.466E-12	612.275E-3	11.4271E-3	158.182E-12	589.161E-3	-46.9253E-3
3.91946E-3	157.833E-12	611.237E-3	-470.442E-6	155.881E-12	570.466E-3	-25.2811E-3
3.91446E-3	157.241E-12	600.897E-3	-9.57059E-3	153.763E-12	566.991E-3	6.46711E-3
3.90945E-3	155.703E-12	573.960E-3	-23.7918E-3	152.878E-12	573.912E-3	30.9015E-3
3.90445E-3	154.553E-12	577.851E-3	-39.2503E-3	152.403E-12	580.045E-3	25.6086E-3
3.89945E-3	153.026E-12	604.479E-3	-42.8820E-3	150.723E-12	578.423E-3	-17.3232E-3
3.89445E-3	152.561E-12	602.585E-3	-39.2832E-3	151.050E-12	558.493E-3	-38.6225E-3
3.88944E-3	152.013E-12	585.407E-3	-30.0683E-3	150.752E-12	547.144E-3	-14.7583E-3
3.88444E-3	152.152E-12	581.311E-3	-21.1045E-3	151.350E-12	565.453E-3	6.10525E-3
3.87944E-3	151.672E-12	573.221E-3	-35.0100E-3	152.222E-12	594.709E-3	7.09124E-3
3.87444E-3	151.756E-12	554.179E-3	-57.4294E-3	153.330E-12	601.954E-3	-1.78411E-3
3.86943E-3	152.505E-12	561.148E-3	-49.3553E-3	153.802E-12	596.533E-3	-27.6844E-3
3.86443E-3	152.857E-12	581.237E-3	-24.6396E-3	155.724E-12	599.992E-3	-45.6173E-3
3.85943E-3	153.212E-12	570.071E-3	5.66670E-3	156.673E-12	595.664E-3	-37.0957E-3
3.85443E-3	154.926E-12	546.595E-3	13.9653E-3	156.717E-12	586.704E-3	-35.0357E-3
3.84942E-3	156.424E-12	556.794E-3	-3.33456E-3	157.225E-12	589.132E-3	-30.0049E-3
3.84442E-3	156.593E-12	586.900E-3	-14.5970E-3	157.190E-12	603.036E-3	-19.4084E-3
3.83942E-3	157.838E-12	581.440E-3	-22.1504E-3	156.259E-12	612.513E-3	-31.3794E-3
3.83442E-3	158.030E-12	570.816E-3	-19.9405E-3	156.011E-12	592.621E-3	-50.5224E-3
3.82941E-3	157.323E-12	600.256E-3	-19.6375E-3	155.131E-12	570.128E-3	-39.8475E-3
3.82441E-3	157.459E-12	634.799E-3	-16.2142E-3	153.970E-12	569.839E-3	-17.6607E-3
3.81941E-3	157.707E-12	629.692E-3	-6.20718E-3	151.647E-12	555.949E-3	-12.4032E-3
3.81441E-3	156.306E-12	602.713E-3	-14.9150E-3	150.685E-12	539.537E-3	1.90064E-3
3.80940E-3	154.966E-12	597.502E-3	-35.6825E-3	150.551E-12	568.423E-3	15.9194E-3
3.80440E-3	154.088E-12	616.594E-3	-49.6108E-3	148.994E-12	589.940E-3	-2.66868E-3
3.79940E-3	152.461E-12	639.472E-3	-58.8933E-3	147.483E-12	570.939E-3	-18.3679E-3
3.79440E-3	150.695E-12	628.889E-3	-50.0664E-3	147.230E-12	570.554E-3	-2.14923E-3
3.78939E-3	149.968E-12	594.307E-3	-17.1308E-3	147.714E-12	583.353E-3	13.4645E-3
3.78439E-3	149.036E-12	587.814E-3	-10.7366E-3	147.195E-12	564.794E-3	10.9222E-3
3.77939E-3	147.575E-12	590.807E-3	-25.9271E-3	147.566E-12	542.635E-3	-15.0136E-3
3.77439E-3	147.304E-12	583.173E-3	-30.6334E-3	147.625E-12	555.491E-3	-51.8707E-3
3.76938E-3	147.163E-12	574.486E-3	-35.2103E-3	148.302E-12	566.340E-3	-53.2078E-3
3.76438E-3	148.030E-12	563.053E-3	-31.1934E-3	149.048E-12	571.105E-3	-31.8528E-3
3.75938E-3	148.503E-12	567.945E-3	-30.1921E-3	149.577E-12	589.876E-3	-38.6237E-3
3.75438E-3	149.048E-12	577.564E-3	-39.6888E-3	149.740E-12	592.077E-3	-43.6207E-3
3.74937E-3	149.458E-12	578.572E-3	-39.1955E-3	150.937E-12	583.814E-3	-11.4535E-3
3.74437E-3	150.580E-12	591.117E-3	-49.3830E-3	151.665E-12	572.316E-3	1.47051E-3
3.73937E-3	151.596E-12	607.008E-3	-57.4819E-3	152.329E-12	561.466E-3	-20.3367E-3
3.73437E-3	152.176E-12	614.339E-3	-45.8572E-3	152.268E-12	581.897E-3	-27.3778E-3
3.72936E-3	152.397E-12	603.936E-3	-22.0603E-3	152.086E-12	605.064E-3	-34.9251E-3
3.72436E-3	151.980E-12	595.762E-3	-6.07347E-3	151.663E-12	606.719E-3	-45.4478E-3
3.71936E-3	152.390E-12	602.346E-3	-13.8070E-3	151.594E-12	609.548E-3	-25.3097E-3
3.71436E-3	152.168E-12	595.949E-3	-22.6648E-3	150.848E-12	619.011E-3	-8.25239E-3
3.70935E-3	151.011E-12	579.116E-3	-24.7779E-3	150.104E-12	624.971E-3	-15.7714E-3
3.70435E-3	149.736E-12	573.717E-3	-12.3241E-3	148.622E-12	613.068E-3	-24.4216E-3
3.69935E-3	149.142E-12	583.921E-3	873.840E-6	148.459E-12	589.094E-3	-34.9605E-3
3.69435E-3	148.305E-12	585.937E-3	-2.51114E-3	147.135E-12	560.316E-3	-36.5286E-3
3.68934E-3	146.406E-12	570.232E-3	-15.1870E-3	145.951E-12	545.705E-3	-5.83466E-3
3.68434E-3	145.725E-12	563.207E-3	-32.6726E-3	144.611E-12	559.027E-3	9.00454E-3
3.67934E-3	144.528E-12	563.324E-3	-26.3588E-3	145.139E-12	575.824E-3	-9.73583E-3
3.67434E-3	144.447E-12	573.836E-3	2.11836E-3	144.667E-12	582.608E-3	-20.6213E-3
3.66933E-3	144.435E-12	599.828E-3	-1.67808E-3	144.387E-12	591.051E-3	-28.2506E-3
3.66433E-3	144.822E-12	592.354E-3	-28.5600E-3	144.284E-12	582.690E-3	-28.7155E-3
3.65933E-3	144.386E-12	544.748E-3	-40.4028E-3	144.092E-12	551.440E-3	-8.18657E-3
3.65433E-3	144.706E-12	524.944E-3	-30.2420E-3	144.819E-12	560.350E-3	6.44244E-3
3.64932E-3	145.517E-12	543.343E-3	-5.97790E-3	145.351E-12	594.023E-3	-10.4673E-3
3.64432E-3	145.878E-12	555.712E-3	3.83712E-3	146.267E-12	596.397E-3	-26.1328E-3
3.63932E-3	146.697E-12	575.087E-3	-12.0110E-3	147.079E-12	603.542E-3	-20.3549E-3
3.63432E-3	146.752E-12	595.248E-3	-30.0824E-3	147.769E-12	628.797E-3	-21.7201E-3
3.62931E-3	147.343E-12	585.703E-3	-29.7603E-3	148.175E-12	626.991E-3	-32.1197E-3
3.62431E-3	146.985E-12	584.908E-3	-35.4843E-3	147.612E-12	602.862E-3	-31.5094E-3
3.61931E-3	146.529E-12	614.447E-3	-35.6130E-3	147.686E-12	586.720E-3	-20.0921E-3
3.61431E-3	146.511E-12	618.433E-3	-24.0120E-3	147.124E-12	576.970E-3	-15.5992E-3
3.60930E-3	146.447E-12	595.441E-3	-21.4254E-3	145.717E-12	576.289E-3	-19.4410E-3
3.60430E-3	144.616E-12	588.158E-3	-8.76651E-3	144.077E-12	585.158E-3	-30.1144E-3
3.59930E-3	143.565E-12	583.273E-3	991.454E-6	143.192E-12	578.120E-3	-33.7109E-3
3.59430E-3	143.057E-12	575.787E-3	-9.09557E-3	142.215E-12	558.141E-3	-28.2396E-3
3.58929E-3	141.671E-12	580.754E-3	-21.6822E-3	140.459E-12	550.920E-3	-37.2191E-3
3.58429E-3	141.033E-12	588.662E-3	-19.1775E-3	139.288E-12	546.139E-3	-40.5717E-3
3.57929E-3	141.324E-12	587.286E-3	-74.4105E-6	138.873E-12	558.854E-3	-20.6027E-3
3.57429E-3	140.458E-12	579.490E-3	10.5135E-3	138.345E-12	580.506E-3	-16.0140E-3
3.56928E-3	140.199E-12	571.483E-3	3.19429E-3	137.359E-12	572.871E-3	-32.7345E-3
3.56428E-3	140.526E-12	565.867E-3	-5.37911E-3	138.001E-12	561.801E-3	-23.5592E-3
3.55928E-3	140.442E-12	562.646E-3	-14.4523E-3	138.793E-12	572.776E-3	-4.29356E-3
3.55428E-3	140.383E-12	567.403E-3	-15.3873E-3	138.923E-12	587.670E-3	-880.693E-6
3.54927E-3	141.205E-12	577.966E-3	-5.66160E-3	140.396E-12	592.921E-3	6.12989E-3
3.54427E-3	141.907E-12	595.537E-3	-12.0832E-3	141.662E-12	599.177E-3	-3.09730E-3
3.53927E-3	142.688E-12	618.003E-3	-34.8470E-3	142.466E-12	600.446E-3	-16.6392E-3
3.53427E-3	143.222E-12	614.726E-3	-42.3702E-3	144.079E-12	607.012E-3	-10.9504E-3
3.52926E-3	143.070E-12	592.725E-3	-27.2187E-3	144.860E-12	609.999E-3	-10.0679E-3
3.52426E-3	143.246E-12	577.398E-3	-21.9518E-3	144.890E-12	582.981E-3	3.23348E-3
3.51926E-3	143.424E-12	576.339E-3	-31.3306E-3	145.288E-12	562.441E-3	15.7645E-3
3.51426E-3	143.079E-12	588.111E-3	-19.7077E-3	144.611E-12	580.032E-3	-2.95964E-3
3.50925E-3	142.296E-12	599.001E-3	6.74997E-3	143.807E-12	605.013E-3	-24.8661E-3
3.50425E-3	141.705E-12	601.652E-3	6.90134E-3	142.920E-12	612.898E-3	-32.0211E-3
3.49925E-3	140.962E-12	580.453E-3	-3.73188E-3	141.666E-12	600.009E-3	-22.2929E-3
3.49425E-3	140.173E-12	564.915E-3	-6.78185E-3	140.157E-12	562.354E-3	-5.95282E-3
3.48924E-3	139.928E-12	586.653E-3	-22.6147E-3	139.541E-12	535.827E-3	-82.3099E-6
3.48424E-3	138.627E-12	602.691E-3	-37.6225E-3	138.192E-12	553.312E-3	-16.3698E-3
3.47924E-3	137.079E-12	600.156E-3	-28.0178E-3	137.636E-12	580.122E-3	-39.2639E-3
3.47424E-3	136.960E-12	601.562E-3	-15.6924E-3	137.023E-12	581.191E-3	-29.4270E-3
3.46923E-3	136.721E-12	585.561E-3	-7.30451E-3	136.393E-12	577.641E-3	-18.6105E-3
3.46423E-3	136.047E-12	560.638E-3	6.52968E-3	136.720E-12	581.252E-3	-40.0638E-3
3.45923E-3	135.506E-12	552.227E-3	-5.33204E-3	137.393E-12	580.506E-3	-42.0274E-3
3.45423E-3	135.676E-12	561.899E-3	-35.1628E-3	137.873E-12	576.103E-3	-23.6114E-3
3.44922E-3	136.111E-12	570.310E-3	-47.2814E-3	138.807E-12	579.194E-3	-19.8558E-3
3.44422E-3	136.194E-12	561.378E-3	-34.8798E-3	139.443E-12	595.664E-3	-9.70177E-3
3.43922E-3	136.281E-12	552.559E-3	-29.4275E-3	139.630E-12	612.574E-3	860.909E-6
3.43422E-3	137.018E-12	548.943E-3	-41.9769E-3	141.122E-12	618.858E-3	-18.8643E-3
3.42921E-3	138.381E-12	567.555E-3	-41.3973E-3	141.690E-12	611.430E-3	-39.1463E-3
3.42421E-3	139.043E-12	602.499E-3	-29.4655E-3	140.904E-12	604.526E-3	-22.7523E-3
3.41921E-3	139.758E-12	613.438E-3	-13.7497E-3	140.967E-12	609.175E-3	-5.76194E-3
3.41421E-3	139.840E-12	592.946E-3	-6.71232E-3	141.491E-12	584.025E-3	-17.8262E-3
3.40920E-3	140.663E-12	576.759E-3	-19.9261E-3	139.363E-12	554.047E-3	-33.0498E-3
3.40420E-3	140.426E-12	592.706E-3	-38.6321E-3	138.447E-12	574.431E-3	-26.9906E-3
3.39920E-3	140.633E-12	620.196E-3	-43.7426E-3	137.052E-12	602.951E-3	-14.0103E-3
3.39420E-3	140.266E-12	636.975E-3	-44.1056E-3	134.907E-12	600.460E-3	-11.2373E-3
3.38919E-3	139.292E-12	626.258E-3	-30.9013E-3	134.388E-12	583.269E-3	-8.92294E-3
3.38419E-3	138.217E-12	602.109E-3	-6.36020E-3	133.250E-12	572.857E-3	-19.2667E-3
3.37919E-3	137.159E-12	599.506E-3	-3.33942E-3	132.273E-12	569.457E-3	-24.4632E-3
3.37419E-3	135.739E-12	608.143E-3	-7.86367E-3	130.659E-12	575.636E-3	-16.9897E-3
3.36918E-3	134.414E-12	610.035E-3	-29.5659E-3	130.989E-12	595.995E-3	-19.8773E-3
3.36418E-3	134.027E-12	607.515E-3	-40.0821E-3	131.515E-12	602.688E-3	-20.4314E-3
3.35918E-3	132.977E-12	594.193E-3	-14.8713E-3	131.734E-12	596.490E-3	-42.6114E-3
3.35418E-3	132.265E-12	578.515E-3	-14.2655E-3	131.327E-12	580.288E-3	-71.6784E-3
3.34917E-3	131.942E-12	576.633E-3	-12.7896E-3	132.499E-12	558.395E-3	-58.3971E-3
3.34417E-3	132.307E-12	584.764E-3	10.6879E-3	132.851E-12	569.965E-3	-35.4138E-3
3.33917E-3	132.199E-12	603.244E-3	-3.90297E-3	133.715E-12	584.152E-3	-39.2759E-3
3.33417E-3	132.663E-12	621.188E-3	-41.6422E-3	134.503E-12	584.540E-3	-31.9106E-3
3.32916E-3	133.539E-12	609.316E-3	-56.8740E-3	134.717E-12	596.642E-3	-8.43475E-3
3.32416E-3	134.496E-12	583.854E-3	-46.8030E-3	135.273E-12	594.563E-3	-19.5424E-3
3.31916E-3	135.263E-12	591.973E-3	-29.7918E-3	135.360E-12	573.364E-3	-45.7810E-3
3.31416E-3	135.974E-12	606.978E-3	-15.5704E-3	135.067E-12	567.230E-3	-41.4129E-3
3.30915E-3	136.563E-12	607.334E-3	-16.9128E-3	134.289E-12	579.670E-3	-30.1341E-3
3.30415E-3	136.845E-12	609.538E-3	-6.36624E-3	133.078E-12	573.900E-3	-27.7820E-3
3.29915E-3	136.206E-12	617.065E-3	15.0080E-3	131.766E-12	554.272E-3	-23.0161E-3
3.29415E-3	135.945E-12	617.865E-3	-2.02202E-3	130.613E-12	555.581E-3	-25.3509E-3
3.28914E-3	135.096E-12	611.732E-3	-27.3606E-3	129.449E-12	550.084E-3	-25.7289E-3
3.28414E-3	133.769E-12	612.428E-3	-33.2903E-3	128.421E-12	549.095E-3	-9.36389E-3
3.27914E-3	132.535E-12	609.212E-3	-25.0050E-3	127.841E-12	576.017E-3	328.308E-6
3.27414E-3	131.674E-12	601.066E-3	-15.6977E-3	126.938E-12	593.325E-3	-7.26596E-3
3.26913E-3	130.380E-12	604.572E-3	-18.9093E-3	127.022E-12	598.116E-3	-6.31728E-3
3.26413E-3	129.129E-12	597.378E-3	-20.8309E-3	126.577E-12	596.156E-3	-13.0301E-3
3.25913E-3	127.816E-12	564.412E-3	-23.2309E-3	126.541E-12	572.274E-3	-27.5547E-3
3.25413E-3	127.031E-12	545.176E-3	-22.7996E-3	126.395E-12	556.157E-3	-14.2715E-3
3.24912E-3	126.574E-12	546.960E-3	-4.70937E-3	127.115E-12	583.498E-3	6.52053E-3
3.24412E-3	126.940E-12	563.863E-3	-1.48414E-3	127.320E-12	607.128E-3	11.2074E-3
3.23912E-3	126.586E-12	592.224E-3	-11.3512E-3	127.259E-12	617.636E-3	3.00874E-3
3.23412E-3	127.391E-12	598.188E-3	-15.4204E-3	128.536E-12	631.073E-3	-12.8975E-3
3.22911E-3	127.609E-12	584.972E-3	-13.1068E-3	129.146E-12	607.184E-3	-18.3982E-3
3.22411E-3	128.531E-12	591.497E-3	7.69554E-3	129.239E-12	594.542E-3	-1.53087E-3
3.21911E-3	129.126E-12	608.795E-3	8.88198E-3	130.600E-12	607.417E-3	-300.676E-6
3.21411E-3	129.842E-12	605.401E-3	-10.5537E-3	130.543E-12	589.086E-3	-21.2139E-3
3.20910E-3	130.267E-12	581.341E-3	-28.1080E-3	129.825E-12	585.885E-3	-22.3393E-3
3.20410E-3	130.111E-12	564.712E-3	-34.5133E-3	130.049E-12	595.076E-3	-24.5887E-3
3.19910E-3	130.329E-12	577.333E-3	-19.6019E-3	129.945E-12	575.821E-3	-42.2547E-3
3.19410E-3	130.416E-12	597.421E-3	-10.0381E-3	128.958E-12	567.964E-3	-33.3421E-3
3.18909E-3	129.519E-12	600.156E-3	-20.9264E-3	127.833E-12	591.560E-3	-13.4537E-3
3.18409E-3	128.472E-12	599.783E-3	-36.5859E-3	126.419E-12	595.962E-3	-11.0857E-3
3.17909E-3	128.009E-12	595.898E-3	-33.9157E-3	125.795E-12	576.024E-3	-12.6381E-3
3.17409E-3	126.912E-12	574.499E-3	-26.5302E-3	124.883E-12	582.329E-3	-12.2709E-3
3.16908E-3	126.017E-12	568.896E-3	-31.1993E-3	124.738E-12	590.578E-3	-10.1109E-3
3.16408E-3	124.551E-12	580.482E-3	-24.2958E-3	124.130E-12	576.956E-3	3.74103E-3
3.15908E-3	123.514E-12	580.422E-3	-18.7311E-3	123.505E-12	575.317E-3	16.4090E-3
3.15408E-3	123.034E-12	566.317E-3	-29.7914E-3	123.351E-12	573.027E-3	-1.95101E-3
3.14907E-3	122.642E-12	551.687E-3	-32.0417E-3	123.856E-12	571.868E-3	-16.7645E-3
3.14407E-3	121.353E-12	548.199E-3	-30.3459E-3	123.154E-12	602.868E-3	-1.95959E-3
3.13907E-3	121.589E-12	538.434E-3	-28.7331E-3	123.661E-12	616.636E-3	-8.51755E-3
3.13407E-3	122.252E-12	530.434E-3	-32.5526E-3	124.574E-12	604.900E-3	-24.9645E-3
3.12906E-3	122.729E-12	548.016E-3	-39.9697E-3	125.332E-12	624.036E-3	-15.7353E-3
3.12406E-3	123.188E-12	577.612E-3	-33.0645E-3	126.286E-12	641.048E-3	-23.9678E-3
3.11906E-3	123.724E-12	592.085E-3	-14.7689E-3	127.519E-12	619.755E-3	-42.3899E-3
3.11406E-3	124.369E-12	596.605E-3	-3.88907E-3	128.155E-12	612.116E-3	-28.8017E-3
3.10905E-3	125.678E-12	605.434E-3	-11.0122E-3	128.733E-12	618.509E-3	-22.0889E-3
3.10405E-3	126.319E-12	615.179E-3	-14.1794E-3	129.922E-12	591.579E-3	-39.0290E-3
3.09905E-3	126.672E-12	615.028E-3	-5.02604E-3	129.609E-12	575.247E-3	-40.3068E-3
3.09405E-3	127.096E-12	615.317E-3	3.19056E-3	128.777E-12	608.157E-3	-37.1901E-3
3.08904E-3	127.539E-12	616.012E-3	6.47472E-3	128.545E-12	617.283E-3	-38.8098E-3
3.08404E-3	127.663E-12	620.743E-3	-10.8639E-3	127.735E-12	595.250E-3	-31.4207E-3
3.07904E-3	127.021E-12	632.972E-3	-30.8298E-3	126.051E-12	593.737E-3	-41.4423E-3
3.07404E-3	126.574E-12	626.832E-3	-21.6504E-3	124.609E-12	575.726E-3	-51.1275E-3
3.06903E-3	125.950E-12	610.212E-3	-8.91528E-3	122.925E-12	559.852E-3	-19.9105E-3
3.06403E-3	124.864E-12	609.722E-3	-3.38263E-3	121.054E-12	591.042E-3	5.89362E-3
3.05903E-3	123.842E-12	627.030E-3	-5.96513E-3	120.395E-12	593.847E-3	-6.53393E-3
3.05403E-3	122.826E-12	629.606E-3	-27.5297E-3	119.384E-12	562.285E-3	-9.77331E-3
3.04902E-3	121.601E-12	610.208E-3	-43.5707E-3	118.346E-12	574.162E-3	2.33936E-3
3.04402E-3	121.303E-12	592.925E-3	-40.4382E-3	117.978E-12	587.494E-3	-1.97255E-3
3.03902E-3	120.639E-12	587.765E-3	-33.1453E-3	119.054E-12	571.079E-3	-4.58105E-3
3.03402E-3	119.897E-12	589.791E-3	-38.6604E-3	119.395E-12	581.787E-3	-9.92073E-3
3.02901E-3	119.314E-12	591.042E-3	-41.2909E-3	118.607E-12	585.006E-3	-36.4776E-3
3.02401E-3	119.045E-12	582.943E-3	-19.1560E-3	120.325E-12	559.932E-3	-41.1603E-3
3.01901E-3	118.919E-12	569.723E-3	545.916E-6	121.645E-12	588.982E-3	-29.5014E-3
3.01401E-3	119.737E-12	577.168E-3	-11.3896E-3	121.385E-12	631.292E-3	-37.6151E-3
3.00900E-3	119.990E-12	602.327E-3	-23.0305E-3	122.589E-12	620.180E-3	-45.3294E-3
3.00400E-3	120.229E-12	625.074E-3	-19.4658E-3	123.411E-12	611.307E-3	-31.1678E-3
2.99900E-3	120.795E-12	626.344E-3	-21.6581E-3	122.225E-12	613.075E-3	-17.6520E-3
2.99400E-3	121.662E-12	618.659E-3	-30.9227E-3	122.362E-12	594.419E-3	-20.1241E-3
2.98899E-3	121.819E-12	615.787E-3	-32.6624E-3	122.159E-12	590.281E-3	-16.6350E-3
2.98399E-3	121.849E-12	616.944E-3	-16.2447E-3	121.064E-12	598.396E-3	-19.6054E-3
2.97899E-3	122.268E-12	635.557E-3	-13.8645E-3	119.485E-12	587.861E-3	-21.7202E-3
2.97399E-3	122.073E-12	637.157E-3	-30.3189E-3	118.495E-12	586.593E-3	-14.6936E-3
2.96898E-3	122.136E-12	620.368E-3	-27.7660E-3	116.608E-12	599.845E-3	-25.6301E-3
2.96398E-3	121.645E-12	624.386E-3	-13.5514E-3	115.609E-12	589.261E-3	-23.9371E-3
2.95898E-3	120.859E-12	627.872E-3	-3.98492E-3	114.093E-12	574.039E-3	-3.08409E-3
2.95398E-3	119.403E-12	609.864E-3	-5.59551E-3	113.329E-12	580.615E-3	-12.2649E-3
2.94897E-3	119.036E-12	595.775E-3	-13.2685E-3	112.855E-12	578.763E-3	-28.3362E-3
2.94397E-3	117.730E-12	604.310E-3	-4.68264E-3	112.423E-12	589.489E-3	-8.49737E-3
2.93897E-3	116.215E-12	614.990E-3	7.20208E-3	112.268E-12	617.966E-3	-2.08300E-3
2.93397E-3	115.230E-12	610.972E-3	13.5577E-3	112.750E-12	606.320E-3	-27.0158E-3
2.92896E-3	114.928E-12	608.708E-3	2.18958E-3	113.283E-12	585.333E-3	-32.9142E-3
2.92396E-3	114.976E-12	609.850E-3	-16.7462E-3	113.985E-12	602.640E-3	-29.5591E-3
2.91896E-3	114.316E-12	602.430E-3	-20.4913E-3	115.296E-12	604.390E-3	-33.3850E-3
2.91396E-3	114.031E-12	599.125E-3	-22.0935E-3	115.696E-12	589.453E-3	-6.76601E-3
2.90895E-3	114.561E-12	600.223E-3	-18.2453E-3	116.051E-12	605.943E-3	214.076E-6
2.90395E-3	114.983E-12	588.330E-3	-17.3057E-3	117.610E-12	612.122E-3	-36.5234E-3
2.89895E-3	115.078E-12	572.551E-3	-19.1238E-3	118.305E-12	604.507E-3	-28.3874E-3
2.89395E-3	115.609E-12	572.722E-3	-20.9922E-3	118.339E-12	628.805E-3	2.28937E-3
2.88894E-3	116.180E-12	576.032E-3	-27.2003E-3	118.750E-12	638.930E-3	-3.85172E-3
2.88394E-3	116.403E-12	586.081E-3	-13.1256E-3	118.273E-12	611.377E-3	-11.7529E-3
2.87894E-3	116.949E-12	600.904E-3	6.23683E-3	118.157E-12	592.244E-3	-11.8228E-3
2.87394E-3	117.036E-12	606.890E-3	9.03360E-3	117.114E-12	585.373E-3	-29.5506E-3
2.86893E-3	116.974E-12	614.806E-3	610.456E-6	115.887E-12	580.029E-3	-34.0007E-3
2.86393E-3	117.111E-12	622.810E-3	253.959E-6	115.042E-12	594.807E-3	-27.7179E-3
2.85893E-3	116.525E-12	630.440E-3	8.24868E-3	114.860E-12	603.735E-3	-37.5584E-3
2.85393E-3	115.706E-12	634.977E-3	3.16997E-3	113.485E-12	596.615E-3	-43.8914E-3
2.84892E-3	114.488E-12	617.191E-3	-8.46111E-3	112.294E-12	614.490E-3	-43.7523E-3
2.84392E-3	113.366E-12	593.704E-3	-10.2624E-3	111.948E-12	619.414E-3	-44.7463E-3
2.83892E-3	112.640E-12	587.415E-3	-13.8179E-3	111.609E-12	600.514E-3	-32.9191E-3
2.83392E-3	112.142E-12	595.648E-3	-19.6071E-3	111.080E-12	611.080E-3	-1.40793E-3
2.82891E-3	111.124E-12	604.104E-3	-17.2237E-3	111.258E-12	616.052E-3	3.55033E-3
2.82391E-3	110.525E-12	597.907E-3	-9.30532E-3	111.203E-12	594.528E-3	-11.5019E-3
2.81891E-3	110.556E-12	576.220E-3	4.24322E-3	111.423E-12	591.084E-3	-711.138E-6
2.81391E-3	110.280E-12	564.595E-3	-9.35811E-3	112.590E-12	605.000E-3	-4.24632E-3
2.80890E-3	110.665E-12	576.715E-3	-38.3080E-3	112.542E-12	613.140E-3	-25.1261E-3
2.80390E-3	110.598E-12	585.889E-3	-32.1444E-3	112.709E-12	613.089E-3	-19.9461E-3
2.79890E-3	111.041E-12	586.551E-3	-22.1463E-3	113.701E-12	609.036E-3	-18.4435E-3
2.79390E-3	111.952E-12	588.406E-3	-34.1034E-3	113.928E-12	585.744E-3	-31.1040E-3
2.78889E-3	112.153E-12	594.125E-3	-27.6860E-3	114.059E-12	569.705E-3	-19.5483E-3
2.78389E-3	112.699E-12	598.339E-3	-4.85013E-3	113.928E-12	586.985E-3	-21.7031E-3
2.77889E-3	112.977E-12	590.078E-3	296.020E-6	114.020E-12	597.280E-3	-37.0488E-3
2.77389E-3	113.227E-12	591.438E-3	-7.08556E-3	113.341E-12	592.574E-3	-10.6533E-3
2.76888E-3	113.042E-12	613.342E-3	-12.1059E-3	112.253E-12	597.805E-3	434.239E-6
2.76388E-3	112.562E-12	634.757E-3	-7.27993E-3	111.681E-12	595.003E-3	-27.0745E-3
2.75888E-3	111.390E-12	647.775E-3	-5.37830E-3	110.728E-12	594.313E-3	-37.3406E-3
2.75388E-3	111.557E-12	637.317E-3	-6.51814E-3	109.859E-12	617.461E-3	-27.8441E-3
2.74887E-3	111.178E-12	613.716E-3	-11.3389E-3	108.263E-12	617.871E-3	-19.8178E-3
2.74387E-3	109.793E-12	605.594E-3	-27.4324E-3	107.568E-12	592.052E-3	-10.7453E-3
2.73887E-3	109.572E-12	608.665E-3	-33.1642E-3	106.879E-12	598.614E-3	-5.05233E-3
2.73387E-3	109.124E-12	613.430E-3	-29.6208E-3	106.697E-12	616.620E-3	-12.1974E-3
2.72886E-3	107.754E-12	621.583E-3	-23.0758E-3	105.743E-12	607.495E-3	-28.1340E-3
2.72386E-3	107.311E-12	619.888E-3	-8.66235E-3	105.599E-12	593.055E-3	-32.3465E-3
2.71886E-3	107.233E-12	610.356E-3	-4.34696E-3	105.801E-12	580.022E-3	-17.6527E-3
2.71386E-3	107.356E-12	615.275E-3	-8.50622E-3	105.851E-12	583.807E-3	-4.13358E-3
2.70885E-3	107.211E-12	620.065E-3	-12.1102E-3	106.148E-12	615.257E-3	7.36881E-3
2.70385E-3	107.439E-12	611.558E-3	-13.2997E-3	106.756E-12	623.481E-3	5.75968E-3
2.69885E-3	107.911E-12	601.855E-3	-15.6620E-3	107.145E-12	602.745E-3	-7.50165E-3
2.69385E-3	108.421E-12	599.039E-3	-37.4163E-3	108.143E-12	597.126E-3	-16.5196E-3
2.68884E-3	108.725E-12	604.680E-3	-44.0548E-3	108.452E-12	593.542E-3	-29.8677E-3
2.68384E-3	109.123E-12	613.143E-3	-22.7337E-3	108.682E-12	591.345E-3	-19.3039E-3
2.67884E-3	109.444E-12	618.699E-3	-13.9390E-3	109.040E-12	613.219E-3	10.7605E-3
2.67384E-3	109.530E-12	618.579E-3	-17.6987E-3	109.771E-12	632.680E-3	5.37572E-3
2.66883E-3	109.488E-12	613.604E-3	-14.9751E-3	109.338E-12	630.965E-3	-19.1210E-3
2.66383E-3	109.031E-12	625.932E-3	-10.1025E-3	108.904E-12	624.345E-3	-25.2503E-3
2.65883E-3	108.628E-12	643.964E-3	-15.0456E-3	108.117E-12	612.369E-3	-27.2733E-3
2.65383E-3	108.286E-12	645.209E-3	-18.8404E-3	107.795E-12	602.127E-3	-28.3859E-3
2.64882E-3	108.325E-12	640.479E-3	-19.0655E-3	106.898E-12	616.648E-3	-14.4306E-3
2.64382E-3	107.485E-12	634.612E-3	-28.7149E-3	106.054E-12	628.473E-3	-4.63124E-3
2.63882E-3	106.630E-12	633.033E-3	-33.6271E-3	105.087E-12	606.212E-3	-7.88691E-3
2.63382E-3	106.043E-12	628.391E-3	-22.4602E-3	104.427E-12	590.805E-3	-19.4821E-3
2.62881E-3	105.555E-12	622.812E-3	-19.8516E-3	104.123E-12	608.374E-3	-31.3531E-3
2.62381E-3	104.784E-12	637.830E-3	-33.0034E-3	103.002E-12	611.741E-3	-25.3157E-3
2.61881E-3	104.012E-12	638.967E-3	-33.5352E-3	103.047E-12	602.389E-3	-15.4706E-3
2.61381E-3	103.217E-12	625.684E-3	-13.5141E-3	102.515E-12	596.670E-3	-14.9253E-3
2.60880E-3	102.670E-12	628.044E-3	187.701E-6	102.782E-12	593.848E-3	-17.6793E-3
2.60380E-3	102.815E-12	622.028E-3	-10.1179E-3	102.888E-12	619.510E-3	-17.4517E-3
2.59880E-3	102.899E-12	617.827E-3	-25.8187E-3	103.385E-12	645.553E-3	-26.1400E-3
2.59380E-3	102.603E-12	621.717E-3	-20.4495E-3	103.341E-12	636.100E-3	-43.4569E-3
2.58879E-3	102.984E-12	621.591E-3	-13.4154E-3	103.589E-12	627.474E-3	-28.5705E-3
2.58379E-3	102.547E-12	615.173E-3	-18.6057E-3	104.422E-12	628.547E-3	-5.12790E-3
2.57879E-3	102.833E-12	604.421E-3	-28.2269E-3	105.062E-12	608.170E-3	-7.45852E-3
2.57379E-3	103.238E-12	601.025E-3	-46.1091E-3	105.150E-12	587.397E-3	-4.46961E-3
2.56878E-3	103.159E-12	609.604E-3	-52.3303E-3	105.172E-12	609.004E-3	-5.20213E-3
2.56378E-3	102.633E-12	628.175E-3	-35.1063E-3	105.441E-12	635.350E-3	-11.7474E-3
2.55878E-3	103.375E-12	636.263E-3	-17.3465E-3	104.587E-12	616.040E-3	7.42132E-3
2.55378E-3	103.432E-12	634.871E-3	-8.77623E-3	104.216E-12	597.823E-3	20.7647E-3
2.54877E-3	103.088E-12	639.975E-3	-12.1673E-3	103.457E-12	603.902E-3	6.99758E-3
2.54377E-3	102.986E-12	637.621E-3	-32.9110E-3	102.304E-12	607.205E-3	-3.24946E-3
2.53877E-3	103.008E-12	623.163E-3	-38.3086E-3	101.777E-12	617.688E-3	2.21461E-3
2.53377E-3	102.728E-12	615.340E-3	-15.8463E-3	101.346E-12	623.699E-3	499.756E-6
2.52876E-3	102.292E-12	628.058E-3	-1.38906E-3	99.9109E-12	602.709E-3	-15.0388E-3
2.52376E-3	101.596E-12	634.646E-3	-10.8554E-3	98.9390E-12	596.483E-3	-21.2655E-3
2.51876E-3	101.069E-12	614.042E-3	-19.3616E-3	98.8868E-12	621.428E-3	-23.8414E-3
2.51376E-3	100.904E-12	593.848E-3	-2.82028E-3	98.3232E-12	627.897E-3	-29.1110E-3
2.50875E-3	100.167E-12	589.819E-3	8.59333E-3	98.5782E-12	613.659E-3	-36.3215E-3
2.50375E-3	99.7775E-12	606.000E-3	-1.56383E-3	98.5690E-12	605.694E-3	-38.8443E-3
2.49875E-3	99.6405E-12	615.549E-3	-1.78137E-3	98.1510E-12	601.887E-3	-42.9563E-3
2.49375E-3	99.0972E-12	609.986E-3	-4.26404E-3	98.4330E-12	613.437E-3	-52.8837E-3
2.48874E-3	99.1220E-12	618.578E-3	-21.9062E-3	99.3131E-12	628.541E-3	-52.8046E-3
2.48374E-3	99.1404E-12	631.530E-3	-26.5634E-3	99.1275E-12	622.542E-3	-45.0251E-3
2.47874E-3	98.8683E-12	638.639E-3	-24.6137E-3	98.7754E-12	612.535E-3	-37.7562E-3
2.47374E-3	98.9559E-12	646.111E-3	-30.8787E-3	99.3597E-12	606.310E-3	-26.7374E-3
2.46873E-3	98.9807E-12	643.385E-3	-31.2236E-3	99.6882E-12	606.173E-3	-15.7963E-3
2.46373E-3	98.6911E-12	621.483E-3	-12.3338E-3	99.3376E-12	628.061E-3	-10.4523E-3
2.45873E-3	98.5544E-12	601.521E-3	3.38759E-3	99.0078E-12	644.730E-3	-16.0101E-3
2.45373E-3	98.8258E-12	603.024E-3	-12.3076E-3	98.3117E-12	629.418E-3	-18.4502E-3
2.44872E-3	98.2978E-12	610.889E-3	-31.1064E-3	97.8235E-12	625.234E-3	-8.22581E-3
2.44372E-3	98.3307E-12	613.289E-3	-40.3851E-3	97.1336E-12	631.814E-3	-16.4258E-3
2.43872E-3	97.9127E-12	619.228E-3	-46.1077E-3	96.4353E-12	605.332E-3	-38.9435E-3
2.43372E-3	97.2530E-12	627.126E-3	-31.5478E-3	95.3172E-12	600.505E-3	-40.1324E-3
2.42871E-3	97.0554E-12	621.140E-3	-8.06199E-3	94.8940E-12	630.261E-3	-23.8108E-3
2.42371E-3	97.1046E-12	618.388E-3	-3.49126E-3	94.0881E-12	631.179E-3	-18.0294E-3
2.41871E-3	95.6708E-12	631.336E-3	-9.70284E-3	93.5266E-12	615.718E-3	-20.3169E-3
2.41371E-3	94.9142E-12	622.282E-3	-15.0830E-3	93.1035E-12	612.980E-3	-28.1179E-3
2.40870E-3	95.0954E-12	603.092E-3	-20.6539E-3	93.1955E-12	612.709E-3	-27.2128E-3
2.40370E-3	94.2690E-12	606.328E-3	-24.4373E-3	93.2165E-12	599.598E-3	-1.02332E-3
2.39870E-3	94.1085E-12	610.766E-3	-26.6187E-3	93.1452E-12	599.202E-3	-1.22139E-3
2.39370E-3	94.2763E-12	617.021E-3	-31.6207E-3	93.6966E-12	617.779E-3	-31.1903E-3
2.38869E-3	93.6899E-12	627.501E-3	-26.1341E-3	93.9314E-12	626.899E-3	-30.1511E-3
2.38369E-3	93.7914E-12	618.038E-3	-12.3252E-3	94.4774E-12	642.729E-3	-15.1825E-3
2.37869E-3	94.5139E-12	611.242E-3	-13.9188E-3	94.7243E-12	653.194E-3	-22.1238E-3
2.37369E-3	94.9918E-12	618.812E-3	-14.8169E-3	94.9046E-12	641.645E-3	-24.6557E-3
2.36868E-3	94.0825E-12	622.937E-3	-15.3760E-3	94.8688E-12	635.828E-3	-7.69499E-3
2.36368E-3	94.5821E-12	611.822E-3	-23.9659E-3	94.8808E-12	629.463E-3	-276.062E-6
2.35868E-3	94.9577E-12	610.150E-3	-23.9584E-3	94.1396E-12	616.520E-3	-3.89595E-3
2.35368E-3	95.0415E-12	630.737E-3	-11.7856E-3	94.0976E-12	618.473E-3	-5.10695E-3
2.34867E-3	94.6090E-12	642.875E-3	-3.99800E-3	94.1119E-12	629.405E-3	-6.60884E-3
2.34367E-3	94.4285E-12	637.367E-3	-6.86736E-3	93.6522E-12	624.677E-3	140.215E-6
2.33867E-3	93.9286E-12	628.938E-3	-9.41904E-3	93.2763E-12	619.767E-3	3.02004E-3
2.33367E-3	94.0238E-12	623.457E-3	-16.8365E-3	92.7786E-12	623.521E-3	-9.08721E-3
2.32866E-3	93.5214E-12	618.973E-3	-17.9895E-3	91.9082E-12	615.588E-3	-13.8884E-3
2.32366E-3	92.4419E-12	619.786E-3	-5.40252E-3	91.7824E-12	613.034E-3	-5.20749E-3
2.31866E-3	91.6960E-12	619.318E-3	-555.193E-6	92.0206E-12	622.995E-3	-1.77548E-3
2.31366E-3	91.5444E-12	618.899E-3	-8.79598E-3	91.4611E-12	617.285E-3	1.78551E-3
2.30865E-3	91.0676E-12	627.827E-3	-19.0040E-3	91.0329E-12	628.977E-3	8.96437E-3
2.30365E-3	90.0819E-12	639.748E-3	-12.9136E-3	91.2322E-12	658.344E-3	-9.41836E-3
2.29865E-3	89.2543E-12	636.484E-3	4.91949E-3	91.2801E-12	636.735E-3	-37.5260E-3
2.29365E-3	89.4239E-12	620.657E-3	3.87813E-3	91.1389E-12	606.491E-3	-29.9993E-3
2.28864E-3	89.6533E-12	613.074E-3	-13.6065E-3	90.9297E-12	622.432E-3	-22.0744E-3
2.28364E-3	89.4640E-12	612.273E-3	-19.2120E-3	91.1065E-12	635.581E-3	-21.0454E-3
2.27864E-3	89.6218E-12	605.009E-3	-5.13003E-3	91.1799E-12	636.528E-3	14.3261E-3
2.27364E-3	89.9659E-12	607.544E-3	14.8124E-3	91.1244E-12	647.249E-3	33.0692E-3
2.26863E-3	90.5092E-12	615.875E-3	22.9506E-3	91.1504E-12	642.430E-3	3.44918E-3
2.26363E-3	90.7564E-12	621.657E-3	19.4112E-3	90.7512E-12	638.876E-3	-30.5117E-3
2.25863E-3	90.8545E-12	629.481E-3	6.85632E-3	90.8160E-12	648.568E-3	-38.5631E-3
2.25363E-3	90.5726E-12	634.508E-3	-14.9322E-3	91.2066E-12	636.846E-3	-22.6051E-3
2.24862E-3	90.9992E-12	654.247E-3	-39.1759E-3	90.5904E-12	637.026E-3	-8.44135E-3
2.24362E-3	91.6683E-12	659.739E-3	-46.1412E-3	90.1886E-12	659.798E-3	-12.9724E-3
2.23862E-3	91.0405E-12	648.758E-3	-37.6981E-3	89.8779E-12	648.511E-3	-15.3668E-3
2.23362E-3	90.7031E-12	648.200E-3	-34.3214E-3	89.3846E-12	618.092E-3	-2.90784E-3
2.22861E-3	90.5433E-12	644.750E-3	-24.3643E-3	89.1706E-12	611.085E-3	-8.34531E-3
2.22361E-3	90.9535E-12	649.542E-3	-11.2660E-3	88.7248E-12	607.317E-3	-27.8065E-3
2.21861E-3	89.8801E-12	660.071E-3	-10.6994E-3	87.9949E-12	605.664E-3	-26.7455E-3
2.21361E-3	88.7218E-12	667.533E-3	-12.6402E-3	87.5731E-12	612.616E-3	-30.9484E-3
2.20860E-3	88.0074E-12	671.207E-3	-13.4826E-3	86.9616E-12	616.532E-3	-43.6023E-3
2.20360E-3	87.6894E-12	655.477E-3	-8.32679E-3	86.7461E-12	622.612E-3	-30.0249E-3
2.19860E-3	86.7260E-12	635.213E-3	3.86642E-3	86.4994E-12	628.934E-3	-12.0894E-3
2.19360E-3	86.0911E-12	619.890E-3	11.4627E-3	86.3040E-12	628.825E-3	-10.8209E-3
2.18859E-3	85.8760E-12	608.645E-3	3.57868E-3	86.1480E-12	621.965E-3	-14.2458E-3
2.18359E-3	85.1975E-12	608.272E-3	-14.0303E-3	85.6983E-12	615.795E-3	-20.3187E-3
2.17859E-3	85.2806E-12	617.747E-3	-17.0446E-3	85.3802E-12	609.555E-3	-27.1749E-3
2.17359E-3	85.1199E-12	633.345E-3	-13.0300E-3	85.6521E-12	605.430E-3	-22.9496E-3
2.16858E-3	84.4649E-12	642.166E-3	-11.3952E-3	85.6055E-12	624.801E-3	-18.0252E-3
2.16358E-3	84.7221E-12	634.181E-3	-10.0338E-3	85.7503E-12	650.357E-3	-23.9621E-3
2.15858E-3	84.7066E-12	621.244E-3	-15.9986E-3	85.5926E-12	641.471E-3	-33.1587E-3
2.15358E-3	84.8136E-12	623.064E-3	-18.6715E-3	85.4219E-12	634.288E-3	-37.0352E-3
2.14857E-3	84.8934E-12	640.598E-3	-10.4531E-3	85.6748E-12	644.663E-3	-36.3350E-3
2.14357E-3	85.0677E-12	658.007E-3	-8.35548E-3	85.5350E-12	632.672E-3	-34.0924E-3
2.13857E-3	84.7871E-12	658.574E-3	-17.2455E-3	85.1939E-12	623.729E-3	-23.9240E-3
2.13357E-3	85.1110E-12	637.598E-3	-8.83957E-3	84.3964E-12	640.906E-3	-16.8185E-3
2.12856E-3	84.8384E-12	635.197E-3	-3.27970E-3	84.0198E-12	639.780E-3	-16.9964E-3
2.12356E-3	84.2942E-12	662.489E-3	-12.9953E-3	83.9709E-12	616.786E-3	-6.61120E-3
2.11856E-3	84.1070E-12	665.173E-3	-15.2366E-3	83.2612E-12	614.744E-3	-1.86416E-3
2.11356E-3	84.0657E-12	644.498E-3	-19.6036E-3	82.2446E-12	614.782E-3	-14.7349E-3
2.10855E-3	83.4278E-12	629.925E-3	-18.7471E-3	81.8648E-12	604.726E-3	-14.9262E-3
2.10355E-3	83.1109E-12	620.414E-3	-9.33819E-3	81.7797E-12	609.056E-3	-9.52842E-3
2.09855E-3	83.1497E-12	625.586E-3	-8.34247E-3	81.6962E-12	605.869E-3	-23.0075E-3
2.09355E-3	82.1646E-12	641.381E-3	-4.43391E-3	81.0372E-12	591.546E-3	-27.6416E-3
2.08854E-3	81.8303E-12	649.175E-3	9.37867E-3	80.6362E-12	611.557E-3	-12.0711E-3
2.08354E-3	82.0816E-12	651.001E-3	23.6877E-3	80.7239E-12	633.605E-3	-998.065E-6
2.07854E-3	81.4024E-12	653.781E-3	31.1644E-3	81.2039E-12	624.784E-3	6.21324E-3
2.07354E-3	80.8151E-12	651.144E-3	14.8710E-3	81.0312E-12	642.362E-3	11.2441E-3
2.06853E-3	80.9411E-12	640.662E-3	-14.6258E-3	80.9130E-12	668.936E-3	-1.15331E-3
2.06353E-3	81.2173E-12	625.324E-3	-26.7345E-3	81.1618E-12	663.590E-3	-12.9448E-3
2.05853E-3	80.9274E-12	618.035E-3	-19.2811E-3	81.9449E-12	661.475E-3	-8.31024E-3
2.05353E-3	81.3261E-12	632.943E-3	-8.32210E-3	82.0495E-12	659.209E-3	-14.3435E-3
2.04852E-3	81.2536E-12	644.138E-3	-3.35254E-3	82.1466E-12	644.248E-3	-10.4255E-3
2.04352E-3	81.2966E-12	639.291E-3	-11.8606E-3	82.1441E-12	645.808E-3	3.48332E-3
2.03852E-3	81.5321E-12	642.363E-3	-25.7918E-3	82.0754E-12	647.229E-3	-17.8039E-3
2.03352E-3	81.3863E-12	648.509E-3	-25.2328E-3	81.8343E-12	635.114E-3	-37.7062E-3
2.02851E-3	81.0086E-12	637.341E-3	-13.6291E-3	81.5020E-12	644.981E-3	-25.8920E-3
2.02351E-3	81.1568E-12	624.139E-3	-13.0951E-3	80.7314E-12	667.855E-3	-18.1298E-3
2.01851E-3	81.0025E-12	628.159E-3	-24.8332E-3	79.6598E-12	662.297E-3	-15.3656E-3
2.01351E-3	80.8213E-12	640.872E-3	-31.1728E-3	79.4491E-12	640.657E-3	-4.04204E-3
2.00850E-3	80.7792E-12	654.635E-3	-30.4086E-3	78.4702E-12	627.740E-3	-6.32282E-3
2.00350E-3	80.1759E-12	663.925E-3	-23.8080E-3	77.8465E-12	619.869E-3	-13.5593E-3
1.99850E-3	79.5533E-12	666.161E-3	-16.4014E-3	77.2580E-12	622.516E-3	-8.07011E-3
1.99350E-3	79.3994E-12	661.595E-3	-25.1256E-3	76.7336E-12	632.235E-3	-5.80437E-3
1.98849E-3	78.6975E-12	654.197E-3	-35.2993E-3	76.4699E-12	636.178E-3	-10.2696E-3
1.98349E-3	77.9477E-12	644.125E-3	-22.5097E-3	76.1909E-12	630.908E-3	-5.09045E-3
1.97849E-3	77.5912E-12	640.100E-3	512.965E-6	76.1287E-12	615.509E-3	-12.6150E-3
1.97349E-3	77.5423E-12	640.366E-3	13.5237E-3	76.0993E-12	617.525E-3	-31.0451E-3
1.96848E-3	76.8263E-12	639.131E-3	-2.85904E-3	76.3935E-12	641.213E-3	-22.7464E-3
1.96348E-3	76.9969E-12	638.427E-3	-28.5090E-3	76.4123E-12	651.517E-3	-17.5518E-3
1.95848E-3	76.8637E-12	631.521E-3	-38.6596E-3	76.6365E-12	645.278E-3	-31.6520E-3
1.95348E-3	76.7345E-12	625.277E-3	-41.7292E-3	77.0106E-12	638.966E-3	-24.3777E-3
1.94847E-3	76.2137E-12	625.792E-3	-37.5252E-3	77.1908E-12	650.614E-3	1.24419E-3
1.94347E-3	76.6536E-12	645.182E-3	-19.9679E-3	77.1064E-12	667.420E-3	379.072E-6
1.93847E-3	76.3725E-12	673.442E-3	-6.47158E-3	77.1780E-12	670.098E-3	-7.53717E-3
1.93347E-3	76.4922E-12	675.676E-3	-18.9320E-3	76.7475E-12	671.943E-3	-1.65605E-3
1.92846E-3	76.8004E-12	670.181E-3	-20.3734E-3	76.7220E-12	665.120E-3	-8.43099E-3
1.92346E-3	76.4321E-12	671.080E-3	-5.91635E-3	76.2804E-12	650.548E-3	-9.63749E-3
1.91846E-3	76.2325E-12	660.817E-3	-18.4267E-3	75.4885E-12	660.137E-3	-7.25340E-3
1.91346E-3	76.4028E-12	660.643E-3	-29.8268E-3	74.9285E-12	666.577E-3	-26.3978E-3
1.90845E-3	76.2535E-12	675.205E-3	-18.6308E-3	74.5385E-12	649.053E-3	-29.3811E-3
1.90345E-3	75.4964E-12	661.596E-3	-14.5039E-3	73.9218E-12	652.727E-3	-12.9993E-3
1.89845E-3	75.4529E-12	639.521E-3	-21.5886E-3	73.4830E-12	658.419E-3	-18.2228E-3
1.89345E-3	74.8587E-12	647.419E-3	-28.1323E-3	72.5855E-12	646.915E-3	-18.1746E-3
1.88844E-3	74.2091E-12	672.513E-3	-36.5593E-3	72.2789E-12	654.775E-3	-10.9702E-3
1.88344E-3	73.8601E-12	693.416E-3	-45.7097E-3	72.3846E-12	667.700E-3	-15.2504E-3
1.87844E-3	73.0218E-12	683.664E-3	-46.8886E-3	72.1813E-12	646.614E-3	-5.91641E-3
1.87344E-3	72.4174E-12	657.414E-3	-41.4394E-3	71.7377E-12	621.968E-3	-2.64940E-3
1.86843E-3	72.1444E-12	656.941E-3	-23.5823E-3	72.0944E-12	635.303E-3	-26.5142E-3
1.86343E-3	71.6412E-12	672.734E-3	-3.50463E-3	72.3318E-12	655.479E-3	-35.9436E-3
1.85843E-3	70.7373E-12	674.378E-3	4.89261E-3	72.4514E-12	657.454E-3	-21.0795E-3
1.85343E-3	70.3356E-12	671.877E-3	14.7556E-3	72.6291E-12	663.019E-3	-20.0343E-3
1.84842E-3	70.4779E-12	670.008E-3	17.1582E-3	72.5449E-12	682.486E-3	-17.3534E-3
1.84342E-3	70.3820E-12	668.991E-3	-9.21303E-3	72.3878E-12	699.518E-3	827.872E-6
1.83842E-3	70.6084E-12	672.519E-3	-32.4005E-3	72.4531E-12	698.863E-3	1.79050E-3
1.83342E-3	71.0150E-12	656.509E-3	-25.2559E-3	72.3168E-12	680.927E-3	-10.5487E-3
1.82841E-3	71.2241E-12	626.472E-3	-14.0577E-3	72.1933E-12	669.168E-3	-15.3130E-3
1.82341E-3	71.1369E-12	627.352E-3	-10.8645E-3	71.8804E-12	673.387E-3	-22.1887E-3
1.81841E-3	71.3954E-12	658.486E-3	-12.2051E-3	71.7571E-12	668.458E-3	-23.2607E-3
1.81341E-3	71.1756E-12	679.401E-3	-15.6748E-3	71.2477E-12	664.576E-3	-11.9903E-3
1.80840E-3	70.8048E-12	676.657E-3	-26.0079E-3	70.6517E-12	680.566E-3	-14.1955E-3
1.80340E-3	70.6536E-12	664.444E-3	-35.2009E-3	70.5330E-12	682.780E-3	-14.9249E-3
1.79840E-3	70.8342E-12	661.536E-3	-27.0086E-3	70.0202E-12	672.679E-3	1.60725E-3
1.79340E-3	70.1616E-12	665.934E-3	-18.2341E-3	69.3712E-12	674.565E-3	4.61520E-3
1.78839E-3	69.9585E-12	679.595E-3	-18.0344E-3	69.2364E-12	677.058E-3	-1.94841E-3
1.78339E-3	69.6201E-12	696.881E-3	-28.6445E-3	68.8761E-12	679.715E-3	-2.17315E-3
1.77839E-3	68.9546E-12	699.777E-3	-31.9972E-3	68.3760E-12	689.862E-3	-1.41870E-3
1.77339E-3	68.5740E-12	693.193E-3	-13.0652E-3	68.4371E-12	686.964E-3	579.267E-6
1.76838E-3	67.8829E-12	691.669E-3	-2.31304E-3	68.2265E-12	668.059E-3	-6.57915E-3
1.76338E-3	67.4244E-12	692.826E-3	-10.0717E-3	67.6167E-12	667.863E-3	-18.4942E-3
1.75838E-3	67.0718E-12	678.848E-3	-16.1067E-3	67.5841E-12	685.059E-3	-24.3833E-3
1.75338E-3	67.1469E-12	671.227E-3	-12.2369E-3	67.3902E-12	690.529E-3	-27.9591E-3
1.74837E-3	66.5476E-12	686.214E-3	-8.64688E-3	67.5914E-12	694.249E-3	-15.9580E-3
1.74337E-3	66.5207E-12	686.952E-3	-10.0224E-3	67.4124E-12	696.220E-3	2.20372E-3
1.73837E-3	66.6532E-12	670.635E-3	-6.91697E-3	67.1946E-12	693.162E-3	7.49695E-3
1.73337E-3	66.9177E-12	663.532E-3	-2.67396E-3	67.4651E-12	697.250E-3	3.74347E-3
1.72836E-3	66.8199E-12	666.670E-3	-1.33445E-3	67.4298E-12	695.642E-3	-13.9716E-3
1.72336E-3	66.3376E-12	671.458E-3	468.567E-6	67.0989E-12	687.468E-3	-34.6409E-3
1.71836E-3	66.7165E-12	683.904E-3	-5.71209E-3	66.7691E-12	689.340E-3	-39.7083E-3
1.71336E-3	66.4749E-12	703.535E-3	-20.2282E-3	66.7592E-12	698.231E-3	-32.2906E-3
1.70835E-3	66.3337E-12	707.451E-3	-30.7635E-3	66.3071E-12	702.025E-3	-15.6631E-3
1.70335E-3	66.0970E-12	699.242E-3	-33.0349E-3	65.8990E-12	706.124E-3	2.10738E-3
1.69835E-3	66.0741E-12	698.408E-3	-25.2989E-3	65.6742E-12	704.353E-3	149.493E-6
1.69335E-3	65.8670E-12	699.110E-3	-12.2590E-3	65.1215E-12	702.561E-3	-14.7591E-3
1.68834E-3	65.6308E-12	701.372E-3	-9.69519E-3	64.4797E-12	717.880E-3	-19.1618E-3
1.68334E-3	65.2570E-12	704.798E-3	-21.7151E-3	63.9778E-12	723.703E-3	-21.8785E-3
1.67834E-3	65.1326E-12	706.959E-3	-33.6865E-3	63.8423E-12	702.376E-3	-26.4419E-3
1.67334E-3	64.5573E-12	717.709E-3	-37.5120E-3	63.2428E-12	682.995E-3	-12.3838E-3
1.66833E-3	63.8834E-12	722.974E-3	-28.4177E-3	62.9211E-12	677.583E-3	3.82915E-3
1.66333E-3	63.7205E-12	713.207E-3	-137.783E-6	62.1514E-12	679.477E-3	6.69525E-3
1.65833E-3	63.4625E-12	711.652E-3	11.3980E-3	61.7961E-12	692.817E-3	-3.85745E-3
1.65333E-3	63.2521E-12	717.553E-3	-14.1405E-3	61.7469E-12	707.575E-3	-26.8901E-3
1.64832E-3	62.8472E-12	713.348E-3	-39.3032E-3	61.8096E-12	699.997E-3	-35.2089E-3
1.64332E-3	62.4555E-12	704.821E-3	-45.3157E-3	61.1806E-12	690.976E-3	-33.4015E-3
1.63832E-3	62.2848E-12	704.171E-3	-42.8938E-3	61.5186E-12	705.529E-3	-33.0734E-3
1.63332E-3	62.3966E-12	706.788E-3	-36.1605E-3	61.9636E-12	712.785E-3	-20.2632E-3
1.62831E-3	61.9631E-12	709.695E-3	-25.2258E-3	61.5116E-12	712.898E-3	-5.93530E-3
1.62331E-3	61.5340E-12	714.346E-3	-18.5955E-3	61.5762E-12	724.794E-3	-21.4419E-3
1.61831E-3	61.4325E-12	704.667E-3	-15.2338E-3	61.6977E-12	720.792E-3	-44.8747E-3
1.61331E-3	61.0378E-12	695.744E-3	-18.4252E-3	61.8669E-12	709.931E-3	-23.1002E-3
1.60830E-3	61.0275E-12	702.194E-3	-18.4159E-3	61.6172E-12	719.625E-3	2.44112E-3
1.60330E-3	60.7078E-12	710.349E-3	-7.51916E-3	61.5574E-12	727.665E-3	-12.3697E-3
1.59830E-3	60.3082E-12	718.210E-3	-8.41021E-3	61.0338E-12	727.187E-3	-17.6181E-3
1.59330E-3	60.2617E-12	720.148E-3	-13.5647E-3	60.5145E-12	726.886E-3	-10.9671E-3
1.58829E-3	60.3145E-12	720.459E-3	-7.52917E-3	60.0684E-12	728.447E-3	-19.4484E-3
1.58329E-3	60.0259E-12	734.319E-3	-6.47495E-3	59.4309E-12	730.024E-3	-17.9271E-3
1.57829E-3	59.9975E-12	751.015E-3	-13.5110E-3	58.7244E-12	729.547E-3	-14.1741E-3
1.57329E-3	59.6331E-12	753.229E-3	-12.9577E-3	58.1695E-12	726.913E-3	-24.2839E-3
1.56828E-3	59.8330E-12	750.976E-3	-1.53380E-3	57.6166E-12	719.117E-3	-25.2393E-3
1.56328E-3	59.4506E-12	752.455E-3	5.77403E-3	57.4974E-12	719.274E-3	-23.6267E-3
1.55828E-3	58.7917E-12	746.525E-3	3.64233E-3	56.8861E-12	724.644E-3	-34.3059E-3
1.55328E-3	58.0194E-12	729.913E-3	-3.25007E-3	56.6651E-12	727.576E-3	-33.3985E-3
1.54827E-3	57.5794E-12	722.931E-3	-2.68596E-3	56.5835E-12	736.921E-3	-17.4251E-3
1.54327E-3	57.3016E-12	731.412E-3	7.23143E-3	56.9116E-12	734.231E-3	-9.03873E-3
1.53827E-3	56.7656E-12	739.149E-3	3.45136E-3	57.1803E-12	722.804E-3	6.71079E-3
1.53327E-3	56.3669E-12	743.606E-3	-2.09934E-3	57.1639E-12	728.398E-3	30.6306E-3
1.52826E-3	55.5477E-12	747.753E-3	4.94881E-3	57.1655E-12	750.037E-3	30.4325E-3
1.52326E-3	55.5107E-12	748.780E-3	10.7289E-3	57.6395E-12	767.418E-3	14.2357E-3
1.51826E-3	55.4112E-12	757.852E-3	59.7279E-6	57.8742E-12	770.121E-3	5.66136E-3
1.51326E-3	55.0549E-12	763.026E-3	-19.6006E-3	57.6149E-12	768.162E-3	-1.87921E-3
1.50825E-3	54.7451E-12	743.942E-3	-25.9396E-3	57.3878E-12	766.928E-3	-4.16203E-3
1.50325E-3	54.8111E-12	732.005E-3	-23.0059E-3	57.6606E-12	770.540E-3	1.89104E-3
1.49825E-3	54.7763E-12	737.446E-3	-19.3380E-3	57.3509E-12	775.722E-3	-3.49766E-3
1.49325E-3	54.5484E-12	739.918E-3	-8.98118E-3	56.7272E-12	768.816E-3	-8.72574E-3
1.48824E-3	54.7573E-12	738.516E-3	1.88133E-3	56.4752E-12	748.300E-3	-4.22603E-3
1.48324E-3	54.4088E-12	739.189E-3	2.90349E-3	56.0250E-12	730.573E-3	-20.5843E-3
1.47824E-3	54.1571E-12	740.808E-3	-4.07427E-3	55.0760E-12	727.557E-3	-40.7708E-3
1.47324E-3	54.2798E-12	740.345E-3	-17.8825E-3	54.8471E-12	737.036E-3	-28.3525E-3
1.46823E-3	54.3249E-12	752.230E-3	-18.4481E-3	54.5220E-12	728.007E-3	-17.6351E-3
1.46323E-3	53.5472E-12	759.396E-3	-21.7350E-3	54.1739E-12	703.217E-3	-16.1510E-3
1.45823E-3	53.1959E-12	739.783E-3	-39.0197E-3	53.8394E-12	705.264E-3	-811.122E-6
1.45323E-3	52.6296E-12	725.581E-3	-39.9770E-3	53.3302E-12	720.786E-3	139.239E-6
1.44822E-3	52.5937E-12	728.123E-3	-21.7647E-3	53.3706E-12	719.490E-3	-19.8225E-3
1.44322E-3	52.4477E-12	733.142E-3	-9.54980E-3	53.5797E-12	714.347E-3	-22.5093E-3
1.43822E-3	51.7863E-12	731.418E-3	-16.1982E-3	52.8426E-12	722.191E-3	-15.3357E-3
1.43322E-3	51.5318E-12	716.854E-3	-14.8556E-3	52.2620E-12	732.335E-3	-15.7293E-3
1.42821E-3	51.3827E-12	703.844E-3	-3.51811E-3	52.5826E-12	732.685E-3	-9.07157E-3
1.42321E-3	51.6437E-12	708.913E-3	5.16066E-3	52.5789E-12	727.770E-3	10.1056E-3
1.41821E-3	51.1823E-12	716.403E-3	10.7021E-3	52.1830E-12	719.955E-3	8.14750E-3
1.41321E-3	50.6302E-12	709.166E-3	6.75422E-3	51.7569E-12	712.599E-3	-14.1450E-3
1.40820E-3	50.7480E-12	700.524E-3	-284.459E-6	51.4700E-12	712.873E-3	-18.6811E-3
1.40320E-3	50.8051E-12	689.136E-3	75.1866E-6	51.1278E-12	706.254E-3	-15.0072E-3
1.39820E-3	50.4095E-12	678.624E-3	-5.89040E-3	50.9999E-12	691.739E-3	-6.60646E-3
1.39320E-3	50.4599E-12	679.250E-3	-20.0926E-3	50.3453E-12	684.845E-3	5.49426E-3
1.38819E-3	50.9264E-12	683.784E-3	-20.9320E-3	50.0298E-12	675.489E-3	-1.84838E-3
1.38319E-3	50.7079E-12	694.750E-3	-12.6030E-3	49.8800E-12	666.488E-3	-14.1121E-3
1.37819E-3	50.7832E-12	701.464E-3	-13.6867E-3	49.3065E-12	665.263E-3	-21.9375E-3
1.37319E-3	50.6761E-12	699.568E-3	-19.8609E-3	49.0702E-12	646.145E-3	-25.0317E-3
1.36818E-3	50.5010E-12	693.063E-3	-17.2227E-3	48.8261E-12	622.889E-3	-12.6321E-3
1.36318E-3	50.0662E-12	678.115E-3	-9.59327E-3	48.7081E-12	627.000E-3	-7.96636E-3
1.35818E-3	50.2724E-12	663.426E-3	-11.2753E-3	48.0586E-12	619.290E-3	-19.2653E-3
1.35318E-3	49.5687E-12	651.227E-3	-20.4227E-3	47.8568E-12	592.798E-3	-27.0945E-3
1.34817E-3	48.9481E-12	645.665E-3	-22.5175E-3	47.9151E-12	593.185E-3	-20.7513E-3
1.34317E-3	48.9011E-12	648.717E-3	-15.0671E-3	47.3872E-12	609.724E-3	-16.4011E-3
1.33817E-3	48.7198E-12	650.102E-3	-7.37902E-3	47.1272E-12	608.010E-3	-20.1173E-3
1.33317E-3	48.3601E-12	649.449E-3	-19.4286E-3	46.8093E-12	601.000E-3	-22.9751E-3
1.32816E-3	47.9772E-12	642.114E-3	-35.7089E-3	46.8864E-12	603.417E-3	-34.6888E-3
1.32316E-3	48.0236E-12	628.840E-3	-30.6378E-3	46.8310E-12	602.513E-3	-35.6485E-3
1.31816E-3	47.5353E-12	620.039E-3	-30.2673E-3	46.5793E-12	599.349E-3	-20.5974E-3
1.31316E-3	47.3723E-12	611.420E-3	-38.6109E-3	46.2466E-12	587.572E-3	-26.3036E-3
1.30815E-3	47.5000E-12	593.430E-3	-37.5399E-3	46.4387E-12	559.642E-3	-43.0928E-3
1.30315E-3	47.0518E-12	572.192E-3	-29.8111E-3	46.7739E-12	548.360E-3	-33.5074E-3
1.29815E-3	46.4594E-12	567.345E-3	-22.7178E-3	46.4992E-12	557.613E-3	-17.7153E-3
1.29315E-3	46.7767E-12	574.411E-3	-14.5412E-3	45.9652E-12	549.379E-3	-28.9992E-3
1.28814E-3	46.8428E-12	585.743E-3	-8.13948E-3	46.4502E-12	528.286E-3	-39.3864E-3
1.28314E-3	46.1989E-12	596.342E-3	-11.8796E-3	46.3944E-12	514.715E-3	-36.6559E-3
1.27814E-3	46.0526E-12	589.078E-3	-10.8799E-3	46.0817E-12	502.110E-3	-33.2889E-3
1.27314E-3	45.7725E-12	567.673E-3	-8.33751E-3	45.7685E-12	492.883E-3	-18.7746E-3
1.26813E-3	45.6325E-12	549.286E-3	-9.72673E-3	46.1915E-12	490.382E-3	-2.67729E-3
1.26313E-3	45.1611E-12	531.357E-3	-4.50491E-3	45.6592E-12	474.038E-3	2.08619E-3
1.25813E-3	45.2454E-12	501.354E-3	-4.79354E-3	45.2743E-12	457.852E-3	-727.434E-6
1.25313E-3	45.1732E-12	481.154E-3	-8.62317E-3	45.1831E-12	465.718E-3	-9.47795E-3
1.24812E-3	44.7757E-12	487.449E-3	-8.34854E-3	45.1194E-12	470.991E-3	-27.5607E-3
1.24312E-3	44.8285E-12	489.328E-3	-21.0131E-3	44.6237E-12	449.889E-3	-27.9184E-3
1.23812E-3	44.6488E-12	482.793E-3	-33.1715E-3	44.7401E-12	433.024E-3	-10.7149E-3
1.23312E-3	44.2859E-12	485.274E-3	-25.4701E-3	44.6731E-12	434.503E-3	-18.6216E-3
1.22811E-3	43.7830E-12	481.668E-3	-24.0876E-3	44.0610E-12	423.874E-3	-26.3347E-3
1.22311E-3	43.5250E-12	475.123E-3	-34.5554E-3	43.8835E-12	412.055E-3	-22.3604E-3
1.21811E-3	43.5435E-12	456.805E-3	-14.5089E-3	43.7140E-12	413.805E-3	-27.2851E-3
1.21311E-3	43.4127E-12	430.746E-3	7.07896E-3	43.4681E-12	409.344E-3	-23.4312E-3
1.20810E-3	42.8337E-12	431.422E-3	-10.1099E-3	43.5073E-12	405.121E-3	-20.6883E-3
1.20310E-3	42.7205E-12	440.141E-3	-16.3837E-3	43.1719E-12	401.381E-3	-32.3400E-3
1.19810E-3	42.7986E-12	432.676E-3	-9.66472E-3	43.2343E-12	377.321E-3	-34.9002E-3
1.19310E-3	42.5999E-12	424.014E-3	-19.4083E-3	43.8374E-12	357.524E-3	-18.0637E-3
1.18809E-3	42.4115E-12	420.998E-3	-22.4784E-3	43.9351E-12	368.642E-3	-5.57029E-3
1.18309E-3	42.1096E-12	403.914E-3	-18.3834E-3	43.2842E-12	377.672E-3	-5.88739E-3
1.17809E-3	41.9706E-12	381.293E-3	-30.3814E-3	43.2296E-12	362.166E-3	-13.7378E-3
1.17309E-3	41.9506E-12	378.573E-3	-29.9765E-3	43.4134E-12	342.296E-3	-30.3724E-3
1.16808E-3	41.6194E-12	386.213E-3	-8.75911E-3	43.2623E-12	322.650E-3	-32.7742E-3
1.16308E-3	41.3998E-12	379.424E-3	-3.86795E-3	42.9880E-12	312.316E-3	-22.6307E-3
1.15808E-3	41.5071E-12	360.968E-3	-10.5019E-3	42.9449E-12	323.792E-3	-26.3612E-3
1.15308E-3	41.8871E-12	339.072E-3	-14.5299E-3	42.4290E-12	323.263E-3	-27.2324E-3
1.14807E-3	41.7595E-12	329.410E-3	-16.7639E-3	41.8174E-12	304.716E-3	-21.2819E-3
1.14307E-3	41.9424E-12	340.659E-3	-13.1325E-3	42.0413E-12	307.083E-3	-26.2749E-3
1.13807E-3	41.7906E-12	334.733E-3	-12.5083E-3	41.9697E-12	315.633E-3	-27.7476E-3
1.13307E-3	41.5403E-12	308.472E-3	-22.1182E-3	41.1148E-12	309.210E-3	-14.4611E-3
1.12806E-3	41.6022E-12	299.075E-3	-25.7332E-3	40.7057E-12	290.410E-3	-14.0889E-3
1.12306E-3	41.6349E-12	301.384E-3	-13.6645E-3	41.0233E-12	259.838E-3	-31.3994E-3
1.11806E-3	41.1788E-12	299.682E-3	-10.8519E-3	40.8212E-12	246.012E-3	-22.4602E-3
1.11306E-3	40.9717E-12	306.492E-3	-24.5623E-3	40.3320E-12	265.464E-3	-3.21999E-3
1.10805E-3	40.9839E-12	308.127E-3	-23.1368E-3	40.7129E-12	276.189E-3	-16.2697E-3
1.10305E-3	40.8486E-12	288.980E-3	-7.65803E-3	40.7034E-12	261.457E-3	-29.2455E-3
1.09805E-3	40.9675E-12	282.207E-3	-10.5738E-3	40.7444E-12	256.623E-3	-24.3610E-3
1.09305E-3	40.6985E-12	287.339E-3	-15.3557E-3	40.8525E-12	259.551E-3	-22.6520E-3
1.08804E-3	40.7791E-12	273.987E-3	-9.42868E-3	40.5268E-12	252.003E-3	-26.0214E-3
1.08304E-3	40.6052E-12	266.580E-3	-10.1636E-3	40.3490E-12	248.943E-3	-24.6903E-3
1.07804E-3	40.8630E-12	282.123E-3	4.11167E-3	40.6179E-12	260.620E-3	-15.4437E-3
1.07304E-3	40.6110E-12	278.228E-3	14.2692E-3	40.5250E-12	273.424E-3	-6.46495E-3
1.06803E-3	40.6120E-12	258.246E-3	-9.91511E-3	39.8319E-12	281.904E-3	-9.27769E-3
1.06303E-3	40.9004E-12	260.606E-3	-23.9564E-3	39.6700E-12	277.521E-3	-15.6359E-3
1.05803E-3	40.7964E-12	263.056E-3	-15.1278E-3	39.9192E-12	253.265E-3	-8.43113E-3
1.05303E-3	40.6023E-12	258.694E-3	-22.3205E-3	39.5222E-12	233.851E-3	-3.04730E-3
1.04802E-3	40.6113E-12	261.918E-3	-25.5159E-3	39.1950E-12	230.937E-3	-15.1557E-3
1.04302E-3	40.8234E-12	252.997E-3	-10.4396E-3	38.9067E-12	239.199E-3	-22.8490E-3
1.03802E-3	40.4977E-12	237.593E-3	-6.51820E-3	38.8412E-12	252.903E-3	-17.7011E-3
1.03302E-3	40.3019E-12	242.484E-3	2.48742E-3	38.5798E-12	260.489E-3	-26.3968E-3
1.02801E-3	40.2756E-12	249.298E-3	12.7027E-3	38.6267E-12	260.539E-3	-38.9753E-3
1.02301E-3	39.9276E-12	250.102E-3	-5.92645E-3	38.3519E-12	261.865E-3	-31.2939E-3
1.01801E-3	39.2516E-12	257.500E-3	-20.2589E-3	38.3731E-12	261.881E-3	-24.9895E-3
1.01301E-3	39.2375E-12	252.812E-3	-7.32475E-3	38.6969E-12	258.484E-3	-24.6439E-3
1.00800E-3	38.9734E-12	241.931E-3	-8.73849E-3	38.6459E-12	261.149E-3	-20.6426E-3
1.00300E-3	38.5138E-12	247.334E-3	-27.7639E-3	38.1950E-12	265.225E-3	-17.6272E-3
997.999E-6	38.4393E-12	252.553E-3	-26.6887E-3	38.5984E-12	261.911E-3	-11.1626E-3
992.997E-6	38.5280E-12	251.910E-3	-24.0488E-3	38.4574E-12	266.113E-3	-7.24651E-3
987.994E-6	38.5019E-12	266.500E-3	-23.7881E-3	38.4924E-12	280.841E-3	-17.1519E-3
982.991E-6	38.3772E-12	284.932E-3	-8.60899E-3	38.8032E-12	293.816E-3	-24.9068E-3
977.989E-6	38.4469E-12	292.301E-3	-11.4641E-3	38.7433E-12	308.549E-3	-26.5267E-3
972.986E-6	38.0349E-12	301.485E-3	-25.6592E-3	38.2829E-12	318.713E-3	-26.7171E-3
967.984E-6	38.1463E-12	298.719E-3	-16.3063E-3	38.4529E-12	324.892E-3	-19.7058E-3
962.981E-6	38.4901E-12	277.180E-3	-13.6416E-3	38.8798E-12	336.085E-3	-19.2627E-3
957.979E-6	38.4291E-12	273.495E-3	-27.6070E-3	38.3113E-12	350.170E-3	-28.3455E-3
952.976E-6	38.0606E-12	286.140E-3	-20.4643E-3	37.8952E-12	357.792E-3	-29.4656E-3
947.974E-6	37.8854E-12	289.625E-3	-6.26297E-3	37.9875E-12	366.716E-3	-17.5677E-3
942.971E-6	38.0357E-12	297.833E-3	-16.0329E-3	38.1541E-12	377.376E-3	-9.50503E-3
937.969E-6	38.0599E-12	314.000E-3	-31.7313E-3	37.8689E-12	372.227E-3	-10.7900E-3
932.966E-6	37.8342E-12	320.662E-3	-39.4062E-3	37.6785E-12	370.359E-3	-16.2842E-3
927.964E-6	37.7516E-12	330.282E-3	-39.7073E-3	37.2853E-12	382.825E-3	-24.8020E-3
922.961E-6	37.4308E-12	342.778E-3	-21.4825E-3	37.4088E-12	391.861E-3	-22.7325E-3
917.959E-6	37.2970E-12	344.118E-3	-3.14066E-3	37.6304E-12	392.308E-3	-7.57731E-3
912.956E-6	37.0405E-12	356.839E-3	-963.684E-6	37.1756E-12	403.172E-3	-6.84787E-3
907.954E-6	36.6323E-12	379.977E-3	-1.10897E-3	36.8515E-12	427.417E-3	-23.3033E-3
902.951E-6	36.7089E-12	385.148E-3	-4.71878E-3	37.0486E-12	441.909E-3	-30.4486E-3
897.949E-6	36.5399E-12	392.474E-3	-24.1712E-3	36.9065E-12	452.899E-3	-27.1498E-3
892.946E-6	36.1029E-12	412.202E-3	-30.5000E-3	36.4451E-12	465.718E-3	-21.5071E-3
887.944E-6	36.1007E-12	417.665E-3	-11.0602E-3	36.2584E-12	471.265E-3	-12.3042E-3
882.941E-6	36.1743E-12	421.587E-3	-11.9490E-3	36.2872E-12	477.991E-3	-13.2019E-3
877.939E-6	35.9825E-12	441.172E-3	-25.6257E-3	36.2723E-12	491.229E-3	-19.4503E-3
872.936E-6	35.9870E-12	457.183E-3	-17.5189E-3	35.9392E-12	511.005E-3	-12.9640E-3
867.934E-6	35.5009E-12	478.209E-3	-5.77647E-3	35.6225E-12	528.347E-3	-8.21343E-3
862.931E-6	35.3885E-12	506.907E-3	-4.35837E-3	35.4861E-12	532.106E-3	-12.6798E-3
857.929E-6	35.5841E-12	510.323E-3	-13.1950E-3	35.4192E-12	540.598E-3	-13.9259E-3
852.926E-6	35.5567E-12	508.905E-3	-33.1257E-3	35.5260E-12	569.984E-3	-7.05510E-3
847.924E-6	35.1762E-12	536.709E-3	-45.5069E-3	35.0201E-12	601.555E-3	-6.36292E-3
842.921E-6	34.9679E-12	552.748E-3	-45.0015E-3	34.8267E-12	616.795E-3	-14.3591E-3
837.919E-6	34.9324E-12	547.944E-3	-46.8350E-3	34.6107E-12	619.967E-3	-19.8569E-3
832.916E-6	34.4993E-12	566.370E-3	-33.0092E-3	34.3978E-12	629.070E-3	-26.4302E-3
827.914E-6	34.3136E-12	588.758E-3	-4.33839E-3	34.1068E-12	645.637E-3	-23.5265E-3
822.911E-6	34.0700E-12	596.871E-3	-1.22499E-3	33.8341E-12	653.334E-3	-14.0670E-3
817.909E-6	33.6633E-12	613.038E-3	-12.1308E-3	33.3005E-12	654.285E-3	-21.1822E-3
812.906E-6	33.7022E-12	627.243E-3	-8.93718E-3	33.0207E-12	658.290E-3	-30.5847E-3
807.904E-6	33.2330E-12	631.902E-3	-8.97436E-3	32.9535E-12	676.490E-3	-30.0136E-3
802.901E-6	33.0097E-12	650.103E-3	-12.9322E-3	32.3172E-12	694.947E-3	-24.6906E-3
797.899E-6	32.5611E-12	673.067E-3	2.39122E-3	31.9897E-12	702.872E-3	-14.0581E-3
792.896E-6	32.2648E-12	684.557E-3	7.13989E-3	31.7330E-12	722.157E-3	-12.2352E-3
787.894E-6	32.1015E-12	703.229E-3	-9.24258E-3	31.3388E-12	741.715E-3	-17.6340E-3
782.891E-6	32.0237E-12	721.914E-3	-12.8474E-3	31.1839E-12	751.188E-3	-16.4439E-3
777.889E-6	31.5505E-12	716.413E-3	-14.8333E-3	31.1703E-12	772.441E-3	-12.4313E-3
772.886E-6	31.2792E-12	720.379E-3	-28.0853E-3	30.7374E-12	799.283E-3	-13.5798E-3
767.884E-6	31.0819E-12	749.563E-3	-24.6537E-3	30.3157E-12	811.399E-3	-11.8067E-3
762.881E-6	30.9246E-12	763.206E-3	-5.87920E-3	30.3772E-12	822.466E-3	-10.4307E-3
757.879E-6	30.7844E-12	777.663E-3	-13.2414E-3	30.1046E-12	846.522E-3	-21.6218E-3
752.876E-6	30.4793E-12	805.132E-3	-24.9271E-3	30.0233E-12	874.356E-3	-27.1400E-3
747.874E-6	30.2175E-12	819.453E-3	-18.9482E-3	29.5165E-12	897.085E-3	-23.9271E-3
742.871E-6	29.9856E-12	831.103E-3	-26.6219E-3	29.5429E-12	905.456E-3	-29.7347E-3
737.869E-6	29.8763E-12	845.107E-3	-31.2563E-3	29.2515E-12	904.587E-3	-27.1160E-3
732.866E-6	29.5541E-12	857.450E-3	-19.6360E-3	29.0836E-12	920.843E-3	-18.1712E-3
727.864E-6	29.1400E-12	878.195E-3	-19.9912E-3	28.8310E-12	952.626E-3	-26.1092E-3
722.861E-6	28.7481E-12	905.132E-3	-24.3441E-3	28.3669E-12	965.829E-3	-28.0339E-3
717.859E-6	28.6194E-12	914.042E-3	-22.1363E-3	28.2250E-12	960.644E-3	-19.3904E-3
712.856E-6	28.2049E-12	924.000E-3	-27.6645E-3	28.0428E-12	969.931E-3	-22.5777E-3
707.854E-6	27.5482E-12	951.981E-3	-29.1987E-3	27.6601E-12	986.955E-3	-26.4419E-3
702.851E-6	27.1394E-12	957.940E-3	-25.3921E-3	27.0091E-12	995.201E-3	-16.9299E-3
697.849E-6	27.0237E-12	951.123E-3	-36.7515E-3	27.1584E-12	1.00414E+0	-11.5418E-3
692.846E-6	26.8661E-12	967.299E-3	-33.8002E-3	26.9416E-12	1.01376E+0	-20.6679E-3
687.844E-6	26.2523E-12	987.268E-3	-9.10148E-3	26.6121E-12	1.02851E+0	-21.0838E-3
682.841E-6	25.9827E-12	989.456E-3	-19.8846E-3	26.1565E-12	1.05791E+0	-14.9587E-3
677.839E-6	25.7114E-12	990.883E-3	-43.7752E-3	25.9488E-12	1.08012E+0	-13.9592E-3
672.836E-6	25.3813E-12	998.447E-3	-29.2795E-3	25.7616E-12	1.08424E+0	-7.88006E-3
667.834E-6	24.9519E-12	1.00626E+0	-16.3312E-3	25.6035E-12	1.08528E+0	-8.56271E-3
662.831E-6	24.6483E-12	1.01380E+0	-19.6194E-3	25.1695E-12	1.08357E+0	-18.7639E-3
657.829E-6	24.4594E-12	1.02090E+0	-20.4014E-3	24.5064E-12	1.08272E+0	-17.3081E-3
652.826E-6	24.4618E-12	1.02849E+0	-31.4468E-3	24.4709E-12	1.09367E+0	-15.2781E-3
647.824E-6	23.8720E-12	1.05084E+0	-31.1522E-3	24.2357E-12	1.10762E+0	-28.3416E-3
642.821E-6	23.4983E-12	1.07235E+0	-8.82786E-3	23.6613E-12	1.10804E+0	-34.4368E-3
637.819E-6	23.1492E-12	1.06795E+0	-9.92974E-3	23.2845E-12	1.10896E+0	-24.1829E-3
632.816E-6	22.9154E-12	1.08156E+0	-35.0586E-3	23.2039E-12	1.10658E+0	-17.2005E-3
627.814E-6	22.7204E-12	1.10417E+0	-32.8876E-3	22.7113E-12	1.10067E+0	-17.5969E-3
622.811E-6	22.2032E-12	1.10053E+0	-23.0596E-3	22.1221E-12	1.12176E+0	-16.0380E-3
617.809E-6	21.8107E-12	1.10775E+0	-34.3839E-3	21.6250E-12	1.13721E+0	-9.97662E-3
612.806E-6	21.4409E-12	1.11982E+0	-27.1387E-3	21.4437E-12	1.12009E+0	-6.77581E-3
607.804E-6	21.1660E-12	1.11017E+0	-10.1678E-3	21.1801E-12	1.12148E+0	-9.51665E-3
602.801E-6	20.6634E-12	1.10501E+0	-20.7768E-3	20.7205E-12	1.13855E+0	-9.51745E-3
597.799E-6	20.2013E-12	1.10979E+0	-29.3028E-3	20.2067E-12	1.13958E+0	-3.95276E-3
592.796E-6	19.8423E-12	1.10653E+0	-23.2001E-3	19.9296E-12	1.14207E+0	2.36677E-3
587.794E-6	19.3846E-12	1.11450E+0	-34.5549E-3	19.7377E-12	1.13777E+0	2.89603E-3
582.791E-6	19.0266E-12	1.13016E+0	-40.0674E-3	19.2912E-12	1.12650E+0	-2.92629E-3
577.789E-6	18.6093E-12	1.11243E+0	-27.1414E-3	18.7930E-12	1.13447E+0	-17.2294E-3
572.786E-6	18.1655E-12	1.09222E+0	-31.2121E-3	18.3802E-12	1.13920E+0	-35.8525E-3
567.784E-6	17.7183E-12	1.10146E+0	-29.9483E-3	17.9650E-12	1.12000E+0	-41.8323E-3
562.781E-6	17.4096E-12	1.09919E+0	-15.3323E-3	17.5686E-12	1.09848E+0	-26.9899E-3
557.779E-6	17.2471E-12	1.09804E+0	-21.3472E-3	17.1526E-12	1.08102E+0	-16.1551E-3
552.776E-6	16.7938E-12	1.11815E+0	-25.3289E-3	16.7685E-12	1.06825E+0	-21.4252E-3
547.774E-6	16.2333E-12	1.11590E+0	-12.4895E-3	16.2312E-12	1.07067E+0	-17.5828E-3
542.771E-6	16.0756E-12	1.09674E+0	-15.8690E-3	15.8629E-12	1.08573E+0	-6.88234E-3
537.769E-6	15.9320E-12	1.09673E+0	-26.5213E-3	15.6007E-12	1.08539E+0	-10.7355E-3
532.766E-6	15.5346E-12	1.09668E+0	-19.9265E-3	15.1894E-12	1.06348E+0	-17.8936E-3
527.764E-6	15.0760E-12	1.09129E+0	-18.6140E-3	14.8063E-12	1.04288E+0	-15.1550E-3
522.761E-6	14.6273E-12	1.09654E+0	-16.8276E-3	14.3389E-12	1.03130E+0	-7.38143E-3
517.759E-6	14.3496E-12	1.09023E+0	-3.37143E-3	13.9132E-12	1.02650E+0	-1.77243E-3
512.756E-6	14.0529E-12	1.07710E+0	-10.1338E-3	13.6425E-12	1.02891E+0	-10.2671E-3
507.754E-6	13.7312E-12	1.07810E+0	-31.0233E-3	13.3942E-12	1.02450E+0	-23.6938E-3
502.751E-6	13.2249E-12	1.06644E+0	-32.5050E-3	12.9130E-12	1.01498E+0	-22.5472E-3
497.749E-6	12.8713E-12	1.05060E+0	-29.6856E-3	12.6956E-12	1.01748E+0	-8.27687E-3
492.746E-6	12.7293E-12	1.05430E+0	-34.1749E-3	12.4469E-12	1.00896E+0	210.659E-6
487.744E-6	12.3295E-12	1.05081E+0	-24.6016E-3	12.1359E-12	989.831E-3	-12.9692E-3
482.741E-6	11.8644E-12	1.03205E+0	-25.8636E-3	11.8188E-12	973.127E-3	-22.2023E-3
477.739E-6	11.4188E-12	1.01563E+0	-37.6159E-3	11.5234E-12	943.492E-3	-23.0161E-3
472.736E-6	11.1280E-12	998.257E-3	-24.2886E-3	11.1919E-12	925.504E-3	-34.1939E-3
467.734E-6	10.8498E-12	972.606E-3	-21.9627E-3	10.8626E-12	928.585E-3	-34.7885E-3
462.731E-6	10.5510E-12	959.947E-3	-34.4451E-3	10.6026E-12	924.631E-3	-25.7291E-3
457.729E-6	10.2101E-12	960.844E-3	-22.8306E-3	10.2331E-12	905.306E-3	-21.2207E-3
452.726E-6	9.94007E-12	948.193E-3	-20.8398E-3	9.88280E-12	888.884E-3	-17.1693E-3
447.724E-6	9.73661E-12	938.137E-3	-32.6333E-3	9.66615E-12	880.241E-3	-19.4085E-3
442.721E-6	9.41020E-12	927.826E-3	-13.5828E-3	9.37849E-12	858.243E-3	-24.9435E-3
437.719E-6	9.10491E-12	898.127E-3	-4.37139E-3	9.04840E-12	832.761E-3	-22.6192E-3
432.716E-6	8.81327E-12	875.961E-3	-25.0826E-3	8.75516E-12	816.735E-3	-23.6344E-3
427.714E-6	8.58239E-12	865.315E-3	-18.7307E-3	8.44516E-12	798.028E-3	-33.9609E-3
422.711E-6	8.30053E-12	846.424E-3	-4.03375E-3	8.22712E-12	780.093E-3	-31.7995E-3
417.709E-6	8.02371E-12	833.657E-3	-18.3454E-3	8.00655E-12	768.922E-3	-22.7721E-3
412.706E-6	7.78283E-12	833.739E-3	-22.1143E-3	7.64729E-12	759.067E-3	-21.4814E-3
407.704E-6	7.61480E-12	818.836E-3	-14.4687E-3	7.38814E-12	755.054E-3	-14.3096E-3
402.701E-6	7.29116E-12	795.814E-3	-23.4343E-3	7.20559E-12	744.824E-3	-8.29313E-3
397.699E-6	7.07555E-12	789.212E-3	-19.6597E-3	7.06544E-12	717.214E-3	-15.6117E-3
392.696E-6	6.91310E-12	776.523E-3	-5.34808E-3	6.78491E-12	692.500E-3	-17.3476E-3
387.694E-6	6.52438E-12	744.982E-3	-14.8333E-3	6.53862E-12	683.074E-3	-13.1683E-3
382.691E-6	6.28617E-12	716.254E-3	-12.8164E-3	6.24629E-12	667.924E-3	-15.4282E-3
377.689E-6	6.01774E-12	699.696E-3	1.52376E-3	6.07959E-12	639.896E-3	-14.4005E-3
372.686E-6	5.86162E-12	689.199E-3	-22.4877E-3	5.84941E-12	618.073E-3	-20.1542E-3
367.684E-6	5.60004E-12	679.293E-3	-44.4490E-3	5.66520E-12	603.859E-3	-27.2033E-3
362.681E-6	5.32059E-12	654.643E-3	-25.4249E-3	5.46626E-12	585.371E-3	-12.7182E-3
357.679E-6	5.13320E-12	625.120E-3	-19.0471E-3	5.26045E-12	566.616E-3	-12.9276E-3
352.676E-6	4.99804E-12	611.355E-3	-36.4517E-3	5.02555E-12	545.452E-3	-32.3338E-3
347.674E-6	4.75775E-12	589.129E-3	-34.0147E-3	4.82436E-12	515.721E-3	-26.6259E-3
342.671E-6	4.49947E-12	565.797E-3	-28.6427E-3	4.64796E-12	488.020E-3	-20.3369E-3
337.669E-6	4.39911E-12	566.146E-3	-30.8900E-3	4.48191E-12	467.212E-3	-32.7835E-3
332.666E-6	4.31447E-12	547.412E-3	-22.3161E-3	4.30187E-12	447.937E-3	-30.6518E-3
327.664E-6	4.10672E-12	508.760E-3	-30.5066E-3	4.09959E-12	432.902E-3	-17.9085E-3
322.661E-6	3.83566E-12	492.352E-3	-46.8233E-3	3.99924E-12	425.350E-3	-11.0518E-3
317.659E-6	3.72368E-12	472.146E-3	-35.6801E-3	3.71258E-12	412.988E-3	-5.87291E-3
312.656E-6	3.67824E-12	446.738E-3	-26.9870E-3	3.51630E-12	397.199E-3	-3.43971E-3
307.654E-6	3.50587E-12	450.688E-3	-27.1814E-3	3.50688E-12	382.629E-3	-7.64089E-3
302.651E-6	3.32024E-12	461.618E-3	-12.0028E-3	3.28172E-12	373.865E-3	-5.42950E-3
297.649E-6	3.17964E-12	444.568E-3	-9.16875E-3	3.10922E-12	374.891E-3	1.07941E-3
292.646E-6	3.09140E-12	420.518E-3	-29.3661E-3	2.95582E-12	357.460E-3	-5.45567E-3
287.644E-6	2.95777E-12	409.394E-3	-27.1953E-3	2.92855E-12	323.515E-3	-8.17631E-3
282.641E-6	2.75901E-12	387.307E-3	-10.5108E-3	2.83362E-12	312.553E-3	1.66665E-3
277.639E-6	2.68262E-12	365.463E-3	-15.5472E-3	2.59155E-12	319.435E-3	-5.30186E-3
272.636E-6	2.56538E-12	357.408E-3	-18.3944E-3	2.45397E-12	316.198E-3	-26.2362E-3
267.634E-6	2.39346E-12	336.130E-3	-17.2884E-3	2.44021E-12	305.369E-3	-30.3890E-3
262.631E-6	2.29341E-12	315.963E-3	-31.3512E-3	2.39340E-12	290.757E-3	-28.1875E-3
257.629E-6	2.22724E-12	314.960E-3	-39.4843E-3	2.18358E-12	264.161E-3	-19.6526E-3
252.626E-6	2.15765E-12	300.416E-3	-33.7564E-3	2.03040E-12	244.506E-3	-2.44237E-3
247.624E-6	2.01240E-12	278.492E-3	-34.1500E-3	2.00354E-12	238.825E-3	-7.90036E-3
242.621E-6	1.95785E-12	278.004E-3	-29.1586E-3	1.96871E-12	229.470E-3	-17.3546E-3
237.619E-6	1.93887E-12	274.676E-3	-8.28238E-3	1.83738E-12	226.256E-3	-750.305E-6
232.616E-6	1.80016E-12	261.061E-3	-5.28941E-3	1.74443E-12	227.214E-3	3.64062E-3
227.614E-6	1.61101E-12	257.763E-3	-17.5750E-3	1.66423E-12	211.009E-3	-18.5626E-3
222.611E-6	1.54300E-12	251.296E-3	-22.2804E-3	1.54132E-12	198.367E-3	-26.2800E-3
217.609E-6	1.52481E-12	238.362E-3	-32.0608E-3	1.45830E-12	207.701E-3	-20.0838E-3
212.606E-6	1.45776E-12	232.726E-3	-27.6255E-3	1.37148E-12	204.438E-3	-23.2939E-3
207.604E-6	1.33006E-12	215.588E-3	-9.43630E-3	1.38847E-12	180.299E-3	-21.6640E-3
202.601E-6	1.23716E-12	190.302E-3	-19.6647E-3	1.27939E-12	165.616E-3	-19.5399E-3
197.599E-6	1.27870E-12	183.027E-3	-30.9157E-3	1.15823E-12	156.288E-3	-24.9046E-3
192.596E-6	1.21049E-12	176.065E-3	-8.07425E-3	1.15260E-12	153.404E-3	-12.5471E-3
187.594E-6	1.08083E-12	165.809E-3	223.293E-6	1.10837E-12	154.539E-3	2.42234E-3
182.591E-6	1.02947E-12	170.281E-3	-12.2557E-3	979.560E-15	140.373E-3	-11.2561E-3
177.589E-6	1.09771E-12	172.331E-3	-9.37329E-3	1.00165E-12	129.964E-3	-24.3200E-3
172.586E-6	950.254E-15	156.771E-3	-18.3339E-3	944.534E-15	141.151E-3	-14.9741E-3
167.584E-6	866.313E-15	145.336E-3	-39.3697E-3	964.624E-15	148.791E-3	-9.61983E-3
162.581E-6	837.932E-15	139.487E-3	-28.7228E-3	799.576E-15	138.923E-3	-8.78526E-3
157.579E-6	802.811E-15	122.875E-3	-7.85813E-3	731.687E-15	126.711E-3	-7.58940E-3
152.576E-6	752.544E-15	125.892E-3	-8.93032E-3	787.229E-15	117.697E-3	-13.1966E-3
147.574E-6	665.002E-15	133.977E-3	-10.4608E-3	738.392E-15	106.675E-3	-9.45708E-3
142.571E-6	677.314E-15	114.071E-3	-13.8728E-3	609.512E-15	98.8087E-3	-1.78685E-3
137.569E-6	620.342E-15	109.017E-3	-18.5661E-3	560.632E-15	94.2560E-3	-11.0168E-3
132.566E-6	531.754E-15	121.551E-3	-3.61806E-3	577.826E-15	85.8767E-3	-20.3054E-3
127.564E-6	506.651E-15	106.809E-3	-7.76209E-3	615.241E-15	88.5387E-3	-17.3271E-3
122.561E-6	524.778E-15	90.2018E-3	-33.5621E-3	474.825E-15	101.076E-3	-20.0422E-3
117.559E-6	499.300E-15	94.4788E-3	-31.8973E-3	386.534E-15	98.0229E-3	-34.7871E-3
112.556E-6	391.608E-15	83.8701E-3	-16.3301E-3	423.652E-15	91.2913E-3	-38.2365E-3
107.554E-6	363.671E-15	72.3952E-3	-14.1963E-3	405.053E-15	87.2815E-3	-30.6085E-3
102.551E-6	461.755E-15	77.3530E-3	-7.18492E-3	368.999E-15	74.1035E-3	-17.1750E-3
97.5488E-6	403.946E-15	68.6005E-3	1.64268E-3	324.156E-15	69.4669E-3	311.759E-6
92.5463E-6	262.222E-15	66.3828E-3	-15.9197E-3	319.290E-15	79.3054E-3	-8.55175E-3
87.5438E-6	219.925E-15	89.5083E-3	-27.2011E-3	281.797E-15	91.0239E-3	-36.4123E-3
82.5413E-6	296.158E-15	92.3933E-3	-22.7470E-3	262.798E-15	94.4478E-3	-34.1716E-3
77.5388E-6	283.053E-15	79.1286E-3	-32.9703E-3	219.201E-15	85.8447E-3	-18.6958E-3
72.5363E-6	143.361E-15	91.0379E-3	-27.4859E-3	222.262E-15	70.0308E-3	-21.1446E-3
67.5338E-6	100.880E-15	102.217E-3	-10.1406E-3	174.184E-15	66.7759E-3	-17.9752E-3
62.5313E-6	203.358E-15	93.1477E-3	-19.8319E-3	134.502E-15	78.7831E-3	-14.7799E-3
57.5288E-6	171.158E-15	94.0051E-3	-29.5962E-3	137.859E-15	77.9088E-3	-24.6741E-3
52.5263E-6	78.4019E-15	88.2442E-3	-27.3658E-3	105.493E-15	73.3538E-3	-26.1339E-3
47.5238E-6	58.3039E-15	69.7476E-3	-42.7869E-3	33.2795E-15	77.4451E-3	-16.9303E-3
42.5213E-6	108.309E-15	65.2168E-3	-50.8541E-3	-3.52471E-15	68.4029E-3	-16.0890E-3
37.5188E-6	70.2232E-15	51.7988E-3	-26.8289E-3	68.4357E-15	60.7382E-3	-15.2221E-3
32.5163E-6	-5.86148E-15	39.1218E-3	-16.7327E-3	79.1866E-15	73.4357E-3	-16.5737E-3
27.5138E-6	-25.7415E-15	63.8221E-3	-23.4635E-3	-46.2667E-15	73.3255E-3	-25.2401E-3
22.5113E-6	-4.94595E-15	81.5883E-3	-13.0854E-3	-132.309E-15	56.0112E-3	-16.5343E-3
17.5088E-6	-87.5004E-15	61.9772E-3	-9.49407E-3	-61.2378E-15	65.7738E-3	-10.0416E-3
12.5063E-6	-108.235E-15	55.1220E-3	-17.7994E-3	-61.0547E-15	86.1518E-3	-22.4834E-3
7.50375E-6	-83.3064E-15	63.8730E-3	-14.7335E-3	-145.937E-15	85.9039E-3	-24.0143E-3
2.50125E-6	-115.193E-15	56.8283E-3	-15.4499E-3	-167.134E-15	87.8378E-3	-16.3171E-3
-2.50125E-6	-193.152E-15	61.3093E-3	-24.5913E-3	-170.395E-15	92.0435E-3	-17.9787E-3
-7.50375E-6	-223.199E-15	73.0712E-3	-23.2271E-3	-123.005E-15	84.2626E-3	-18.4134E-3
-12.5063E-6	-179.376E-15	60.5299E-3	-26.4740E-3	-272.367E-15	80.4797E-3	-14.0127E-3
-17.5088E-6	-221.080E-15	58.1442E-3	-32.0577E-3	-241.797E-15	82.1293E-3	-9.64181E-3
-22.5113E-6	-325.311E-15	74.3005E-3	-18.3624E-3	-220.208E-15	78.6738E-3	-6.00596E-3
-27.5138E-6	-357.354E-15	73.6505E-3	-15.5587E-3	-299.031E-15	83.9735E-3	-12.4997E-3
-32.5163E-6	-275.558E-15	77.9536E-3	-26.5595E-3	-357.415E-15	89.8303E-3	-22.6605E-3
-37.5188E-6	-289.274E-15	92.7042E-3	-18.6740E-3	-361.121E-15	84.5956E-3	-25.3488E-3
-42.5213E-6	-452.403E-15	83.5240E-3	-6.25453E-3	-363.109E-15	82.6052E-3	-22.8354E-3
-47.5238E-6	-493.768E-15	81.3167E-3	-10.0602E-3	-439.211E-15	76.8541E-3	-17.7693E-3
-52.5263E-6	-378.289E-15	95.0123E-3	-12.8330E-3	-480.035E-15	58.1418E-3	-9.97384E-3
-57.5288E-6	-438.758E-15	88.3761E-3	-10.1779E-3	-445.733E-15	53.6259E-3	-8.09644E-3
-62.5313E-6	-512.532E-15	84.1391E-3	-20.5711E-3	-489.940E-15	64.9465E-3	-15.7495E-3
-67.5338E-6	-601.059E-15	94.9728E-3	-21.3377E-3	-601.364E-15	69.7098E-3	-14.0108E-3
-72.5363E-6	-496.497E-15	88.3000E-3	-12.4068E-3	-639.668E-15	80.7605E-3	-6.60407E-3
-77.5388E-6	-563.339E-15	79.3013E-3	-16.6631E-3	-583.289E-15	105.052E-3	-7.50126E-3
-82.5413E-6	-670.578E-15	94.6307E-3	-6.18671E-3	-584.152E-15	119.954E-3	-9.18627E-3
-87.5438E-6	-718.613E-15	102.549E-3	5.54897E-3	-753.054E-15	123.454E-3	-8.30411E-3
-92.5463E-6	-700.947E-15	99.4549E-3	-13.7112E-3	-773.161E-15	129.867E-3	-10.5821E-3
-97.5488E-6	-771.748E-15	110.788E-3	-21.8491E-3	-725.919E-15	135.093E-3	-15.9039E-3
-102.551E-6	-819.931E-15	115.823E-3	-12.7811E-3	-781.775E-15	141.411E-3	-15.6927E-3
-107.554E-6	-847.754E-15	113.791E-3	-21.5614E-3	-898.492E-15	150.688E-3	-19.0316E-3
-112.556E-6	-876.441E-15	128.280E-3	-20.2769E-3	-972.641E-15	149.627E-3	-32.5860E-3
-117.559E-6	-1.00101E-12	135.510E-3	-5.81044E-3	-966.328E-15	151.545E-3	-31.4528E-3
-122.561E-6	-1.01551E-12	131.129E-3	-21.3145E-3	-945.411E-15	171.395E-3	-21.0938E-3
-127.564E-6	-1.04067E-12	141.236E-3	-37.7274E-3	-1.08550E-12	179.691E-3	-21.3360E-3
-132.566E-6	-1.05626E-12	149.499E-3	-20.8677E-3	-1.15269E-12	176.401E-3	-20.6246E-3
-137.569E-6	-1.22452E-12	147.318E-3	-10.5036E-3	-1.16974E-12	183.808E-3	-20.3755E-3
-142.571E-6	-1.26058E-12	163.316E-3	-7.46929E-3	-1.24652E-12	184.548E-3	-26.4568E-3
-147.574E-6	-1.21127E-12	179.887E-3	2.26499E-3	-1.32058E-12	191.718E-3	-21.7547E-3
-152.576E-6	-1.31679E-12	176.988E-3	-15.9427E-3	-1.36167E-12	219.264E-3	-10.5226E-3
-157.579E-6	-1.44361E-12	190.339E-3	-34.9542E-3	-1.46045E-12	237.230E-3	-14.6660E-3
-162.581E-6	-1.53430E-12	202.037E-3	-20.2581E-3	-1.57065E-12	244.584E-3	-26.7720E-3
-167.584E-6	-1.44668E-12	186.694E-3	-13.8185E-3	-1.58414E-12	252.548E-3	-29.5068E-3
-172.586E-6	-1.59289E-12	191.148E-3	-22.5966E-3	-1.66904E-12	262.190E-3	-27.7539E-3
-177.589E-6	-1.78846E-12	220.808E-3	-14.4685E-3	-1.77703E-12	270.781E-3	-27.3090E-3
-182.591E-6	-1.82831E-12	240.155E-3	-11.1931E-3	-1.88664E-12	280.831E-3	-30.6606E-3
-187.594E-6	-1.83558E-12	258.315E-3	-23.0698E-3	-1.99780E-12	295.586E-3	-43.0888E-3
-192.596E-6	-1.96504E-12	267.467E-3	-7.32903E-3	-2.00652E-12	310.359E-3	-45.3585E-3
-197.599E-6	-2.13900E-12	251.066E-3	9.30972E-3	-2.08364E-12	323.232E-3	-32.6905E-3
-202.601E-6	-2.23567E-12	258.478E-3	-12.7860E-3	-2.25955E-12	340.098E-3	-31.6204E-3
-207.604E-6	-2.26156E-12	292.965E-3	-24.1999E-3	-2.37572E-12	354.867E-3	-33.6734E-3
-212.606E-6	-2.37756E-12	299.189E-3	-20.9583E-3	-2.40242E-12	370.892E-3	-22.0839E-3
-217.609E-6	-2.57548E-12	299.107E-3	-29.2631E-3	-2.58239E-12	402.646E-3	-14.9178E-3
-222.611E-6	-2.70035E-12	319.817E-3	-21.9076E-3	-2.82105E-12	426.431E-3	-12.0764E-3
-227.614E-6	-2.73779E-12	336.253E-3	-11.9529E-3	-2.88620E-12	436.128E-3	-3.10171E-3
-232.616E-6	-2.96160E-12	354.862E-3	-25.0830E-3	-2.98393E-12	447.598E-3	-8.59959E-3
-237.619E-6	-3.11320E-12	381.858E-3	-22.3030E-3	-3.12229E-12	457.534E-3	-15.1090E-3
-242.621E-6	-3.21144E-12	400.810E-3	-9.83101E-3	-3.33367E-12	472.930E-3	-323.477E-6
-247.624E-6	-3.29757E-12	429.481E-3	-19.2947E-3	-3.43713E-12	501.578E-3	3.59778E-3
-252.626E-6	-3.52202E-12	461.894E-3	-14.8330E-3	-3.56710E-12	516.821E-3	-10.9223E-3
-257.629E-6	-3.69881E-12	459.298E-3	3.09071E-3	-3.74862E-12	521.724E-3	-17.6255E-3
-262.631E-6	-3.80288E-12	458.280E-3	-2.68294E-3	-3.98133E-12	554.802E-3	-27.7373E-3
-267.634E-6	-3.92843E-12	495.769E-3	-13.4572E-3	-4.10292E-12	599.813E-3	-37.6424E-3
-272.636E-6	-4.27471E-12	521.766E-3	-14.5743E-3	-4.28287E-12	633.646E-3	-16.3372E-3
-277.639E-6	-4.46362E-12	524.221E-3	-23.2170E-3	-4.53663E-12	657.415E-3	-715.472E-6
-282.641E-6	-4.52144E-12	539.488E-3	-19.5355E-3	-4.70138E-12	660.522E-3	-6.86830E-3
-287.644E-6	-4.76544E-12	553.895E-3	3.12503E-3	-4.80077E-12	672.365E-3	-2.20190E-3
-292.646E-6	-5.08563E-12	564.816E-3	6.41086E-3	-5.02551E-12	708.275E-3	-3.56247E-3
-297.649E-6	-5.33046E-12	601.488E-3	-5.67848E-3	-5.37214E-12	730.002E-3	-18.7640E-3
-302.651E-6	-5.37453E-12	639.341E-3	-4.50748E-3	-5.56586E-12	750.738E-3	-9.96997E-3
-307.654E-6	-5.68558E-12	663.698E-3	-8.36874E-3	-5.63728E-12	791.424E-3	5.90672E-3
-312.656E-6	-6.01960E-12	700.428E-3	-15.6962E-3	-5.97797E-12	824.024E-3	-6.48656E-3
-317.659E-6	-6.21853E-12	726.562E-3	-12.2036E-3	-6.32101E-12	848.355E-3	-7.45156E-3
-322.661E-6	-6.46190E-12	738.706E-3	-25.7347E-3	-6.48789E-12	878.665E-3	-1.62418E-3
-327.664E-6	-6.73769E-12	772.995E-3	-46.8804E-3	-6.66974E-12	908.019E-3	-17.8179E-3
-332.666E-6	-7.14086E-12	809.613E-3	-33.8878E-3	-7.10020E-12	936.830E-3	-14.9901E-3
-337.669E-6	-7.45996E-12	834.628E-3	-12.4885E-3	-7.52646E-12	981.678E-3	218.584E-6
-342.671E-6	-7.57794E-12	877.355E-3	-15.9105E-3	-7.75260E-12	1.02615E+0	-11.1628E-3
-347.674E-6	-7.88639E-12	923.198E-3	-15.8758E-3	-8.00128E-12	1.04743E+0	-22.5117E-3
-352.676E-6	-8.35110E-12	933.983E-3	-18.4372E-3	-8.43748E-12	1.08221E+0	-18.7049E-3
-357.679E-6	-8.62635E-12	949.431E-3	-40.1439E-3	-8.72543E-12	1.13069E+0	-23.5627E-3
-362.681E-6	-8.91220E-12	996.785E-3	-41.6764E-3	-9.05665E-12	1.15894E+0	-22.6554E-3
-367.684E-6	-9.33928E-12	1.02890E+0	-29.8551E-3	-9.46917E-12	1.18777E+0	-1.24920E-3
-372.686E-6	-9.80313E-12	1.05165E+0	-29.7217E-3	-10.0209E-12	1.22518E+0	8.41969E-3
-377.689E-6	-10.0994E-12	1.09051E+0	-9.20046E-3	-10.3030E-12	1.25424E+0	-1.69535E-3
-382.691E-6	-10.3664E-12	1.12604E+0	17.4582E-3	-10.6175E-12	1.28612E+0	-11.7251E-3
-387.694E-6	-10.9199E-12	1.15329E+0	7.22356E-3	-11.0697E-12	1.32807E+0	-22.5751E-3
-392.696E-6	-11.3952E-12	1.18130E+0	-14.8283E-3	-11.6204E-12	1.36953E+0	-32.5103E-3
-397.699E-6	-11.6812E-12	1.20437E+0	-20.0552E-3	-11.9548E-12	1.41183E+0	-22.6447E-3
-402.701E-6	-12.0721E-12	1.24646E+0	-22.3641E-3	-12.2108E-12	1.44670E+0	-12.3735E-3
-407.704E-6	-12.6710E-12	1.30851E+0	-13.5016E-3	-12.7136E-12	1.46302E+0	-22.3751E-3
-412.706E-6	-13.1892E-12	1.33962E+0	3.45312E-3	-13.3249E-12	1.49424E+0	-24.0618E-3
-417.709E-6	-13.4534E-12	1.35546E+0	-5.76701E-3	-13.7581E-12	1.55090E+0	-15.1148E-3
-422.711E-6	-13.9642E-12	1.40088E+0	-11.7214E-3	-14.0307E-12	1.58345E+0	-8.92260E-3
-427.714E-6	-14.7370E-12	1.44983E+0	-2.01233E-3	-14.7392E-12	1.60477E+0	2.87707E-3
-432.716E-6	-15.3878E-12	1.48602E+0	-15.2441E-3	-15.5351E-12	1.65682E+0	3.07695E-3
-437.719E-6	-15.6296E-12	1.52543E+0	-26.1278E-3	-15.7799E-12	1.70467E+0	-18.2066E-3
-442.721E-6	-16.0899E-12	1.55889E+0	-14.9079E-3	-16.1402E-12	1.74114E+0	-26.2543E-3
-447.724E-6	-16.8749E-12	1.58519E+0	-12.0332E-3	-16.9686E-12	1.78811E+0	-23.7799E-3
-452.726E-6	-17.5517E-12	1.61940E+0	-15.4011E-3	-17.8011E-12	1.82008E+0	-24.4301E-3
-457.729E-6	-17.8048E-12	1.65881E+0	-10.9608E-3	-18.2258E-12	1.83928E+0	-9.85967E-3
-462.731E-6	-18.1406E-12	1.68826E+0	-18.9340E-3	-18.6464E-12	1.86970E+0	-3.77492E-3
-467.734E-6	-19.0417E-12	1.71738E+0	-30.9811E-3	-19.5090E-12	1.89429E+0	-23.0538E-3
-472.736E-6	-19.7436E-12	1.74379E+0	-25.6751E-3	-20.2813E-12	1.91008E+0	-24.9367E-3
-477.739E-6	-19.8674E-12	1.76381E+0	-33.5449E-3	-20.6334E-12	1.93835E+0	-13.2520E-3
-482.741E-6	-20.4223E-12	1.80157E+0	-53.6044E-3	-21.1365E-12	1.96928E+0	-14.7660E-3
-487.744E-6	-21.2954E-12	1.83297E+0	-47.7074E-3	-21.7944E-12	1.99323E+0	-11.8170E-3
-492.746E-6	-21.9536E-12	1.83948E+0	-32.2839E-3	-22.4715E-12	2.02164E+0	-13.0520E-3
-497.749E-6	-22.4415E-12	1.86666E+0	-37.6442E-3	-23.2179E-12	2.04237E+0	-31.2265E-3
-502.751E-6	-23.0958E-12	1.91686E+0	-38.1871E-3	-23.5863E-12	2.04387E+0	-28.0571E-3
-507.754E-6	-24.0821E-12	1.95010E+0	-19.8989E-3	-24.3690E-12	2.05090E+0	-12.9830E-3
-512.756E-6	-24.9146E-12	1.97772E+0	-11.1071E-3	-25.0383E-12	2.07309E+0	-20.2248E-3
-517.759E-6	-25.3971E-12	2.01238E+0	-17.5817E-3	-25.3084E-12	2.09600E+0	-27.4574E-3
-522.761E-6	-26.1704E-12	2.04056E+0	-31.3707E-3	-26.0023E-12	2.11585E+0	-11.5738E-3
-527.764E-6	-27.1026E-12	2.07121E+0	-38.0592E-3	-26.9550E-12	2.13054E+0	942.435E-6
-532.766E-6	-27.8168E-12	2.09939E+0	-19.8303E-3	-27.6633E-12	2.14226E+0	-7.15183E-3
-537.769E-6	-28.2836E-12	2.11195E+0	-1.55866E-3	-27.9893E-12	2.16442E+0	-8.53361E-3
-542.771E-6	-29.1258E-12	2.13210E+0	-14.8793E-3	-28.7939E-12	2.18820E+0	-5.76680E-3
-547.774E-6	-30.0092E-12	2.15760E+0	-29.7315E-3	-29.8654E-12	2.18452E+0	-6.72377E-3
-552.776E-6	-30.2356E-12	2.16180E+0	-20.3758E-3	-30.4290E-12	2.18455E+0	-4.44731E-3
-557.779E-6	-30.4442E-12	2.16717E+0	-19.6337E-3	-30.6071E-12	2.22223E+0	-11.7422E-3
-562.781E-6	-31.7792E-12	2.17422E+0	-27.6239E-3	-31.6342E-12	2.25669E+0	-21.5081E-3
-567.784E-6	-32.8304E-12	2.16183E+0	-28.4211E-3	-33.3467E-12	2.26348E+0	-20.3439E-3
-572.786E-6	-33.4174E-12	2.16290E+0	-31.5068E-3	-34.1811E-12	2.24958E+0	-22.6942E-3
-577.789E-6	-34.0334E-12	2.18964E+0	-21.3297E-3	-34.7271E-12	2.21675E+0	-21.6712E-3
-582.791E-6	-34.7243E-12	2.20592E+0	-9.22800E-3	-35.4351E-12	2.20573E+0	-3.99623E-3
-587.794E-6	-35.5187E-12	2.20728E+0	-20.1204E-3	-36.3065E-12	2.22469E+0	1.90970E-3
-592.796E-6	-36.0833E-12	2.19912E+0	-22.1435E-3	-36.8090E-12	2.22498E+0	-4.52408E-3
-597.799E-6	-36.6021E-12	2.18302E+0	-5.78964E-3	-37.2718E-12	2.20096E+0	1.67683E-3
-602.801E-6	-37.7240E-12	2.18874E+0	-12.7902E-3	-38.1556E-12	2.17636E+0	-9.06889E-3
-607.804E-6	-38.4074E-12	2.21655E+0	-22.2117E-3	-38.7399E-12	2.16119E+0	-30.6113E-3
-612.806E-6	-38.8834E-12	2.22059E+0	-13.2658E-3	-38.9679E-12	2.15567E+0	-27.7228E-3
-617.809E-6	-40.1666E-12	2.20621E+0	-28.9421E-3	-39.6939E-12	2.15718E+0	-24.2718E-3
-622.811E-6	-41.3410E-12	2.21317E+0	-56.4247E-3	-40.5899E-12	2.14875E+0	-23.8098E-3
-627.814E-6	-41.8298E-12	2.22055E+0	-48.8304E-3	-41.1713E-12	2.12699E+0	-7.97478E-3
-632.816E-6	-42.2570E-12	2.20961E+0	-23.7274E-3	-41.5411E-12	2.11778E+0	6.30350E-3
-637.819E-6	-43.5495E-12	2.20002E+0	-15.2227E-3	-42.3180E-12	2.11644E+0	3.46466E-3
-642.821E-6	-44.6025E-12	2.19764E+0	-3.08270E-3	-43.3983E-12	2.11542E+0	-5.24294E-3
-647.824E-6	-44.9719E-12	2.20286E+0	6.13325E-3	-44.2330E-12	2.13155E+0	-10.2259E-3
-652.826E-6	-45.2949E-12	2.21493E+0	-9.15970E-3	-44.8113E-12	2.13870E+0	-13.5696E-3
-657.829E-6	-46.0554E-12	2.20407E+0	-17.2661E-3	-45.9507E-12	2.12880E+0	-9.85484E-3
-662.831E-6	-47.0367E-12	2.17327E+0	-17.6590E-3	-47.2085E-12	2.13567E+0	-8.15171E-3
-667.834E-6	-47.6216E-12	2.16101E+0	-23.5715E-3	-48.0818E-12	2.13602E+0	-22.8388E-3
-672.836E-6	-47.5864E-12	2.14666E+0	-14.7465E-3	-48.6080E-12	2.10421E+0	-21.9543E-3
-677.839E-6	-48.2664E-12	2.11110E+0	-5.92912E-3	-49.3168E-12	2.07378E+0	-6.84947E-3
-682.841E-6	-49.1482E-12	2.07965E+0	-9.02371E-3	-50.6688E-12	2.04855E+0	-13.6398E-3
-687.844E-6	-49.4614E-12	2.05336E+0	-4.27025E-3	-51.5748E-12	2.00585E+0	-22.0621E-3
-692.846E-6	-49.5955E-12	2.02660E+0	-3.45585E-3	-51.5628E-12	1.97790E+0	-20.5856E-3
-697.849E-6	-50.4972E-12	2.00863E+0	-13.3180E-3	-52.1051E-12	1.97498E+0	-20.7538E-3
-702.851E-6	-51.4321E-12	1.99146E+0	-4.75241E-3	-52.9945E-12	1.94822E+0	-15.9137E-3
-707.854E-6	-51.8601E-12	1.96536E+0	4.29252E-3	-53.6364E-12	1.89837E+0	-10.1445E-3
-712.856E-6	-52.5974E-12	1.95172E+0	-11.5475E-3	-53.6626E-12	1.85865E+0	-25.5098E-3
-717.859E-6	-53.4299E-12	1.94540E+0	-16.6651E-3	-54.1569E-12	1.82942E+0	-39.2226E-3
-722.861E-6	-54.2938E-12	1.91114E+0	-12.9886E-3	-54.6814E-12	1.81031E+0	-21.3486E-3
-727.864E-6	-54.9664E-12	1.87930E+0	-21.3022E-3	-55.5883E-12	1.79007E+0	-14.0388E-3
-732.866E-6	-55.9142E-12	1.87383E+0	-20.9459E-3	-55.7605E-12	1.75962E+0	-25.4711E-3
-737.869E-6	-56.7035E-12	1.85633E+0	-3.59205E-3	-56.2840E-12	1.73581E+0	-24.0502E-3
-742.871E-6	-57.4926E-12	1.83889E+0	-1.89367E-3	-56.9725E-12	1.73028E+0	-24.7687E-3
-747.874E-6	-57.9885E-12	1.83901E+0	-15.7766E-3	-58.1187E-12	1.72377E+0	-22.8758E-3
-752.876E-6	-58.7751E-12	1.82187E+0	-15.2735E-3	-58.7430E-12	1.69925E+0	-17.3244E-3
-757.879E-6	-59.5311E-12	1.78384E+0	-19.1852E-3	-59.2732E-12	1.68220E+0	-35.8611E-3
-762.881E-6	-59.9019E-12	1.75855E+0	-28.5216E-3	-60.2668E-12	1.65177E+0	-50.4240E-3
-767.884E-6	-60.4814E-12	1.74523E+0	-23.0478E-3	-61.4137E-12	1.59797E+0	-40.6478E-3
-772.886E-6	-61.1601E-12	1.70944E+0	-27.5175E-3	-61.6824E-12	1.56477E+0	-44.3323E-3
-777.889E-6	-61.8492E-12	1.66394E+0	-30.8627E-3	-62.0212E-12	1.54134E+0	-47.8500E-3
-782.891E-6	-61.9640E-12	1.63087E+0	-9.37658E-3	-62.8660E-12	1.50807E+0	-29.5783E-3
-787.894E-6	-61.8320E-12	1.59609E+0	-6.50248E-3	-63.0939E-12	1.47005E+0	-26.5145E-3
-792.896E-6	-62.3329E-12	1.56827E+0	-32.5683E-3	-63.6247E-12	1.43790E+0	-42.6507E-3
-797.899E-6	-62.9370E-12	1.54002E+0	-38.9346E-3	-64.3250E-12	1.40803E+0	-34.2951E-3
-802.901E-6	-63.5117E-12	1.50028E+0	-28.3456E-3	-64.1139E-12	1.37375E+0	-10.3407E-3
-807.904E-6	-63.2436E-12	1.46505E+0	-27.9210E-3	-63.7804E-12	1.33428E+0	-20.4636E-3
-812.906E-6	-63.7829E-12	1.44050E+0	-25.5219E-3	-64.4838E-12	1.28610E+0	-27.8171E-3
-817.909E-6	-64.4799E-12	1.41482E+0	-25.6230E-3	-64.9924E-12	1.25020E+0	-11.1352E-3
-822.911E-6	-64.6282E-12	1.38212E+0	-22.0143E-3	-64.5014E-12	1.22294E+0	-8.98820E-3
-827.914E-6	-65.0159E-12	1.34042E+0	-4.41206E-3	-64.6919E-12	1.18734E+0	-8.98673E-3
-832.916E-6	-65.6279E-12	1.29042E+0	1.07134E-3	-65.2154E-12	1.16541E+0	-3.32874E-3
-837.919E-6	-66.5445E-12	1.26673E+0	-1.20719E-3	-65.6230E-12	1.14960E+0	-13.2359E-3
-842.921E-6	-66.8617E-12	1.25869E+0	268.894E-6	-65.9524E-12	1.11285E+0	-22.3015E-3
-847.924E-6	-67.5618E-12	1.22408E+0	-8.34949E-3	-66.2726E-12	1.08128E+0	-21.5726E-3
-852.926E-6	-68.4214E-12	1.19756E+0	-16.2082E-3	-66.7428E-12	1.06364E+0	-23.5005E-3
-857.929E-6	-68.7100E-12	1.19047E+0	-14.3786E-3	-67.3263E-12	1.02892E+0	-16.2216E-3
-862.931E-6	-69.2065E-12	1.16340E+0	-11.0857E-3	-67.7070E-12	989.493E-3	-3.81751E-3
-867.934E-6	-69.6423E-12	1.12590E+0	-8.48412E-3	-68.3465E-12	962.265E-3	-6.61863E-3
-872.936E-6	-70.3192E-12	1.09329E+0	-13.7127E-3	-68.6795E-12	923.975E-3	-1.69250E-3
-877.939E-6	-70.2911E-12	1.06214E+0	-35.5673E-3	-68.9086E-12	898.346E-3	14.0904E-3
-882.941E-6	-69.8498E-12	1.03475E+0	-47.1658E-3	-69.8673E-12	889.579E-3	510.542E-6
-887.944E-6	-70.3590E-12	1.00305E+0	-19.8597E-3	-69.5687E-12	852.775E-3	-19.0118E-3
-892.946E-6	-71.0590E-12	962.137E-3	2.56826E-3	-69.8679E-12	821.994E-3	-12.8178E-3
-897.949E-6	-70.8733E-12	936.611E-3	-13.3453E-3	-70.4210E-12	821.169E-3	-14.9794E-3
-902.951E-6	-70.7299E-12	924.381E-3	-14.9712E-3	-70.5932E-12	802.696E-3	-17.4996E-3
-907.954E-6	-70.3285E-12	896.118E-3	-9.23355E-3	-70.5665E-12	755.624E-3	3.06826E-3
-912.956E-6	-70.6339E-12	864.607E-3	-23.6944E-3	-71.1463E-12	721.952E-3	8.07881E-3
-917.959E-6	-70.7964E-12	832.069E-3	-12.7249E-3	-70.9628E-12	712.537E-3	-17.6377E-3
-922.961E-6	-70.5365E-12	790.002E-3	-107.029E-6	-70.9707E-12	704.106E-3	-29.5681E-3
-927.964E-6	-70.9368E-12	764.329E-3	-18.3424E-3	-71.5694E-12	690.886E-3	-22.3248E-3
-932.966E-6	-71.4115E-12	749.642E-3	-24.7523E-3	-72.0831E-12	670.665E-3	-24.9591E-3
-937.969E-6	-71.5842E-12	720.750E-3	-12.8705E-3	-71.9182E-12	646.574E-3	-20.3245E-3
-942.971E-6	-71.6279E-12	686.367E-3	-13.0893E-3	-71.8332E-12	632.433E-3	-11.8167E-3
-947.974E-6	-72.9761E-12	675.913E-3	-22.3954E-3	-72.6580E-12	619.580E-3	-22.4439E-3
-952.976E-6	-73.6989E-12	675.815E-3	-24.1942E-3	-72.9046E-12	592.990E-3	-33.4400E-3
-957.979E-6	-73.9783E-12	663.854E-3	-26.9555E-3	-73.3584E-12	574.762E-3	-25.5966E-3
-962.981E-6	-74.2577E-12	643.239E-3	-32.4173E-3	-73.5269E-12	555.905E-3	-17.8216E-3
-967.984E-6	-74.7587E-12	625.984E-3	-14.8059E-3	-73.7800E-12	527.145E-3	-10.5479E-3
-972.986E-6	-75.0235E-12	615.394E-3	-1.15066E-3	-74.8148E-12	521.046E-3	4.66200E-3
-977.989E-6	-75.0677E-12	592.773E-3	-8.22380E-3	-75.3220E-12	506.632E-3	-8.72711E-3
-982.991E-6	-75.0089E-12	568.861E-3	-6.65422E-3	-75.5169E-12	474.376E-3	-26.2914E-3
-987.994E-6	-75.0751E-12	557.327E-3	9.88111E-3	-75.6244E-12	473.008E-3	-17.5253E-3
-992.997E-6	-75.0615E-12	534.146E-3	27.4058E-3	-76.4761E-12	473.948E-3	-14.6147E-3
-997.999E-6	-75.0611E-12	506.139E-3	19.3754E-3	-77.0344E-12	449.747E-3	-10.4024E-3
-1.00300E-3	-74.8382E-12	498.105E-3	-2.13390E-3	-77.3348E-12	450.639E-3	4.12846E-3
-1.00800E-3	-74.4347E-12	486.342E-3	561.514E-6	-76.9490E-12	455.376E-3	8.07908E-3
-1.01301E-3	-74.6228E-12	469.444E-3	20.8713E-3	-77.1131E-12	423.526E-3	4.06514E-3
-1.01801E-3	-74.7581E-12	457.924E-3	18.5497E-3	-77.9741E-12	409.393E-3	3.29071E-3
-1.02301E-3	-74.5611E-12	434.367E-3	-7.99017E-3	-77.5280E-12	424.930E-3	-22.1846E-3
-1.02801E-3	-74.9584E-12	411.421E-3	-19.6188E-3	-76.8612E-12	414.972E-3	-57.1786E-3
-1.03302E-3	-75.0610E-12	398.749E-3	-14.7468E-3	-76.9156E-12	397.802E-3	-51.6100E-3
-1.03802E-3	-75.2464E-12	394.788E-3	-19.1913E-3	-76.8035E-12	389.378E-3	-41.7624E-3
-1.04302E-3	-76.2426E-12	408.001E-3	-18.3567E-3	-76.6662E-12	359.035E-3	-49.5376E-3
-1.04802E-3	-76.7664E-12	416.278E-3	-9.27813E-3	-76.9029E-12	349.900E-3	-32.9397E-3
-1.05303E-3	-76.4561E-12	409.835E-3	-15.1368E-3	-76.1808E-12	373.094E-3	-16.6970E-3
-1.05803E-3	-76.8739E-12	409.213E-3	-16.7017E-3	-76.2502E-12	373.927E-3	-22.9118E-3
-1.06303E-3	-78.0819E-12	391.627E-3	-10.4556E-3	-77.5062E-12	369.674E-3	-17.8192E-3
-1.06803E-3	-78.4203E-12	362.165E-3	-17.1498E-3	-77.1153E-12	367.582E-3	-12.3568E-3
-1.07304E-3	-78.4826E-12	355.218E-3	-18.6591E-3	-77.4357E-12	349.542E-3	-16.3813E-3
-1.07804E-3	-78.6126E-12	357.340E-3	-1.31360E-3	-77.7997E-12	350.447E-3	-10.3262E-3
-1.08304E-3	-78.7597E-12	346.224E-3	2.90056E-3	-78.0797E-12	358.776E-3	-16.4625E-3
-1.08804E-3	-78.7018E-12	336.844E-3	6.13629E-3	-77.8724E-12	348.011E-3	-36.9934E-3
-1.09305E-3	-79.0668E-12	340.231E-3	20.4902E-3	-78.2835E-12	344.776E-3	-33.6142E-3
-1.09805E-3	-78.8244E-12	346.366E-3	8.24470E-3	-78.7621E-12	351.870E-3	-29.6437E-3
-1.10305E-3	-78.4410E-12	342.318E-3	-13.4479E-3	-79.2403E-12	345.583E-3	-42.9106E-3
-1.10805E-3	-78.6351E-12	327.398E-3	-11.1606E-3	-78.8612E-12	333.860E-3	-38.4203E-3
-1.11306E-3	-78.6709E-12	330.012E-3	-7.56026E-3	-78.4629E-12	343.097E-3	-27.2453E-3
-1.11806E-3	-78.1266E-12	341.170E-3	-18.0994E-3	-79.2614E-12	338.044E-3	-31.9255E-3
-1.12306E-3	-78.6703E-12	336.061E-3	-30.9485E-3	-78.9877E-12	312.697E-3	-25.0250E-3
-1.12806E-3	-78.4919E-12	330.735E-3	-42.5907E-3	-78.0424E-12	332.609E-3	-14.2470E-3
-1.13307E-3	-78.6609E-12	347.356E-3	-38.2833E-3	-77.7641E-12	364.825E-3	-24.1512E-3
-1.13807E-3	-78.7998E-12	368.436E-3	-24.0151E-3	-77.8024E-12	348.236E-3	-21.8397E-3
-1.14307E-3	-79.1793E-12	369.057E-3	-29.7893E-3	-77.4262E-12	335.862E-3	-7.55598E-3
-1.14807E-3	-79.3326E-12	363.700E-3	-51.6901E-3	-77.0672E-12	355.793E-3	-13.1440E-3
-1.15308E-3	-79.2096E-12	372.188E-3	-55.6751E-3	-77.4244E-12	371.707E-3	-10.3167E-3
-1.15808E-3	-79.0345E-12	388.693E-3	-39.5961E-3	-77.0143E-12	381.160E-3	-2.80505E-3
-1.16308E-3	-79.6789E-12	388.017E-3	-27.8997E-3	-78.0373E-12	376.847E-3	-23.4520E-3
-1.16808E-3	-80.5129E-12	369.747E-3	-21.1107E-3	-78.4359E-12	361.794E-3	-31.3848E-3
-1.17309E-3	-80.3228E-12	366.889E-3	-27.2811E-3	-78.0602E-12	379.345E-3	-20.6114E-3
-1.17809E-3	-80.4346E-12	382.726E-3	-39.2007E-3	-78.1429E-12	409.134E-3	-25.3606E-3
-1.18309E-3	-81.0322E-12	395.299E-3	-24.2833E-3	-79.2841E-12	409.098E-3	-14.5895E-3
-1.18809E-3	-81.1016E-12	397.527E-3	-5.68544E-3	-79.5000E-12	409.467E-3	9.52856E-3
-1.19310E-3	-80.7999E-12	409.461E-3	-6.18320E-3	-80.0460E-12	421.833E-3	-2.22395E-3
-1.19810E-3	-81.6004E-12	421.439E-3	-7.26783E-3	-80.5623E-12	426.555E-3	-18.1907E-3
-1.20310E-3	-81.2352E-12	407.457E-3	-12.9474E-3	-80.9207E-12	424.039E-3	-4.05566E-3
-1.20810E-3	-81.0397E-12	400.030E-3	-19.0321E-3	-80.9947E-12	424.269E-3	-132.089E-6
-1.21311E-3	-81.8837E-12	407.264E-3	-11.9662E-3	-80.9565E-12	424.013E-3	-22.1208E-3
-1.21811E-3	-81.5430E-12	422.694E-3	-8.20251E-3	-81.0150E-12	436.044E-3	-36.2230E-3
-1.22311E-3	-80.5315E-12	451.681E-3	-10.7416E-3	-81.0770E-12	467.279E-3	-28.0048E-3
-1.22811E-3	-81.5263E-12	456.751E-3	-7.10174E-3	-80.5432E-12	486.203E-3	-4.11738E-3
-1.23312E-3	-81.5603E-12	441.445E-3	-1.98539E-3	-80.2875E-12	489.773E-3	19.0860E-3
-1.23812E-3	-81.2414E-12	448.040E-3	-6.72382E-3	-80.0659E-12	499.263E-3	14.4532E-3
-1.24312E-3	-80.8492E-12	474.193E-3	154.532E-6	-79.8323E-12	492.361E-3	-6.99183E-3
-1.24812E-3	-81.0403E-12	484.717E-3	17.6475E-3	-80.0201E-12	480.100E-3	-2.37464E-3
-1.25313E-3	-81.1741E-12	482.830E-3	5.08568E-3	-80.1432E-12	508.915E-3	9.83211E-3
-1.25813E-3	-81.6608E-12	493.513E-3	-16.1753E-3	-80.1787E-12	537.320E-3	1.46864E-3
-1.26313E-3	-81.5947E-12	501.750E-3	-15.1725E-3	-80.5888E-12	531.705E-3	-633.841E-6
-1.26813E-3	-81.5491E-12	508.750E-3	-16.4296E-3	-81.3783E-12	534.619E-3	4.71193E-3
-1.27314E-3	-82.7175E-12	522.263E-3	-20.3986E-3	-81.8657E-12	552.379E-3	1.14247E-3
-1.27814E-3	-82.9822E-12	531.273E-3	-16.2106E-3	-82.2556E-12	570.705E-3	-9.44959E-3
-1.28314E-3	-82.3922E-12	534.372E-3	-22.2113E-3	-82.4340E-12	601.745E-3	-18.0116E-3
-1.28814E-3	-82.7030E-12	553.748E-3	-38.5964E-3	-83.3082E-12	625.653E-3	-19.9325E-3
-1.29315E-3	-83.8983E-12	575.760E-3	-41.1216E-3	-83.9318E-12	615.551E-3	-27.1042E-3
-1.29815E-3	-84.3397E-12	583.696E-3	-28.3629E-3	-84.2625E-12	603.711E-3	-30.6644E-3
-1.30315E-3	-84.2204E-12	603.487E-3	-6.60757E-3	-84.8276E-12	616.766E-3	-16.1616E-3
-1.30815E-3	-84.6363E-12	618.000E-3	7.52799E-3	-85.1884E-12	632.905E-3	12.9939E-3
-1.31316E-3	-84.7020E-12	612.473E-3	1.46334E-3	-85.7530E-12	641.247E-3	34.2054E-3
-1.31816E-3	-84.9856E-12	608.868E-3	-3.48844E-3	-85.8271E-12	647.781E-3	6.12064E-3
-1.32316E-3	-84.9628E-12	619.959E-3	-5.44181E-3	-85.6543E-12	664.705E-3	-28.4426E-3
-1.32816E-3	-84.8302E-12	637.863E-3	-11.4382E-3	-86.0456E-12	693.661E-3	-17.1775E-3
-1.33317E-3	-84.2085E-12	657.364E-3	-12.9711E-3	-86.4557E-12	708.485E-3	-48.9589E-6
-1.33817E-3	-84.8836E-12	657.454E-3	2.39648E-3	-86.5062E-12	695.938E-3	-6.76757E-3
-1.34317E-3	-85.0644E-12	628.001E-3	15.8012E-3	-86.3438E-12	685.595E-3	-31.6591E-3
-1.34817E-3	-85.1378E-12	623.866E-3	-2.06890E-3	-86.3398E-12	699.126E-3	-53.3506E-3
-1.35318E-3	-84.8458E-12	651.659E-3	-18.2931E-3	-86.6320E-12	711.420E-3	-44.7386E-3
-1.35818E-3	-85.6650E-12	663.269E-3	-21.9725E-3	-87.2990E-12	720.147E-3	-20.0451E-3
-1.36318E-3	-86.4341E-12	667.628E-3	-23.0768E-3	-87.2313E-12	734.800E-3	-17.0395E-3
-1.36818E-3	-86.3714E-12	679.074E-3	-7.49903E-3	-86.8659E-12	731.914E-3	-14.0721E-3
-1.37319E-3	-86.6937E-12	688.970E-3	-2.05462E-3	-87.1143E-12	731.021E-3	3.86644E-3
-1.37819E-3	-87.5400E-12	708.675E-3	-18.6910E-3	-87.3129E-12	751.803E-3	2.36473E-3
-1.38319E-3	-88.2885E-12	730.854E-3	-11.4156E-3	-87.5329E-12	757.363E-3	-8.82162E-3
-1.38819E-3	-88.8749E-12	728.071E-3	14.5165E-3	-87.7782E-12	745.650E-3	-16.6107E-3
-1.39320E-3	-89.8626E-12	719.938E-3	13.1157E-3	-88.5317E-12	749.106E-3	-17.6157E-3
-1.39820E-3	-89.9654E-12	727.995E-3	-6.32648E-3	-88.5470E-12	767.193E-3	-11.2796E-3
-1.40320E-3	-90.2000E-12	730.212E-3	-13.0283E-3	-88.6646E-12	782.552E-3	-16.5196E-3
-1.40820E-3	-90.3523E-12	733.906E-3	-2.94684E-3	-88.7536E-12	789.317E-3	-30.4740E-3
-1.41321E-3	-90.3785E-12	747.648E-3	-1.66183E-3	-89.2760E-12	789.381E-3	-49.1795E-3
-1.41821E-3	-90.7329E-12	755.107E-3	-8.69394E-3	-89.5611E-12	796.281E-3	-51.2750E-3
-1.42321E-3	-90.3786E-12	762.476E-3	-13.8451E-3	-89.8474E-12	808.001E-3	-34.5459E-3
-1.42821E-3	-90.0872E-12	780.573E-3	-21.2050E-3	-90.1796E-12	797.127E-3	-29.6967E-3
-1.43322E-3	-89.9762E-12	786.873E-3	-24.6662E-3	-90.4851E-12	782.158E-3	-23.0268E-3
-1.43822E-3	-90.1589E-12	790.129E-3	-32.4431E-3	-90.5426E-12	788.469E-3	-10.7395E-3
-1.44322E-3	-90.4064E-12	809.420E-3	-26.4286E-3	-90.4392E-12	798.954E-3	-21.3733E-3
-1.44822E-3	-90.3542E-12	816.343E-3	-2.25248E-3	-90.5815E-12	804.879E-3	-27.9166E-3
-1.45323E-3	-91.0815E-12	818.433E-3	4.68240E-3	-90.3706E-12	798.228E-3	-12.7539E-3
-1.45823E-3	-91.2657E-12	811.780E-3	-483.834E-6	-91.4602E-12	789.284E-3	-16.7972E-3
-1.46323E-3	-91.3007E-12	794.810E-3	3.04189E-3	-91.3664E-12	796.168E-3	-26.9652E-3
-1.46823E-3	-92.3653E-12	799.128E-3	-1.20779E-3	-90.4953E-12	811.605E-3	-16.8778E-3
-1.47324E-3	-93.0004E-12	817.310E-3	-11.8868E-3	-91.4473E-12	823.155E-3	-12.7003E-3
-1.47824E-3	-93.4721E-12	820.957E-3	-12.9989E-3	-91.5467E-12	820.633E-3	-9.16455E-3
-1.48324E-3	-94.0181E-12	815.511E-3	-12.4081E-3	-91.5582E-12	815.374E-3	5.18632E-3
-1.48824E-3	-94.3920E-12	831.623E-3	-9.62939E-3	-91.7070E-12	815.594E-3	-2.89385E-3
-1.49325E-3	-94.7596E-12	841.929E-3	-8.63606E-3	-91.9347E-12	813.648E-3	-20.1908E-3
-1.49825E-3	-95.3048E-12	829.073E-3	-20.7402E-3	-92.4909E-12	816.758E-3	-11.5510E-3
-1.50325E-3	-95.0299E-12	828.785E-3	-37.1691E-3	-93.4212E-12	825.833E-3	-577.000E-6
-1.50825E-3	-94.6088E-12	832.221E-3	-39.9845E-3	-93.6763E-12	819.481E-3	-1.64418E-3
-1.51326E-3	-94.6634E-12	834.706E-3	-28.7601E-3	-94.5089E-12	812.729E-3	-3.14878E-3
-1.51826E-3	-94.5714E-12	844.431E-3	-10.5954E-3	-95.0278E-12	836.055E-3	-7.05259E-3
-1.52326E-3	-94.4128E-12	850.969E-3	8.96626E-3	-95.7361E-12	852.560E-3	-6.21686E-3
-1.52826E-3	-94.4861E-12	852.492E-3	8.57944E-3	-96.2404E-12	848.913E-3	-7.33297E-3
-1.53327E-3	-94.6452E-12	844.606E-3	-12.4339E-6	-97.2701E-12	839.395E-3	-25.0366E-3
-1.53827E-3	-94.0831E-12	821.211E-3	4.58380E-3	-97.3590E-12	822.584E-3	-38.3318E-3
-1.54327E-3	-94.3564E-12	791.223E-3	4.48424E-3	-97.1880E-12	828.828E-3	-39.9671E-3
-1.54827E-3	-94.3785E-12	786.987E-3	-4.30154E-3	-97.0437E-12	841.799E-3	-42.7210E-3
-1.55328E-3	-94.9118E-12	804.060E-3	-16.6716E-3	-97.9593E-12	824.383E-3	-36.0679E-3
-1.55828E-3	-95.0406E-12	816.000E-3	-30.9509E-3	-98.1855E-12	812.433E-3	-12.6940E-3
-1.56328E-3	-95.5542E-12	828.194E-3	-36.5334E-3	-97.4468E-12	830.962E-3	-7.42600E-3
-1.56828E-3	-96.1689E-12	830.023E-3	-29.8784E-3	-97.1559E-12	824.443E-3	-26.7036E-3
-1.57329E-3	-96.7387E-12	824.589E-3	-21.2205E-3	-98.3056E-12	804.275E-3	-31.1884E-3
-1.57829E-3	-97.3419E-12	838.784E-3	-16.3513E-3	-97.8351E-12	809.198E-3	-28.1562E-3
-1.58329E-3	-97.7204E-12	855.742E-3	-14.7670E-3	-97.5100E-12	807.691E-3	-34.1267E-3
-1.58829E-3	-97.7381E-12	849.975E-3	-12.9848E-3	-97.6413E-12	813.572E-3	-33.0281E-3
-1.59330E-3	-98.9668E-12	826.152E-3	-7.51032E-3	-97.7457E-12	840.866E-3	-18.7783E-3
-1.59830E-3	-99.4356E-12	814.196E-3	-2.89604E-3	-98.5575E-12	838.292E-3	-1.58181E-3
-1.60330E-3	-99.4485E-12	824.570E-3	-13.4992E-3	-99.6662E-12	829.614E-3	3.30042E-3
-1.60830E-3	-99.5777E-12	824.439E-3	-33.1481E-3	-99.9975E-12	848.800E-3	-3.32952E-3
-1.61331E-3	-99.4341E-12	824.496E-3	-37.2620E-3	-100.285E-12	840.175E-3	-12.4754E-3
-1.61831E-3	-99.8165E-12	829.434E-3	-30.3273E-3	-101.652E-12	810.669E-3	-5.48048E-3
-1.62331E-3	-99.6941E-12	820.658E-3	-26.4610E-3	-102.241E-12	807.135E-3	17.3747E-3
-1.62831E-3	-99.4336E-12	815.967E-3	-22.6473E-3	-101.841E-12	823.906E-3	12.6408E-3
-1.63332E-3	-99.7105E-12	819.692E-3	-16.5432E-3	-101.610E-12	825.280E-3	-8.89246E-3
-1.63832E-3	-100.349E-12	810.548E-3	-35.3120E-3	-102.531E-12	812.368E-3	-11.7173E-3
-1.64332E-3	-100.675E-12	782.176E-3	-60.2764E-3	-102.940E-12	815.814E-3	-15.5287E-3
-1.64832E-3	-100.497E-12	767.559E-3	-46.8656E-3	-102.183E-12	811.341E-3	-22.2876E-3
-1.65333E-3	-100.847E-12	782.454E-3	-21.9950E-3	-101.846E-12	789.396E-3	-10.6102E-3
-1.65833E-3	-101.869E-12	802.955E-3	-10.2492E-3	-101.844E-12	772.820E-3	-6.95339E-3
-1.66333E-3	-102.335E-12	808.090E-3	-5.31294E-3	-101.915E-12	764.769E-3	-14.6443E-3
-1.66833E-3	-102.117E-12	798.498E-3	-1.64245E-3	-101.991E-12	765.810E-3	-7.91281E-3
-1.67334E-3	-102.896E-12	791.315E-3	4.50874E-3	-102.015E-12	772.944E-3	-2.82438E-3
-1.67834E-3	-103.925E-12	796.685E-3	4.45451E-3	-101.050E-12	775.507E-3	-4.65363E-3
-1.68334E-3	-104.694E-12	818.343E-3	-7.26502E-3	-101.065E-12	770.899E-3	-10.2603E-3
-1.68834E-3	-105.103E-12	833.681E-3	-22.7053E-3	-102.623E-12	772.824E-3	-36.5774E-3
-1.69335E-3	-104.925E-12	813.453E-3	-22.3468E-3	-103.507E-12	782.579E-3	-53.4928E-3
-1.69835E-3	-105.818E-12	785.924E-3	-10.4577E-3	-102.937E-12	796.232E-3	-27.3198E-3
-1.70335E-3	-106.518E-12	786.087E-3	-2.67362E-3	-103.920E-12	803.702E-3	-6.92190E-3
-1.70835E-3	-106.634E-12	797.216E-3	-9.77041E-3	-106.050E-12	794.998E-3	-25.3021E-3
-1.71336E-3	-106.780E-12	794.177E-3	-26.4473E-3	-105.677E-12	791.305E-3	-36.8071E-3
-1.71836E-3	-106.615E-12	782.259E-3	-22.7866E-3	-105.579E-12	796.913E-3	-29.4137E-3
-1.72336E-3	-106.918E-12	775.424E-3	-7.34469E-3	-107.309E-12	795.754E-3	-19.2980E-3
-1.72836E-3	-107.604E-12	769.891E-3	-6.17495E-3	-107.661E-12	780.402E-3	-10.6658E-3
-1.73337E-3	-106.987E-12	773.275E-3	-9.51769E-3	-107.145E-12	762.367E-3	-22.4017E-3
-1.73837E-3	-106.545E-12	784.115E-3	-10.3314E-3	-107.438E-12	761.589E-3	-33.7271E-3
-1.74337E-3	-106.793E-12	780.645E-3	-7.69140E-3	-107.880E-12	775.869E-3	-24.1128E-3
-1.74837E-3	-106.688E-12	783.769E-3	-3.86971E-3	-107.344E-12	776.999E-3	-21.2897E-3
-1.75338E-3	-106.066E-12	793.184E-3	-9.96417E-3	-107.461E-12	746.430E-3	-24.4732E-3
-1.75838E-3	-106.209E-12	787.871E-3	-25.5737E-3	-107.381E-12	724.708E-3	-14.7317E-3
-1.76338E-3	-106.979E-12	777.112E-3	-28.6145E-3	-107.074E-12	742.404E-3	-19.3145E-3
-1.76838E-3	-107.022E-12	754.519E-3	-21.5216E-3	-107.248E-12	752.571E-3	-38.4146E-3
-1.77339E-3	-107.241E-12	731.866E-3	-22.5300E-3	-107.316E-12	743.548E-3	-37.8049E-3
-1.77839E-3	-107.639E-12	728.897E-3	-17.9641E-3	-107.524E-12	753.133E-3	-21.3687E-3
-1.78339E-3	-108.506E-12	737.752E-3	-19.6778E-3	-107.845E-12	767.409E-3	-15.7049E-3
-1.78839E-3	-109.119E-12	747.856E-3	-28.4565E-3	-108.759E-12	764.109E-3	-7.40132E-3
-1.79340E-3	-109.590E-12	755.227E-3	-28.8226E-3	-109.519E-12	763.832E-3	16.9209E-3
-1.79840E-3	-110.266E-12	753.680E-3	-29.0078E-3	-109.657E-12	770.459E-3	20.1573E-3
-1.80340E-3	-111.049E-12	744.233E-3	-29.7940E-3	-109.911E-12	758.700E-3	2.18686E-3
-1.80840E-3	-111.859E-12	738.850E-3	-22.0464E-3	-111.183E-12	736.275E-3	-12.5712E-3
-1.81341E-3	-112.006E-12	737.268E-3	-3.97990E-3	-110.793E-12	720.065E-3	-29.8295E-3
-1.81841E-3	-111.866E-12	737.728E-3	3.80170E-3	-111.670E-12	710.991E-3	-29.4294E-3
-1.82341E-3	-112.035E-12	747.284E-3	-22.6363E-3	-111.497E-12	726.374E-3	-6.61034E-3
-1.82841E-3	-112.103E-12	761.077E-3	-46.3479E-3	-111.546E-12	744.054E-3	-3.58153E-3
-1.83342E-3	-111.429E-12	761.585E-3	-34.6270E-3	-111.980E-12	743.924E-3	-11.5616E-3
-1.83842E-3	-111.051E-12	751.582E-3	-25.7850E-3	-113.224E-12	755.223E-3	-6.69932E-3
-1.84342E-3	-110.312E-12	762.510E-3	-19.7742E-3	-112.725E-12	749.244E-3	-4.01057E-3
-1.84842E-3	-110.355E-12	779.563E-3	-3.63062E-3	-112.566E-12	718.642E-3	-12.6061E-3
-1.85343E-3	-109.990E-12	772.098E-3	-1.84378E-3	-112.637E-12	717.075E-3	-28.3558E-3
-1.85843E-3	-109.613E-12	757.490E-3	-9.33424E-3	-113.577E-12	738.652E-3	-49.2642E-3
-1.86343E-3	-109.669E-12	737.312E-3	-9.96359E-3	-114.053E-12	758.429E-3	-60.2154E-3
-1.86843E-3	-109.947E-12	710.962E-3	-16.2452E-3	-114.478E-12	776.451E-3	-52.6170E-3
-1.87344E-3	-110.371E-12	708.966E-3	-16.6846E-3	-115.219E-12	770.839E-3	-47.9081E-3
-1.87844E-3	-110.183E-12	734.285E-3	-5.11432E-3	-115.440E-12	750.158E-3	-46.3370E-3
-1.88344E-3	-110.616E-12	740.702E-3	-13.2323E-3	-115.287E-12	731.424E-3	-34.4619E-3
-1.88844E-3	-111.945E-12	730.330E-3	-30.2417E-3	-115.864E-12	718.746E-3	-29.0407E-3
-1.89345E-3	-113.166E-12	733.840E-3	-21.7431E-3	-116.488E-12	716.265E-3	-27.4043E-3
-1.89845E-3	-113.425E-12	746.181E-3	-17.0387E-3	-115.627E-12	708.225E-3	-10.8689E-3
-1.90345E-3	-114.387E-12	742.504E-3	-30.2596E-3	-115.562E-12	717.499E-3	1.28148E-3
-1.90845E-3	-116.241E-12	713.286E-3	-23.3479E-3	-115.987E-12	737.917E-3	-5.03113E-3
-1.91346E-3	-116.725E-12	703.771E-3	-9.25391E-3	-116.141E-12	739.681E-3	-15.0047E-3
-1.91846E-3	-116.956E-12	718.428E-3	-9.11086E-3	-115.938E-12	734.484E-3	-17.4519E-3
-1.92346E-3	-117.579E-12	720.065E-3	-7.78031E-3	-115.902E-12	726.000E-3	-18.8993E-3
-1.92846E-3	-118.188E-12	723.711E-3	-8.28697E-3	-116.142E-12	721.689E-3	-19.2252E-3
-1.93347E-3	-117.962E-12	743.643E-3	-9.93733E-3	-116.404E-12	719.852E-3	-12.0324E-3
-1.93847E-3	-117.446E-12	751.475E-3	-960.562E-6	-116.644E-12	716.614E-3	-13.1301E-3
-1.94347E-3	-117.761E-12	729.085E-3	11.4531E-3	-117.128E-12	711.501E-3	-20.3681E-3
-1.94847E-3	-117.523E-12	701.488E-3	16.0443E-3	-117.393E-12	712.790E-3	-27.5649E-3
-1.95348E-3	-116.929E-12	695.789E-3	3.47419E-3	-117.657E-12	727.383E-3	-32.9388E-3
-1.95848E-3	-115.997E-12	707.476E-3	-17.2778E-3	-118.924E-12	731.200E-3	-26.0353E-3
-1.96348E-3	-115.946E-12	709.071E-3	-30.7098E-3	-119.295E-12	732.925E-3	-18.4702E-3
-1.96848E-3	-116.369E-12	697.323E-3	-24.5892E-3	-118.996E-12	749.056E-3	-6.29919E-3
-1.97349E-3	-116.561E-12	698.035E-3	-7.62995E-3	-119.158E-12	756.064E-3	13.9574E-3
-1.97849E-3	-116.305E-12	726.700E-3	-3.66643E-3	-119.474E-12	752.686E-3	255.912E-6
-1.98349E-3	-117.090E-12	753.807E-3	-5.63206E-3	-118.760E-12	745.658E-3	-28.7281E-3
-1.98849E-3	-117.854E-12	741.131E-3	1.69831E-3	-118.603E-12	726.849E-3	-11.2847E-3
-1.99350E-3	-118.888E-12	722.087E-3	4.89683E-3	-118.553E-12	720.874E-3	14.0995E-3
-1.99850E-3	-119.999E-12	725.844E-3	7.15431E-3	-118.720E-12	735.434E-3	9.12734E-3
-2.00350E-3	-120.461E-12	739.083E-3	12.0295E-3	-118.200E-12	732.139E-3	10.6070E-3
-2.00850E-3	-121.307E-12	751.106E-3	-11.1984E-3	-118.021E-12	716.165E-3	32.4308E-3
-2.01351E-3	-122.685E-12	752.988E-3	-47.7950E-3	-118.151E-12	718.444E-3	32.2788E-3
-2.01851E-3	-122.900E-12	739.086E-3	-59.3862E-3	-118.076E-12	719.020E-3	11.9547E-3
-2.02351E-3	-122.968E-12	731.648E-3	-38.6274E-3	-118.918E-12	705.502E-3	-2.09360E-3
-2.02851E-3	-123.621E-12	734.613E-3	-13.0935E-3	-119.278E-12	706.522E-3	-15.4963E-3
-2.03352E-3	-123.196E-12	734.708E-3	-9.30997E-3	-119.240E-12	714.003E-3	-16.2409E-3
-2.03852E-3	-123.548E-12	730.589E-3	-25.8013E-3	-120.148E-12	712.698E-3	-2.24683E-3
-2.04352E-3	-123.568E-12	715.992E-3	-42.8667E-3	-120.734E-12	715.346E-3	1.69401E-3
-2.04852E-3	-122.946E-12	713.453E-3	-32.4649E-3	-121.500E-12	715.147E-3	-4.00784E-3
-2.05353E-3	-122.299E-12	730.854E-3	-25.4700E-3	-121.894E-12	723.168E-3	-15.9802E-3
-2.05853E-3	-122.438E-12	731.735E-3	-37.6685E-3	-122.916E-12	738.863E-3	-17.7075E-3
-2.06353E-3	-122.219E-12	714.299E-3	-34.4315E-3	-122.692E-12	729.358E-3	10.0747E-3
-2.06853E-3	-121.814E-12	705.225E-3	-25.5365E-3	-122.397E-12	704.982E-3	17.8016E-3
-2.07354E-3	-121.200E-12	714.721E-3	-20.7405E-3	-122.606E-12	690.175E-3	-22.5924E-3
-2.07854E-3	-121.137E-12	721.081E-3	-18.6032E-3	-122.765E-12	685.818E-3	-42.3734E-3
-2.08354E-3	-121.387E-12	719.982E-3	-28.5085E-3	-121.874E-12	677.256E-3	-11.2363E-3
-2.08854E-3	-122.562E-12	725.833E-3	-32.5264E-3	-122.005E-12	671.072E-3	-4.73258E-3
-2.09355E-3	-122.412E-12	726.122E-3	-16.9499E-3	-122.701E-12	684.860E-3	-30.1784E-3
-2.09855E-3	-123.202E-12	707.123E-3	-8.42341E-3	-122.686E-12	705.917E-3	-26.7624E-3
-2.10355E-3	-124.818E-12	691.856E-3	-10.8586E-3	-122.225E-12	721.483E-3	-11.3053E-3
-2.10855E-3	-124.997E-12	699.016E-3	-3.46789E-3	-123.658E-12	721.098E-3	-21.9160E-3
-2.11356E-3	-125.047E-12	711.381E-3	2.00797E-3	-124.205E-12	712.430E-3	-47.9085E-3
-2.11856E-3	-126.567E-12	728.202E-3	-4.79720E-3	-124.675E-12	717.734E-3	-52.1176E-3
-2.12356E-3	-126.783E-12	741.896E-3	-1.00963E-3	-125.552E-12	730.823E-3	-40.9217E-3
-2.12856E-3	-127.349E-12	749.703E-3	15.9352E-3	-126.867E-12	738.486E-3	-60.0301E-3
-2.13357E-3	-127.590E-12	755.681E-3	12.0433E-3	-127.276E-12	750.015E-3	-74.1224E-3
-2.13857E-3	-127.457E-12	746.348E-3	-8.07081E-3	-127.760E-12	754.552E-3	-37.6198E-3
-2.14357E-3	-127.390E-12	725.688E-3	-17.9457E-3	-127.739E-12	740.589E-3	-13.8203E-3
-2.14857E-3	-127.512E-12	705.979E-3	-16.3076E-3	-128.465E-12	730.539E-3	-35.6127E-3
-2.15358E-3	-126.856E-12	705.015E-3	-1.14077E-3	-129.431E-12	720.032E-3	-55.5443E-3
-2.15858E-3	-127.353E-12	710.566E-3	12.7733E-3	-128.883E-12	706.984E-3	-46.2333E-3
-2.16358E-3	-127.243E-12	705.435E-3	5.52332E-3	-129.079E-12	714.430E-3	-25.6355E-3
-2.16858E-3	-126.971E-12	705.326E-3	2.60627E-3	-128.693E-12	723.795E-3	-23.5666E-3
-2.17359E-3	-126.609E-12	695.498E-3	16.0011E-3	-128.588E-12	724.612E-3	-27.0965E-3
-2.17859E-3	-126.529E-12	687.146E-3	16.1768E-3	-128.728E-12	733.640E-3	-19.5865E-3
-2.18359E-3	-125.870E-12	705.510E-3	-5.87775E-3	-129.527E-12	739.212E-3	-23.7658E-3
-2.18859E-3	-126.133E-12	702.850E-3	-31.1620E-3	-128.835E-12	741.798E-3	-30.8151E-3
-2.19360E-3	-126.860E-12	680.433E-3	-44.2216E-3	-129.055E-12	735.265E-3	-16.6942E-3
-2.19860E-3	-127.097E-12	687.174E-3	-38.7283E-3	-130.134E-12	720.322E-3	1.87800E-3
-2.20360E-3	-127.501E-12	695.810E-3	-15.6775E-3	-130.525E-12	724.707E-3	-5.48921E-3
-2.20860E-3	-128.259E-12	694.710E-3	-13.3522E-3	-131.307E-12	727.545E-3	-24.1841E-3
-2.21361E-3	-129.105E-12	709.980E-3	-22.0910E-3	-131.265E-12	721.059E-3	-22.3654E-3
-2.21861E-3	-129.267E-12	707.954E-3	-11.2388E-3	-132.070E-12	718.073E-3	-13.6573E-3
-2.22361E-3	-130.166E-12	674.785E-3	-13.2586E-3	-133.166E-12	719.312E-3	-16.0687E-3
-2.22861E-3	-130.943E-12	678.101E-3	-16.7261E-3	-133.242E-12	726.716E-3	-10.6098E-3
-2.23362E-3	-131.387E-12	724.347E-3	-5.60708E-3	-132.620E-12	730.242E-3	12.1499E-3
-2.23862E-3	-131.873E-12	751.896E-3	-6.48185E-3	-133.204E-12	723.345E-3	23.3401E-3
-2.24362E-3	-131.809E-12	755.470E-3	-24.4121E-3	-133.262E-12	716.890E-3	2.42800E-3
-2.24862E-3	-132.971E-12	743.511E-3	-25.3397E-3	-132.345E-12	709.979E-3	-18.3337E-3
-2.25363E-3	-133.851E-12	729.196E-3	-8.08893E-3	-131.931E-12	695.343E-3	-11.1346E-3
-2.25863E-3	-133.077E-12	719.182E-3	-6.38483E-3	-131.784E-12	689.201E-3	539.368E-6
-2.26363E-3	-132.441E-12	718.887E-3	-4.88131E-3	-131.313E-12	685.885E-3	758.650E-6
-2.26863E-3	-132.977E-12	715.078E-3	-2.35322E-3	-131.188E-12	677.438E-3	3.74231E-3
-2.27364E-3	-133.063E-12	700.877E-3	3.29299E-3	-131.101E-12	678.488E-3	1.37050E-3
-2.27864E-3	-132.929E-12	707.882E-3	17.6412E-3	-131.035E-12	682.655E-3	-9.20752E-3
-2.28364E-3	-132.827E-12	712.593E-3	16.1124E-3	-131.032E-12	680.621E-3	-16.1104E-3
-2.28864E-3	-132.364E-12	689.802E-3	-2.09618E-3	-131.691E-12	676.457E-3	-26.6952E-3
-2.29365E-3	-133.468E-12	671.429E-3	-6.23769E-3	-131.867E-12	671.463E-3	-40.9547E-3
-2.29865E-3	-134.289E-12	682.000E-3	1.58024E-3	-132.100E-12	672.129E-3	-42.1655E-3
-2.30365E-3	-133.766E-12	698.701E-3	6.61469E-3	-132.431E-12	671.127E-3	-24.7344E-3
-2.30865E-3	-133.561E-12	686.156E-3	21.2069E-3	-132.814E-12	662.212E-3	-7.81217E-3
-2.31366E-3	-134.536E-12	657.765E-3	16.1571E-3	-132.793E-12	670.617E-3	-5.92765E-3
-2.31866E-3	-135.151E-12	656.156E-3	-15.8737E-3	-133.639E-12	696.466E-3	-17.0011E-3
-2.32366E-3	-135.271E-12	677.853E-3	-23.6050E-3	-134.082E-12	719.202E-3	-29.8243E-3
-2.32866E-3	-135.711E-12	668.852E-3	-27.8531E-3	-133.493E-12	720.268E-3	-32.7660E-3
-2.33367E-3	-135.928E-12	647.665E-3	-45.4399E-3	-133.328E-12	691.692E-3	-27.3062E-3
-2.33867E-3	-137.212E-12	672.473E-3	-38.7328E-3	-134.130E-12	670.612E-3	-27.8463E-3
-2.34367E-3	-137.446E-12	700.319E-3	-25.6057E-3	-134.802E-12	680.822E-3	-19.1323E-3
-2.34867E-3	-137.481E-12	690.116E-3	-46.1470E-3	-134.394E-12	697.411E-3	-13.2793E-6
-2.35368E-3	-137.403E-12	684.401E-3	-66.3795E-3	-134.566E-12	700.270E-3	-13.5646E-3
-2.35868E-3	-137.943E-12	713.267E-3	-36.7789E-3	-135.334E-12	702.078E-3	-28.3823E-3
-2.36368E-3	-137.984E-12	744.237E-3	-6.88856E-3	-135.868E-12	707.585E-3	-27.6648E-3
-2.36868E-3	-137.227E-12	737.704E-3	-13.8182E-3	-136.260E-12	689.639E-3	-42.2261E-3
-2.37369E-3	-137.900E-12	711.227E-3	-28.1659E-3	-136.222E-12	660.893E-3	-63.2299E-3
-2.37869E-3	-137.273E-12	698.735E-3	-41.5395E-3	-137.015E-12	667.903E-3	-70.4229E-3
-2.38369E-3	-136.902E-12	697.596E-3	-53.5891E-3	-137.781E-12	705.886E-3	-48.2002E-3
-2.38869E-3	-137.415E-12	684.971E-3	-42.1125E-3	-138.374E-12	732.614E-3	-14.9221E-3
-2.39370E-3	-136.916E-12	663.758E-3	-31.4998E-3	-138.414E-12	733.685E-3	-13.7980E-3
-2.39870E-3	-136.261E-12	659.332E-3	-40.6823E-3	-138.195E-12	727.384E-3	-46.5429E-3
-2.40370E-3	-137.040E-12	674.263E-3	-21.5700E-3	-139.499E-12	717.080E-3	-51.7456E-3
-2.40870E-3	-137.906E-12	679.758E-3	6.99055E-3	-138.916E-12	692.692E-3	-11.6155E-3
-2.41371E-3	-138.597E-12	671.761E-3	-3.40876E-3	-138.094E-12	674.931E-3	11.9727E-3
-2.41871E-3	-138.480E-12	662.299E-3	-1.53967E-3	-139.359E-12	671.063E-3	-1.74058E-3
-2.42371E-3	-139.203E-12	666.122E-3	19.3025E-3	-139.614E-12	683.084E-3	-14.8574E-3
-2.42871E-3	-140.694E-12	682.742E-3	16.8070E-3	-137.695E-12	713.397E-3	-17.6072E-3
-2.43372E-3	-140.910E-12	694.710E-3	8.55068E-3	-139.514E-12	712.847E-3	-21.5436E-3
-2.43872E-3	-141.033E-12	713.698E-3	3.29245E-3	-140.162E-12	690.595E-3	-11.4999E-3
-2.44372E-3	-142.016E-12	725.588E-3	3.98799E-3	-139.419E-12	691.632E-3	6.72782E-3
-2.44872E-3	-142.203E-12	703.614E-3	17.8945E-3	-140.417E-12	690.878E-3	1.41121E-3
-2.45373E-3	-142.545E-12	685.796E-3	26.4913E-3	-141.848E-12	683.183E-3	-12.4361E-3
-2.45873E-3	-143.047E-12	704.934E-3	11.9701E-3	-141.475E-12	690.539E-3	-23.3075E-3
-2.46373E-3	-143.338E-12	720.991E-3	-9.46359E-3	-141.258E-12	705.190E-3	-41.4697E-3
-2.46873E-3	-142.889E-12	701.638E-3	-9.59460E-3	-142.763E-12	720.887E-3	-51.0465E-3
-2.47374E-3	-142.663E-12	693.090E-3	23.5593E-6	-143.546E-12	717.627E-3	-45.6591E-3
-2.47874E-3	-142.371E-12	719.109E-3	-24.7879E-3	-144.096E-12	698.537E-3	-31.4256E-3
-2.48374E-3	-141.790E-12	726.437E-3	-55.5235E-3	-144.650E-12	689.812E-3	-4.85555E-3
-2.48874E-3	-141.407E-12	719.510E-3	-56.8779E-3	-144.053E-12	687.778E-3	16.1647E-3
-2.49375E-3	-141.773E-12	718.212E-3	-48.7607E-3	-144.392E-12	689.557E-3	-289.202E-6
-2.49875E-3	-141.142E-12	703.305E-3	-33.1994E-3	-144.070E-12	687.237E-3	-28.8764E-3
-2.50375E-3	-141.685E-12	690.180E-3	-18.7017E-3	-143.750E-12	687.825E-3	-33.5779E-3
-2.50875E-3	-142.470E-12	689.580E-3	-6.81228E-3	-142.602E-12	701.396E-3	-30.9326E-3
-2.51376E-3	-143.917E-12	690.258E-3	-199.829E-6	-142.305E-12	712.817E-3	-30.4520E-3
-2.51876E-3	-143.382E-12	686.588E-3	-14.2243E-3	-143.251E-12	720.978E-3	-41.7471E-3
-2.52376E-3	-144.912E-12	691.362E-3	-31.5391E-3	-143.098E-12	724.521E-3	-50.6950E-3
-2.52876E-3	-146.281E-12	704.883E-3	-30.8260E-3	-142.697E-12	721.404E-3	-27.7153E-3
-2.53377E-3	-147.268E-12	713.897E-3	-20.0332E-3	-142.857E-12	726.064E-3	-755.616E-6
-2.53877E-3	-147.361E-12	720.286E-3	-3.04572E-3	-144.003E-12	735.419E-3	-14.6275E-3
-2.54377E-3	-148.071E-12	708.348E-3	5.47314E-3	-144.372E-12	729.418E-3	-27.3055E-3
-2.54877E-3	-148.376E-12	689.579E-3	-14.8419E-3	-145.499E-12	704.826E-3	-11.4056E-3
-2.55378E-3	-149.101E-12	688.115E-3	-28.8776E-3	-145.856E-12	701.634E-3	-8.41071E-3
-2.55878E-3	-148.707E-12	684.684E-3	-9.18348E-3	-146.073E-12	720.582E-3	-9.16353E-3
-2.56378E-3	-147.521E-12	687.019E-3	3.18199E-3	-147.629E-12	735.671E-3	-8.38979E-3
-2.56878E-3	-147.477E-12	714.091E-3	-3.81949E-3	-148.649E-12	741.131E-3	-24.4942E-3
-2.57379E-3	-146.930E-12	730.303E-3	-2.65344E-3	-148.343E-12	723.073E-3	-31.9690E-3
-2.57879E-3	-146.217E-12	716.292E-3	14.5033E-3	-148.697E-12	700.943E-3	-12.8679E-3
-2.58379E-3	-145.423E-12	709.168E-3	23.0208E-3	-150.179E-12	702.327E-3	3.39040E-3
-2.58879E-3	-145.408E-12	713.134E-3	-4.34200E-3	-149.706E-12	716.123E-3	982.395E-6
-2.59380E-3	-145.058E-12	706.022E-3	-28.7472E-3	-149.334E-12	719.810E-3	4.78885E-3
-2.59880E-3	-145.430E-12	700.430E-3	-20.6526E-3	-149.085E-12	700.605E-3	7.32034E-3
-2.60380E-3	-145.332E-12	689.539E-3	-12.5056E-3	-148.608E-12	662.656E-3	-3.10972E-3
-2.60880E-3	-145.754E-12	678.907E-3	-10.7124E-3	-148.138E-12	640.188E-3	5.12108E-3
-2.61381E-3	-145.842E-12	691.790E-3	-11.9152E-3	-148.398E-12	652.542E-3	6.01622E-3
-2.61881E-3	-147.473E-12	693.045E-3	-25.5282E-3	-147.912E-12	671.899E-3	-21.9495E-3
-2.62381E-3	-148.605E-12	670.793E-3	-22.8757E-3	-147.472E-12	681.140E-3	-38.1277E-3
-2.62881E-3	-148.865E-12	662.694E-3	-8.46192E-3	-147.894E-12	687.966E-3	-31.8253E-3
-2.63382E-3	-150.196E-12	666.913E-3	-12.7520E-3	-148.508E-12	693.788E-3	-22.2008E-3
-2.63882E-3	-151.070E-12	668.932E-3	-14.3798E-3	-149.463E-12	692.530E-3	-11.6653E-3
-2.64382E-3	-151.659E-12	688.729E-3	6.10974E-3	-149.002E-12	693.996E-3	-4.38231E-3
-2.64882E-3	-152.080E-12	709.011E-3	24.3071E-3	-149.714E-12	702.665E-3	2.11991E-3
-2.65383E-3	-152.727E-12	713.010E-3	-739.005E-6	-150.832E-12	698.351E-3	4.64817E-3
-2.65883E-3	-152.930E-12	720.080E-3	-22.5347E-3	-151.746E-12	693.779E-3	-6.60801E-3
-2.66383E-3	-152.489E-12	730.817E-3	-4.78442E-3	-151.261E-12	691.581E-3	-14.1809E-3
-2.66883E-3	-152.089E-12	741.329E-3	3.90969E-3	-152.168E-12	686.395E-3	-18.7396E-3
-2.67384E-3	-151.473E-12	739.388E-3	-15.8050E-3	-152.643E-12	701.938E-3	-17.8722E-3
-2.67884E-3	-151.023E-12	710.986E-3	-32.9641E-3	-151.637E-12	727.634E-3	-15.0468E-3
-2.68384E-3	-150.571E-12	677.199E-3	-23.6736E-3	-152.235E-12	726.169E-3	-10.6305E-3
-2.68884E-3	-150.384E-12	667.479E-3	-13.5715E-3	-153.044E-12	707.313E-3	-12.4512E-3
-2.69385E-3	-149.556E-12	667.982E-3	-5.87947E-3	-152.188E-12	702.145E-3	-22.9129E-3
-2.69885E-3	-150.303E-12	660.555E-3	9.06447E-3	-151.422E-12	708.006E-3	-21.7065E-3
-2.70385E-3	-150.317E-12	643.895E-3	11.4890E-3	-152.808E-12	711.326E-3	-25.9971E-3
-2.70885E-3	-150.319E-12	656.442E-3	9.34433E-3	-152.643E-12	690.854E-3	-33.0550E-3
-2.71386E-3	-150.710E-12	683.394E-3	14.0797E-3	-151.884E-12	655.104E-3	-24.0320E-3
-2.71886E-3	-151.945E-12	678.692E-3	6.85502E-3	-152.619E-12	648.063E-3	-22.5892E-3
-2.72386E-3	-153.136E-12	676.519E-3	-4.89959E-3	-152.121E-12	675.958E-3	-36.7917E-3
-2.72886E-3	-153.146E-12	690.154E-3	-7.34961E-3	-152.892E-12	703.926E-3	-41.0129E-3
-2.73387E-3	-154.833E-12	680.465E-3	-27.2259E-3	-153.790E-12	698.655E-3	-25.4127E-3
-2.73887E-3	-155.258E-12	677.078E-3	-48.4098E-3	-153.494E-12	677.472E-3	-3.71761E-3
-2.74387E-3	-156.496E-12	707.577E-3	-50.9069E-3	-152.507E-12	669.852E-3	-142.107E-6
-2.74887E-3	-156.176E-12	717.696E-3	-45.0504E-3	-154.367E-12	675.524E-3	-10.9638E-3
-2.75388E-3	-156.677E-12	707.390E-3	-39.0584E-3	-154.356E-12	690.093E-3	-31.6333E-3
-2.75888E-3	-157.106E-12	710.722E-3	-54.9552E-3	-154.290E-12	697.081E-3	-49.2729E-3
-2.76388E-3	-156.815E-12	722.631E-3	-55.6024E-3	-154.776E-12	694.548E-3	-31.8915E-3
-2.76888E-3	-156.401E-12	722.192E-3	-31.3804E-3	-155.091E-12	694.899E-3	-2.65321E-3
-2.77389E-3	-157.018E-12	712.771E-3	-26.4104E-3	-154.684E-12	684.825E-3	8.35202E-3
-2.77889E-3	-156.347E-12	705.066E-3	-37.9554E-3	-156.484E-12	685.739E-3	1.20656E-3
-2.78389E-3	-155.614E-12	696.107E-3	-35.4302E-3	-156.303E-12	716.511E-3	-10.3322E-3
-2.78889E-3	-155.174E-12	696.514E-3	-20.3829E-3	-156.287E-12	722.383E-3	-16.1211E-3
-2.79390E-3	-155.835E-12	698.041E-3	-26.9691E-3	-157.010E-12	702.864E-3	-30.4853E-3
-2.79890E-3	-155.545E-12	678.882E-3	-40.1545E-3	-158.833E-12	678.343E-3	-52.8212E-3
-2.80390E-3	-154.831E-12	679.781E-3	-25.5894E-3	-158.286E-12	662.918E-3	-59.9262E-3
-2.80890E-3	-154.717E-12	700.683E-3	-2.22000E-3	-158.106E-12	685.258E-3	-46.5850E-3
-2.81391E-3	-155.157E-12	694.914E-3	-2.69285E-3	-159.303E-12	714.814E-3	-28.4887E-3
-2.81891E-3	-156.022E-12	688.762E-3	6.28360E-3	-159.617E-12	703.827E-3	-23.9078E-3
-2.82391E-3	-157.066E-12	683.746E-3	26.2656E-3	-159.642E-12	683.406E-3	-26.6500E-3
-2.82891E-3	-156.892E-12	676.381E-3	16.1322E-3	-159.628E-12	682.527E-3	-31.7423E-3
-2.83392E-3	-158.004E-12	671.250E-3	5.57691E-3	-159.249E-12	679.899E-3	-34.2426E-3
-2.83892E-3	-159.034E-12	659.234E-3	9.85528E-3	-159.229E-12	681.547E-3	-13.4139E-3
-2.84392E-3	-159.881E-12	665.948E-3	-3.04566E-3	-159.007E-12	696.393E-3	-5.94835E-3
-2.84892E-3	-159.987E-12	679.819E-3	-16.8346E-3	-158.592E-12	703.166E-3	-18.2722E-3
-2.85393E-3	-161.198E-12	676.047E-3	-7.15866E-3	-157.651E-12	690.888E-3	-27.8991E-3
-2.85893E-3	-161.842E-12	679.360E-3	-4.87146E-3	-157.435E-12	673.632E-3	-42.6597E-3
-2.86393E-3	-161.926E-12	691.422E-3	-6.16296E-3	-157.420E-12	657.066E-3	-39.5971E-3
-2.86893E-3	-162.935E-12	681.594E-3	-5.12285E-3	-158.318E-12	664.903E-3	-17.0740E-3
-2.87394E-3	-163.065E-12	674.839E-3	-23.5624E-3	-158.080E-12	693.086E-3	-2.45300E-3
-2.87894E-3	-162.830E-12	690.697E-3	-37.6948E-3	-158.092E-12	700.866E-3	-17.1517E-3
-2.88394E-3	-162.993E-12	696.072E-3	-24.1338E-3	-159.071E-12	695.492E-3	-59.9482E-3
-2.88894E-3	-163.449E-12	694.064E-3	-10.7244E-3	-160.366E-12	699.460E-3	-85.0320E-3
-2.89395E-3	-162.242E-12	702.195E-3	-22.0887E-3	-160.307E-12	706.770E-3	-70.0478E-3
-2.89895E-3	-161.436E-12	704.947E-3	-26.8352E-3	-160.692E-12	706.886E-3	-34.5283E-3
-2.90395E-3	-161.002E-12	686.424E-3	-8.01002E-3	-160.749E-12	709.204E-3	398.045E-6
-2.90895E-3	-160.517E-12	670.026E-3	5.33936E-3	-162.145E-12	712.093E-3	10.1873E-3
-2.91396E-3	-160.396E-12	681.357E-3	-10.1933E-3	-163.019E-12	699.639E-3	204.276E-6
-2.91896E-3	-160.600E-12	701.187E-3	-32.3228E-3	-163.224E-12	693.803E-3	-2.41239E-3
-2.92396E-3	-159.887E-12	716.811E-3	-33.7531E-3	-163.029E-12	705.553E-3	11.2271E-3
-2.92896E-3	-159.703E-12	698.721E-3	-22.4611E-3	-163.533E-12	700.597E-3	8.66396E-3
-2.93397E-3	-160.200E-12	662.112E-3	-8.97145E-3	-163.823E-12	677.099E-3	-21.9181E-3
-2.93897E-3	-161.560E-12	670.900E-3	-7.86962E-3	-162.798E-12	668.306E-3	-25.4655E-3
-2.94397E-3	-162.051E-12	684.233E-3	-22.8538E-3	-162.388E-12	678.859E-3	-351.562E-6
-2.94897E-3	-163.115E-12	661.755E-3	-46.2021E-3	-162.062E-12	683.417E-3	9.35382E-3
-2.95398E-3	-164.033E-12	652.031E-3	-80.7007E-3	-162.644E-12	677.105E-3	8.95277E-3
-2.95898E-3	-165.082E-12	691.562E-3	-89.5426E-3	-162.668E-12	679.885E-3	-5.98861E-3
-2.96398E-3	-167.130E-12	723.000E-3	-51.3408E-3	-162.834E-12	692.562E-3	-35.9470E-3
-2.96898E-3	-167.754E-12	713.828E-3	-15.1714E-3	-163.062E-12	683.927E-3	-35.6861E-3
-2.97399E-3	-168.216E-12	709.178E-3	6.11285E-3	-162.992E-12	656.129E-3	-8.40302E-3
-2.97899E-3	-168.191E-12	707.678E-3	11.2168E-3	-165.452E-12	662.829E-3	2.74823E-3
-2.98399E-3	-169.463E-12	701.807E-3	-9.87868E-3	-166.035E-12	706.731E-3	149.562E-6
-2.98899E-3	-168.251E-12	703.940E-3	-22.1525E-3	-166.209E-12	744.539E-3	-1.41249E-3
-2.99400E-3	-167.035E-12	716.488E-3	-16.6700E-3	-166.483E-12	758.935E-3	-6.33977E-3
-2.99900E-3	-166.772E-12	722.724E-3	-15.8357E-3	-167.707E-12	736.185E-3	-29.1403E-3
-3.00400E-3	-166.422E-12	709.020E-3	2.70089E-3	-168.716E-12	704.187E-3	-51.9682E-3
-3.00900E-3	-164.256E-12	698.322E-3	26.2521E-3	-168.729E-12	695.634E-3	-38.2220E-3
-3.01401E-3	-163.756E-12	688.883E-3	20.4691E-3	-169.047E-12	693.946E-3	-6.38892E-3
-3.01901E-3	-163.183E-12	683.746E-3	9.09221E-3	-169.965E-12	692.229E-3	11.0715E-3
-3.02401E-3	-162.262E-12	689.828E-3	12.0517E-3	-169.934E-12	695.477E-3	11.7784E-3
-3.02901E-3	-162.901E-12	678.652E-3	19.3938E-3	-169.901E-12	677.056E-3	-1.71191E-3
-3.03402E-3	-162.617E-12	666.155E-3	24.5774E-3	-168.958E-12	648.922E-3	-10.2645E-3
-3.03902E-3	-163.231E-12	672.311E-3	32.1286E-3	-169.406E-12	655.103E-3	2.07573E-3
-3.04402E-3	-165.038E-12	663.183E-3	20.8434E-3	-169.263E-12	674.453E-3	3.59011E-3
-3.04902E-3	-166.526E-12	650.305E-3	10.2886E-3	-169.281E-12	684.799E-3	-14.5007E-3
-3.05403E-3	-167.854E-12	668.181E-3	-2.02917E-3	-168.763E-12	687.914E-3	-6.54313E-3
-3.05903E-3	-169.326E-12	693.818E-3	-30.9415E-3	-169.031E-12	696.544E-3	32.1879E-3
-3.06403E-3	-170.877E-12	692.312E-3	-49.8632E-3	-169.288E-12	724.940E-3	29.5161E-3
-3.06903E-3	-172.793E-12	674.547E-3	-50.9880E-3	-169.880E-12	733.035E-3	-12.8698E-3
-3.07404E-3	-174.070E-12	685.093E-3	-34.9841E-3	-169.343E-12	704.212E-3	-35.6540E-3
-3.07904E-3	-174.434E-12	700.966E-3	-29.6390E-3	-168.758E-12	684.204E-3	-34.7387E-3
-3.08404E-3	-174.934E-12	690.424E-3	-49.1645E-3	-170.133E-12	682.023E-3	-33.2095E-3
-3.08904E-3	-175.825E-12	687.471E-3	-59.0639E-3	-171.207E-12	695.165E-3	-31.9585E-3
-3.09405E-3	-174.729E-12	725.879E-3	-36.1860E-3	-169.887E-12	705.440E-3	-27.2778E-3
-3.09905E-3	-174.093E-12	761.360E-3	-15.0664E-3	-170.694E-12	689.683E-3	-13.3956E-3
-3.10405E-3	-173.804E-12	740.468E-3	-12.9932E-3	-171.426E-12	672.319E-3	15.3073E-3
-3.10905E-3	-173.068E-12	707.052E-3	-16.8112E-3	-172.221E-12	687.607E-3	8.30088E-3
-3.11406E-3	-172.000E-12	698.590E-3	-21.7109E-3	-171.720E-12	706.277E-3	-26.2643E-3
-3.11906E-3	-171.376E-12	688.058E-3	-24.1535E-3	-171.179E-12	693.835E-3	-33.2338E-3
-3.12406E-3	-170.879E-12	673.059E-3	-24.7550E-3	-171.697E-12	679.577E-3	-18.6966E-3
-3.12906E-3	-170.318E-12	673.132E-3	-32.0697E-3	-172.374E-12	669.289E-3	-9.90088E-3
-3.13407E-3	-171.165E-12	671.721E-3	-30.5192E-3	-171.732E-12	666.949E-3	-8.30028E-3
-3.13907E-3	-171.061E-12	671.915E-3	-9.19032E-3	-172.473E-12	677.734E-3	-16.9339E-3
-3.14407E-3	-171.082E-12	678.995E-3	4.45946E-3	-172.805E-12	695.412E-3	-26.9784E-3
-3.14907E-3	-172.327E-12	678.235E-3	-18.3227E-3	-173.134E-12	728.604E-3	-27.6207E-3
-3.15408E-3	-173.000E-12	680.288E-3	-51.4291E-3	-173.644E-12	748.466E-3	-48.9812E-3
-3.15908E-3	-173.260E-12	679.334E-3	-45.3982E-3	-174.015E-12	723.134E-3	-59.7362E-3
-3.16408E-3	-174.903E-12	667.121E-3	-14.3049E-3	-173.845E-12	690.535E-3	-30.9990E-3
-3.16908E-3	-175.637E-12	673.912E-3	8.73015E-3	-174.461E-12	691.171E-3	-18.1325E-3
-3.17409E-3	-176.537E-12	685.172E-3	7.06681E-3	-174.835E-12	693.735E-3	-30.7726E-3
-3.17909E-3	-176.319E-12	698.338E-3	-13.1079E-3	-174.459E-12	678.688E-3	-25.5952E-3
-3.18409E-3	-177.081E-12	717.055E-3	-40.5490E-3	-175.133E-12	680.313E-3	-25.2187E-3
-3.18909E-3	-175.508E-12	721.560E-3	-49.8233E-3	-174.681E-12	681.133E-3	-44.4018E-3
-3.19410E-3	-176.265E-12	729.065E-3	-26.2545E-3	-174.139E-12	669.757E-3	-49.1177E-3
-3.19910E-3	-175.453E-12	725.011E-3	-5.98996E-3	-175.458E-12	679.364E-3	-30.8756E-3
-3.20410E-3	-174.699E-12	702.712E-3	-5.94050E-3	-175.998E-12	682.866E-3	-10.8154E-3
-3.20910E-3	-173.846E-12	666.402E-3	5.08681E-3	-174.967E-12	667.689E-3	-15.8332E-3
-3.21411E-3	-174.708E-12	624.725E-3	11.7604E-3	-175.408E-12	671.280E-3	-41.7509E-3
-3.21911E-3	-173.646E-12	618.509E-3	-13.5043E-3	-176.662E-12	687.370E-3	-54.3822E-3
-3.22411E-3	-172.950E-12	642.591E-3	-31.2310E-3	-176.683E-12	679.264E-3	-28.4110E-3
-3.22911E-3	-173.388E-12	656.848E-3	-36.8208E-3	-177.115E-12	666.283E-3	-99.5577E-6
-3.23412E-3	-174.530E-12	664.803E-3	-46.7330E-3	-177.686E-12	661.040E-3	-10.6487E-3
-3.23912E-3	-174.164E-12	671.472E-3	-48.9962E-3	-178.828E-12	655.792E-3	-8.81119E-3
-3.24412E-3	-174.405E-12	660.543E-3	-52.3709E-3	-178.713E-12	665.136E-3	18.1004E-3
-3.24912E-3	-175.037E-12	658.295E-3	-47.0024E-3	-178.962E-12	668.227E-3	17.9436E-3
-3.25413E-3	-175.903E-12	683.569E-3	-28.6130E-3	-179.398E-12	663.104E-3	-4.55827E-3
-3.25913E-3	-176.696E-12	692.403E-3	-11.1022E-3	-178.729E-12	675.229E-3	-15.5446E-3
-3.26413E-3	-177.752E-12	683.365E-3	-6.27578E-3	-178.959E-12	694.802E-3	-19.7254E-3
-3.26913E-3	-178.424E-12	672.568E-3	-22.7483E-3	-179.134E-12	699.072E-3	-23.8951E-3
-3.27414E-3	-178.986E-12	658.317E-3	-23.8692E-3	-179.287E-12	685.139E-3	-8.10387E-3
-3.27914E-3	-179.459E-12	669.732E-3	-10.1536E-3	-178.069E-12	671.628E-3	-2.13926E-3
-3.28414E-3	-179.504E-12	680.648E-3	1.27663E-3	-178.976E-12	677.161E-3	-20.4071E-3
-3.28914E-3	-179.882E-12	684.363E-3	822.972E-6	-177.959E-12	685.310E-3	-33.2187E-3
-3.29415E-3	-181.180E-12	704.173E-3	-19.2252E-3	-177.066E-12	693.568E-3	-30.2672E-3
-3.29915E-3	-180.993E-12	715.643E-3	-7.48103E-3	-177.098E-12	696.361E-3	-32.8958E-3
-3.30415E-3	-181.133E-12	717.875E-3	29.9262E-3	-177.333E-12	674.156E-3	-40.7432E-3
-3.30915E-3	-181.387E-12	735.438E-3	16.3106E-3	-177.647E-12	653.188E-3	-35.1703E-3
-3.31416E-3	-181.407E-12	741.204E-3	-24.7817E-3	-178.393E-12	654.605E-3	-43.8713E-3
-3.31916E-3	-181.961E-12	698.897E-3	-39.4368E-3	-178.161E-12	667.752E-3	-45.7195E-3
-3.32416E-3	-183.046E-12	656.940E-3	-42.9576E-3	-179.200E-12	695.431E-3	-32.6235E-3
-3.32916E-3	-182.742E-12	663.642E-3	-22.5708E-3	-180.286E-12	729.171E-3	-37.8319E-3
-3.33417E-3	-180.950E-12	688.057E-3	22.2344E-3	-181.127E-12	721.614E-3	-32.3437E-3
-3.33917E-3	-181.891E-12	691.542E-3	25.2610E-3	-181.913E-12	703.001E-3	-16.2869E-3
-3.34417E-3	-182.110E-12	686.785E-3	-3.54617E-3	-182.499E-12	701.878E-3	-10.4595E-3
-3.34917E-3	-181.614E-12	688.181E-3	-16.6361E-3	-182.508E-12	701.158E-3	-4.25035E-3
-3.35418E-3	-180.986E-12	679.739E-3	-25.4556E-3	-183.003E-12	720.366E-3	-6.72370E-3
-3.35918E-3	-182.072E-12	673.965E-3	-23.9524E-3	-183.150E-12	736.116E-3	-35.5543E-3
-3.36418E-3	-182.583E-12	685.150E-3	-11.0750E-3	-184.060E-12	717.455E-3	-39.1251E-3
-3.36918E-3	-182.328E-12	705.976E-3	-12.3183E-3	-183.515E-12	693.404E-3	-15.6751E-3
-3.37419E-3	-183.766E-12	708.389E-3	-10.0925E-3	-183.637E-12	686.855E-3	-4.48175E-3
-3.37919E-3	-185.048E-12	702.514E-3	-39.6193E-6	-184.768E-12	682.048E-3	-2.88087E-3
-3.38419E-3	-184.301E-12	702.631E-3	8.78188E-3	-184.538E-12	657.138E-3	-3.94684E-3
-3.38919E-3	-185.987E-12	682.306E-3	22.8481E-3	-183.214E-12	638.003E-3	-1.56315E-3
-3.39420E-3	-186.923E-12	660.195E-3	21.5778E-3	-182.934E-12	650.731E-3	-8.67650E-3
-3.39920E-3	-188.005E-12	674.983E-3	7.94954E-3	-184.100E-12	681.388E-3	-15.1243E-3
-3.40420E-3	-188.365E-12	688.928E-3	-16.5794E-3	-184.187E-12	715.958E-3	-14.5609E-3
-3.40920E-3	-188.447E-12	667.119E-3	-27.7886E-3	-184.725E-12	720.454E-3	-7.56387E-3
-3.41421E-3	-188.460E-12	662.832E-3	-23.7622E-3	-185.889E-12	706.356E-3	6.69969E-3
-3.41921E-3	-188.829E-12	685.987E-3	-31.1784E-3	-186.385E-12	697.205E-3	-1.07696E-3
-3.42421E-3	-187.783E-12	686.865E-3	-16.5137E-3	-187.500E-12	674.683E-3	-24.1342E-3
-3.42921E-3	-188.153E-12	664.900E-3	9.45102E-3	-188.251E-12	675.571E-3	-22.7861E-3
-3.43422E-3	-187.357E-12	664.190E-3	-2.01120E-3	-188.940E-12	706.651E-3	-7.15791E-3
-3.43922E-3	-186.526E-12	663.327E-3	-19.6360E-3	-188.457E-12	691.299E-3	362.244E-6
-3.44422E-3	-185.521E-12	649.659E-3	-17.2115E-3	-188.363E-12	663.672E-3	10.1401E-3
-3.44922E-3	-184.876E-12	651.424E-3	-25.4490E-3	-187.934E-12	695.274E-3	10.2719E-3
-3.45423E-3	-185.267E-12	650.692E-3	-40.2079E-3	-188.539E-12	708.005E-3	-5.63478E-3
-3.45923E-3	-185.452E-12	648.017E-3	-45.1105E-3	-187.747E-12	672.529E-3	-15.2899E-3
-3.46423E-3	-184.403E-12	656.974E-3	-29.7395E-3	-186.909E-12	663.112E-3	-21.4431E-3
-3.46923E-3	-185.695E-12	667.038E-3	-8.44039E-3	-187.644E-12	673.798E-3	-47.5501E-3
-3.47424E-3	-186.185E-12	675.315E-3	-15.0705E-3	-187.691E-12	669.312E-3	-62.1676E-3
-3.47924E-3	-186.092E-12	687.556E-3	-24.3210E-3	-186.731E-12	652.395E-3	-35.6937E-3
-3.48424E-3	-187.330E-12	693.541E-3	-12.8294E-3	-185.857E-12	651.785E-3	-16.6134E-3
-3.48924E-3	-189.135E-12	684.776E-3	3.84600E-3	-186.501E-12	656.430E-3	-5.36612E-3
-3.49425E-3	-189.704E-12	676.483E-3	10.0156E-3	-186.944E-12	665.170E-3	886.928E-6
-3.49925E-3	-190.661E-12	674.589E-3	-797.974E-6	-188.137E-12	684.977E-3	-18.1636E-3
-3.50425E-3	-191.721E-12	679.992E-3	-15.7861E-3	-188.848E-12	670.404E-3	-18.7139E-3
-3.50925E-3	-192.436E-12	693.938E-3	-15.2525E-3	-188.487E-12	658.901E-3	-6.73781E-3
-3.51426E-3	-191.953E-12	699.576E-3	-18.2676E-3	-189.555E-12	667.411E-3	-24.1322E-3
-3.51926E-3	-192.554E-12	681.190E-3	-38.6801E-3	-191.384E-12	660.898E-3	-33.8365E-3
-3.52426E-3	-191.669E-12	659.399E-3	-38.6226E-3	-191.863E-12	675.170E-3	-19.7641E-3
-3.52926E-3	-191.366E-12	659.444E-3	-18.1004E-3	-191.108E-12	728.418E-3	-8.14975E-3
-3.53427E-3	-189.636E-12	678.018E-3	-5.67024E-3	-192.450E-12	758.167E-3	-16.0912E-3
-3.53927E-3	-189.561E-12	708.696E-3	-13.0110E-3	-192.805E-12	738.336E-3	-27.4330E-3
-3.54427E-3	-188.735E-12	708.481E-3	-16.1854E-3	-193.261E-12	680.357E-3	-24.6194E-3
-3.54927E-3	-188.044E-12	668.208E-3	4.59911E-3	-193.270E-12	622.898E-3	-14.1577E-3
-3.55428E-3	-188.253E-12	641.829E-3	1.45554E-3	-193.770E-12	622.838E-3	-8.63286E-3
-3.55928E-3	-188.636E-12	642.830E-3	-17.6613E-3	-193.364E-12	651.550E-3	-18.2426E-3
-3.56428E-3	-188.623E-12	647.451E-3	-8.09926E-3	-193.793E-12	675.111E-3	-27.3113E-3
-3.56928E-3	-188.771E-12	642.316E-3	22.6857E-3	-192.554E-12	713.425E-3	-14.4466E-3
-3.57429E-3	-190.862E-12	651.254E-3	35.2161E-3	-191.749E-12	739.795E-3	-23.5737E-3
-3.57929E-3	-192.017E-12	676.106E-3	20.7501E-3	-192.419E-12	725.095E-3	-54.2405E-3
-3.58429E-3	-191.862E-12	700.360E-3	8.19543E-3	-192.038E-12	712.421E-3	-42.3948E-3
-3.58929E-3	-193.438E-12	735.207E-3	1.38392E-3	-192.495E-12	721.566E-3	-23.9792E-3
-3.59430E-3	-194.776E-12	749.698E-3	5.23214E-3	-192.293E-12	736.938E-3	-26.2773E-3
-3.59930E-3	-195.188E-12	711.774E-3	6.83894E-3	-192.548E-12	744.023E-3	-4.21801E-3
-3.60430E-3	-195.973E-12	687.033E-3	-14.9231E-3	-193.273E-12	729.345E-3	31.6688E-3
-3.60930E-3	-195.713E-12	703.582E-3	-51.7552E-3	-194.004E-12	708.168E-3	21.5992E-3
-3.61431E-3	-195.070E-12	707.443E-3	-75.6010E-3	-194.159E-12	681.829E-3	-13.2475E-3
-3.61931E-3	-193.761E-12	690.747E-3	-69.7360E-3	-194.481E-12	663.270E-3	-22.4861E-3
-3.62431E-3	-194.051E-12	683.989E-3	-38.5539E-3	-195.226E-12	650.863E-3	-18.1744E-3
-3.62931E-3	-194.266E-12	670.132E-3	1.20677E-3	-194.998E-12	651.579E-3	-24.1805E-3
-3.63432E-3	-193.506E-12	656.278E-3	472.456E-6	-196.079E-12	677.965E-3	-30.8248E-3
-3.63932E-3	-192.548E-12	676.402E-3	-22.1521E-3	-195.955E-12	668.874E-3	-22.2883E-3
-3.64432E-3	-193.321E-12	696.014E-3	-31.2449E-3	-195.823E-12	646.383E-3	-7.84455E-3
-3.64932E-3	-193.981E-12	679.713E-3	-48.9113E-3	-196.821E-12	679.840E-3	-12.3550E-3
-3.65433E-3	-194.033E-12	665.769E-3	-54.6783E-3	-197.118E-12	713.518E-3	-33.2186E-3
-3.65933E-3	-193.689E-12	684.673E-3	-41.7992E-3	-195.746E-12	702.432E-3	-35.4411E-3
-3.66433E-3	-195.097E-12	705.947E-3	-47.8410E-3	-196.326E-12	683.510E-3	-8.54020E-3
-3.66933E-3	-196.869E-12	697.644E-3	-45.8728E-3	-196.673E-12	683.457E-3	6.30903E-3
-3.67434E-3	-197.869E-12	684.011E-3	-22.1035E-3	-197.085E-12	679.477E-3	-8.15994E-3
-3.67934E-3	-198.671E-12	701.708E-3	-22.7768E-3	-195.584E-12	678.459E-3	-22.8662E-3
-3.68434E-3	-199.793E-12	717.416E-3	-30.6288E-3	-196.117E-12	703.755E-3	-46.3331E-3
-3.68934E-3	-200.605E-12	695.664E-3	-17.7104E-3	-196.382E-12	713.906E-3	-62.1547E-3
-3.69435E-3	-201.235E-12	683.154E-3	-5.57121E-3	-195.851E-12	709.606E-3	-49.1293E-3
-3.69935E-3	-203.033E-12	693.309E-3	3.27154E-3	-195.674E-12	719.801E-3	-32.4086E-3
-3.70435E-3	-202.048E-12	701.282E-3	5.48434E-3	-196.282E-12	725.727E-3	-31.9573E-3
-3.70935E-3	-201.878E-12	716.752E-3	-3.69723E-3	-195.023E-12	720.341E-3	-41.1896E-3
-3.71436E-3	-202.342E-12	719.527E-3	-7.19122E-3	-194.838E-12	707.352E-3	-47.5757E-3
-3.71936E-3	-201.692E-12	701.688E-3	7.54845E-3	-196.099E-12	690.139E-3	-42.1716E-3
-3.72436E-3	-200.987E-12	679.954E-3	22.9557E-3	-196.823E-12	681.454E-3	-16.3504E-3
-3.72936E-3	-200.718E-12	669.269E-3	15.4342E-3	-196.053E-12	677.279E-3	363.125E-6
-3.73437E-3	-200.463E-12	678.058E-3	-3.02032E-3	-197.220E-12	657.997E-3	-22.0137E-3
-3.73937E-3	-200.959E-12	695.353E-3	-5.39405E-3	-199.018E-12	640.557E-3	-61.7600E-3
-3.74437E-3	-199.289E-12	705.723E-3	3.17131E-3	-199.582E-12	651.947E-3	-65.3422E-3
-3.74937E-3	-199.550E-12	697.804E-3	44.1277E-6	-199.277E-12	668.057E-3	-26.2728E-3
-3.75438E-3	-199.469E-12	679.047E-3	-10.0449E-3	-199.341E-12	677.537E-3	3.32451E-3
-3.75938E-3	-199.984E-12	665.947E-3	-19.3290E-3	-201.087E-12	696.020E-3	5.90227E-3
-3.76438E-3	-199.341E-12	667.030E-3	-30.0592E-3	-201.644E-12	700.669E-3	5.00709E-3
-3.76938E-3	-200.422E-12	669.771E-3	-43.8493E-3	-202.088E-12	686.740E-3	7.84456E-3
-3.77439E-3	-199.779E-12	656.856E-3	-39.7723E-3	-202.202E-12	664.707E-3	-7.05943E-3
-3.77939E-3	-200.195E-12	661.564E-3	-30.4728E-3	-202.596E-12	643.664E-3	-16.9168E-3
-3.78439E-3	-200.307E-12	691.561E-3	-42.4951E-3	-202.921E-12	663.605E-3	-24.2682E-3
-3.78939E-3	-200.123E-12	707.022E-3	-31.9694E-3	-202.080E-12	699.559E-3	-45.1587E-3
-3.79440E-3	-200.411E-12	684.024E-3	9.84875E-3	-202.366E-12	697.507E-3	-42.6034E-3
-3.79940E-3	-201.156E-12	641.561E-3	10.1583E-3	-202.325E-12	679.767E-3	-30.9524E-3
-3.80440E-3	-200.914E-12	625.901E-3	-26.3669E-3	-202.863E-12	666.351E-3	-26.6896E-3
-3.80940E-3	-201.020E-12	620.584E-3	-39.5010E-3	-202.029E-12	668.009E-3	-31.4697E-3
-3.81441E-3	-202.317E-12	602.752E-3	-30.8193E-3	-202.699E-12	689.090E-3	-35.4694E-3
-3.81941E-3	-202.059E-12	608.393E-3	-15.1040E-3	-202.523E-12	701.296E-3	-37.3574E-3
-3.82441E-3	-202.391E-12	641.738E-3	-8.64886E-3	-202.529E-12	693.588E-3	-57.2245E-3
-3.82941E-3	-203.676E-12	661.024E-3	-11.2600E-3	-203.318E-12	677.337E-3	-59.8556E-3
-3.83442E-3	-204.025E-12	663.084E-3	-13.5480E-3	-204.593E-12	678.002E-3	-18.7093E-3
-3.83942E-3	-203.570E-12	662.006E-3	-20.6387E-3	-204.246E-12	679.179E-3	19.0256E-3
-3.84442E-3	-203.388E-12	675.872E-3	-21.2416E-3	-205.836E-12	666.143E-3	12.8053E-3
-3.84942E-3	-203.772E-12	687.984E-3	-9.74153E-3	-206.901E-12	667.778E-3	-11.9621E-3
-3.85443E-3	-204.700E-12	686.074E-3	7.82842E-3	-207.122E-12	682.439E-3	-5.02976E-3
-3.85943E-3	-203.875E-12	694.078E-3	10.0429E-3	-206.980E-12	688.276E-3	15.8078E-3
-3.86443E-3	-202.763E-12	685.391E-3	-20.0075E-3	-208.746E-12	683.114E-3	12.8471E-3
-3.86943E-3	-202.769E-12	676.770E-3	-43.0618E-3	-209.180E-12	682.886E-3	-6.88697E-3
-3.87444E-3	-203.469E-12	691.181E-3	-28.5255E-3	-209.001E-12	684.252E-3	-23.6933E-3
-3.87944E-3	-202.806E-12	683.148E-3	-19.1106E-3	-208.567E-12	693.234E-3	-3.87056E-3
-3.88444E-3	-202.685E-12	667.716E-3	-33.7902E-3	-208.515E-12	717.198E-3	6.14069E-3
-3.88944E-3	-203.301E-12	678.884E-3	-40.2044E-3	-207.831E-12	710.870E-3	-17.2324E-3
-3.89445E-3	-204.316E-12	674.062E-3	-23.4795E-3	-207.245E-12	698.062E-3	-11.4486E-3
-3.89945E-3	-204.630E-12	645.137E-3	-9.15497E-3	-206.137E-12	725.223E-3	6.70116E-3
-3.90445E-3	-206.330E-12	637.614E-3	-4.35448E-3	-205.360E-12	726.521E-3	13.0370E-3
-3.90945E-3	-206.779E-12	653.503E-3	-14.2673E-3	-204.723E-12	676.470E-3	24.8489E-3
-3.91446E-3	-207.772E-12	679.543E-3	-29.6194E-3	-204.938E-12	639.271E-3	16.7074E-3
-3.91946E-3	-210.156E-12	703.098E-3	1.25578E-3	-204.332E-12	645.665E-3	-33.9752E-3
-3.92446E-3	-211.531E-12	699.973E-3	34.6410E-3	-203.373E-12	662.751E-3	-73.2427E-3
-3.92946E-3	-212.400E-12	678.838E-3	16.6337E-3	-204.525E-12	663.963E-3	-44.1751E-3
-3.93447E-3	-212.040E-12	679.524E-3	-1.69389E-3	-205.730E-12	672.764E-3	4.06981E-3
-3.93947E-3	-213.429E-12	693.661E-3	-16.1010E-3	-207.369E-12	689.226E-3	12.7076E-3
-3.94447E-3	-214.593E-12	697.561E-3	-44.2344E-3	-207.409E-12	683.241E-3	-16.5548E-3
-3.94947E-3	-214.867E-12	707.236E-3	-57.6166E-3	-208.368E-12	678.294E-3	-44.0701E-3
-3.95448E-3	-212.794E-12	706.235E-3	-45.2499E-3	-210.014E-12	699.349E-3	-44.2170E-3
-3.95948E-3	-211.513E-12	679.488E-3	-23.0583E-3	-212.006E-12	730.165E-3	-37.3492E-3
-3.96448E-3	-211.578E-12	653.785E-3	-22.9910E-3	-213.812E-12	730.624E-3	-45.7423E-3
-3.96948E-3	-210.246E-12	647.514E-3	-40.2436E-3	-213.408E-12	702.030E-3	-49.6080E-3
-3.97449E-3	-209.487E-12	643.546E-3	-35.0510E-3	-214.339E-12	704.425E-3	-28.0019E-3
-3.97949E-3	-208.088E-12	647.483E-3	-25.0868E-3	-215.690E-12	729.026E-3	-17.7122E-3
-3.98449E-3	-208.916E-12	673.440E-3	-32.8774E-3	-215.717E-12	736.642E-3	-22.6952E-3
-3.98949E-3	-209.470E-12	682.600E-3	-42.3027E-3	-213.810E-12	742.306E-3	-11.9404E-3
-3.99450E-3	-210.342E-12	676.214E-3	-33.9486E-3	-213.563E-12	740.537E-3	-3.87167E-3
-3.99950E-3	-210.763E-12	666.537E-3	-22.4264E-3	-213.176E-12	724.667E-3	-13.1398E-3
-4.00450E-3	-210.527E-12	642.524E-3	-18.5664E-3	-212.530E-12	722.329E-3	-47.0731E-3
-4.00950E-3	-213.549E-12	625.753E-3	-23.8471E-3	-211.301E-12	716.446E-3	-75.2958E-3
-4.01451E-3	-215.038E-12	649.330E-3	-25.4123E-3	-210.446E-12	692.844E-3	-49.3107E-3
-4.01951E-3	-215.548E-12	679.672E-3	-8.00582E-3	-210.532E-12	669.838E-3	-16.4901E-3
-4.02451E-3	-215.395E-12	670.631E-3	-22.8276E-3	-210.614E-12	654.869E-3	-22.1850E-3
-4.02951E-3	-216.898E-12	644.492E-3	-42.9469E-3	-211.066E-12	658.096E-3	-27.0893E-3
-4.03452E-3	-217.186E-12	647.445E-3	-3.53389E-3	-212.069E-12	669.896E-3	-12.0715E-3
-4.03952E-3	-216.880E-12	665.546E-3	29.7921E-3	-213.027E-12	682.223E-3	-16.1295E-3
-4.04452E-3	-215.880E-12	669.674E-3	368.765E-6	-212.752E-12	687.097E-3	-29.9261E-3
-4.04952E-3	-214.190E-12	671.282E-3	-57.8355E-3	-214.000E-12	683.964E-3	-31.2365E-3
-4.05453E-3	-213.786E-12	668.591E-3	-63.0377E-3	-215.534E-12	696.801E-3	-23.9980E-3
-4.05953E-3	-213.190E-12	669.875E-3	-5.11792E-3	-215.136E-12	700.709E-3	-5.46834E-3
-4.06453E-3	-210.074E-12	687.136E-3	26.8710E-3	-216.467E-12	676.313E-3	18.1518E-3
-4.06953E-3	-208.642E-12	693.310E-3	21.9364E-3	-217.953E-12	658.715E-3	28.6553E-3
-4.07454E-3	-209.194E-12	668.307E-3	18.4244E-3	-217.887E-12	638.603E-3	17.3470E-3
-4.07954E-3	-209.109E-12	639.556E-3	19.4763E-3	-218.080E-12	624.198E-3	8.07982E-3
-4.08454E-3	-208.077E-12	637.978E-3	25.2242E-3	-218.535E-12	664.211E-3	-9.72468E-3
-4.08954E-3	-209.624E-12	646.928E-3	27.5631E-3	-218.118E-12	705.818E-3	-16.5679E-3
-4.09455E-3	-210.068E-12	634.756E-3	15.7911E-3	-216.770E-12	683.003E-3	-740.784E-6
-4.09955E-3	-211.378E-12	623.481E-3	12.2662E-3	-216.412E-12	645.499E-3	-11.8563E-3
-4.10455E-3	-213.110E-12	641.462E-3	15.7162E-3	-215.163E-12	643.543E-3	-19.9219E-3
-4.10955E-3	-214.077E-12	674.908E-3	-2.06173E-3	-215.260E-12	647.838E-3	10.7966E-3
-4.11456E-3	-214.727E-12	696.831E-3	-34.3937E-3	-214.041E-12	645.660E-3	24.5103E-3
-4.11956E-3	-217.906E-12	676.030E-3	-47.1568E-3	-214.145E-12	641.652E-3	-9.54261E-3
-4.12456E-3	-218.583E-12	653.172E-3	-39.2360E-3	-213.721E-12	637.678E-3	-31.5025E-3
-4.12956E-3	-216.889E-12	661.821E-3	-31.7906E-3	-214.005E-12	656.688E-3	-29.3385E-3
-4.13457E-3	-217.821E-12	664.458E-3	-39.8241E-3	-213.054E-12	667.687E-3	-34.9239E-3
-4.13957E-3	-219.967E-12	666.200E-3	-41.3298E-3	-213.603E-12	658.140E-3	-25.6611E-3
-4.14457E-3	-218.168E-12	688.577E-3	-14.9772E-3	-213.968E-12	660.734E-3	-12.7116E-3
-4.14957E-3	-215.707E-12	705.424E-3	10.5651E-3	-213.948E-12	660.488E-3	-22.1365E-3
-4.15458E-3	-215.852E-12	676.539E-3	21.9516E-3	-214.263E-12	666.657E-3	-21.5124E-3
-4.15958E-3	-217.075E-12	637.922E-3	15.1268E-3	-215.956E-12	688.775E-3	-1.59457E-3
-4.16458E-3	-216.916E-12	651.822E-3	-3.28116E-3	-215.813E-12	694.475E-3	-2.19170E-3
-4.16958E-3	-215.311E-12	689.275E-3	-2.84022E-3	-217.262E-12	685.108E-3	-18.9788E-3
-4.17459E-3	-215.005E-12	701.827E-3	-10.0662E-3	-218.491E-12	688.524E-3	-20.1239E-3
-4.17959E-3	-216.742E-12	675.162E-3	-22.4208E-3	-219.236E-12	695.832E-3	-24.0956E-3
-4.18459E-3	-217.851E-12	646.971E-3	-14.9475E-3	-219.618E-12	664.554E-3	-22.2698E-3
-4.18959E-3	-217.163E-12	667.125E-3	-7.90356E-3	-220.390E-12	628.754E-3	10.2515E-3
-4.19460E-3	-217.521E-12	704.096E-3	13.9547E-3	-220.714E-12	628.872E-3	23.9748E-3
-4.19960E-3	-220.115E-12	687.126E-3	23.3420E-3	-220.958E-12	633.207E-3	3.32543E-3
-4.20460E-3	-221.465E-12	628.339E-3	-217.416E-6	-220.764E-12	637.387E-3	-9.84797E-3
-4.20960E-3	-221.731E-12	625.472E-3	-10.3020E-3	-222.589E-12	663.431E-3	-12.5754E-3
-4.21461E-3	-221.939E-12	644.589E-3	-17.0413E-3	-223.173E-12	701.518E-3	-22.9756E-3
-4.21961E-3	-223.173E-12	628.325E-3	-33.6412E-3	-221.620E-12	696.542E-3	-39.8324E-3
-4.22461E-3	-223.337E-12	639.917E-3	-55.9722E-3	-222.297E-12	652.937E-3	-39.1002E-3
-4.22961E-3	-223.545E-12	683.171E-3	-68.7890E-3	-222.829E-12	630.836E-3	-603.899E-6
-4.23462E-3	-223.298E-12	707.410E-3	-44.3845E-3	-222.237E-12	650.596E-3	38.2837E-3
-4.23962E-3	-223.893E-12	706.638E-3	-10.9411E-3	-222.119E-12	670.468E-3	41.3187E-3
-4.24462E-3	-224.179E-12	690.954E-3	-2.54015E-3	-221.491E-12	657.912E-3	31.9499E-3
-4.24962E-3	-224.900E-12	665.934E-3	-23.2100E-3	-222.761E-12	658.494E-3	10.4987E-3
-4.25463E-3	-224.976E-12	656.654E-3	-60.4995E-3	-223.191E-12	683.610E-3	-23.4295E-3
-4.25963E-3	-225.575E-12	665.727E-3	-66.7406E-3	-223.344E-12	686.689E-3	-47.1192E-3
-4.26463E-3	-224.948E-12	675.351E-3	-37.5632E-3	-224.075E-12	670.609E-3	-58.4283E-3
-4.26963E-3	-226.729E-12	691.316E-3	-28.6786E-3	-224.526E-12	656.665E-3	-54.6980E-3
-4.27464E-3	-227.646E-12	710.468E-3	-27.0496E-3	-224.396E-12	643.948E-3	-40.5137E-3
-4.27964E-3	-228.002E-12	691.982E-3	-3.74369E-3	-225.040E-12	642.263E-3	-16.7437E-3
-4.28464E-3	-228.072E-12	656.946E-3	1.87582E-3	-226.557E-12	656.758E-3	-10.5932E-3
-4.28964E-3	-227.537E-12	641.409E-3	-9.40377E-3	-227.435E-12	667.308E-3	-10.9054E-3
-4.29465E-3	-227.096E-12	655.676E-3	-4.90762E-3	-227.513E-12	667.513E-3	16.2344E-3
-4.29965E-3	-226.744E-12	682.175E-3	1.55804E-3	-228.013E-12	673.604E-3	20.2394E-3
-4.30465E-3	-226.082E-12	699.862E-3	-15.4586E-3	-230.092E-12	670.934E-3	-9.70069E-3
-4.30965E-3	-225.822E-12	697.098E-3	-52.9545E-3	-229.549E-12	652.033E-3	-9.30059E-3
-4.31466E-3	-224.094E-12	695.106E-3	-47.8629E-3	-228.820E-12	648.019E-3	-8.82483E-3
-4.31966E-3	-224.119E-12	721.912E-3	11.6272E-3	-228.133E-12	663.021E-3	-46.7127E-3
-4.32466E-3	-223.929E-12	715.212E-3	51.4496E-3	-228.188E-12	688.580E-3	-59.1317E-3
-4.32966E-3	-223.697E-12	683.547E-3	37.8645E-3	-226.975E-12	705.493E-3	-39.2405E-3
-4.33467E-3	-223.501E-12	661.145E-3	10.1112E-3	-227.183E-12	702.350E-3	-40.1521E-3
-4.33967E-3	-225.537E-12	643.821E-3	-10.8212E-3	-226.049E-12	686.754E-3	-28.6028E-3
-4.34467E-3	-224.879E-12	641.696E-3	-23.2657E-3	-226.818E-12	686.837E-3	14.3948E-3
-4.34967E-3	-225.292E-12	635.656E-3	-16.0588E-3	-226.369E-12	716.619E-3	26.3208E-3
-4.35468E-3	-227.722E-12	625.152E-3	6.49115E-3	-225.256E-12	711.085E-3	6.42711E-3
-4.35968E-3	-228.886E-12	637.691E-3	24.0672E-3	-226.503E-12	656.138E-3	9.65720E-3
-4.36468E-3	-228.686E-12	659.528E-3	-65.8134E-6	-225.959E-12	639.108E-3	34.8373E-3
-4.36968E-3	-229.903E-12	667.431E-3	-43.2589E-3	-226.279E-12	675.664E-3	51.2682E-3
-4.37469E-3	-229.720E-12	675.623E-3	-37.2422E-3	-226.488E-12	690.403E-3	58.8702E-3
-4.37969E-3	-229.700E-12	690.283E-3	-29.0330E-3	-226.806E-12	668.590E-3	47.6625E-3
-4.38469E-3	-230.335E-12	692.353E-3	-55.1059E-3	-227.723E-12	663.496E-3	20.3434E-3
-4.38969E-3	-230.136E-12	684.466E-3	-63.7134E-3	-230.102E-12	689.481E-3	14.2089E-3
-4.39470E-3	-227.301E-12	672.477E-3	-52.7055E-3	-230.323E-12	677.974E-3	15.2111E-3
-4.39970E-3	-227.066E-12	662.702E-3	-34.5378E-3	-230.628E-12	631.960E-3	-13.5793E-3
-4.40470E-3	-226.910E-12	661.142E-3	-19.4038E-3	-231.281E-12	634.384E-3	-40.3404E-3
-4.40970E-3	-226.684E-12	661.957E-3	-9.02453E-3	-232.194E-12	649.894E-3	-59.2738E-3
-4.41471E-3	-226.427E-12	648.113E-3	-10.7256E-3	-231.552E-12	630.737E-3	-84.0793E-3
-4.41971E-3	-225.758E-12	629.850E-3	-28.6336E-3	-230.896E-12	626.500E-3	-71.0087E-3
-4.42471E-3	-226.335E-12	647.832E-3	-23.1291E-3	-230.538E-12	653.151E-3	-49.1527E-3
-4.42971E-3	-227.780E-12	659.572E-3	3.93716E-3	-230.808E-12	677.774E-3	-47.0053E-3
-4.43472E-3	-228.680E-12	648.725E-3	-17.1358E-3	-230.103E-12	682.989E-3	-44.3489E-3
-4.43972E-3	-229.539E-12	654.093E-3	-56.8288E-3	-229.721E-12	683.765E-3	-69.5354E-3
-4.44472E-3	-231.834E-12	657.517E-3	-46.1210E-3	-229.216E-12	691.999E-3	-81.3537E-3
-4.44972E-3	-233.143E-12	653.932E-3	-37.4503E-3	-229.512E-12	692.809E-3	-38.3766E-3
-4.45473E-3	-234.457E-12	660.753E-3	-32.5495E-3	-229.154E-12	687.375E-3	-6.98873E-3
-4.45973E-3	-235.123E-12	685.242E-3	-7.11613E-3	-228.779E-12	687.039E-3	-10.1080E-3
-4.46473E-3	-236.055E-12	698.129E-3	-13.7192E-3	-228.145E-12	668.507E-3	-1.62255E-3
-4.46973E-3	-236.847E-12	679.931E-3	-36.7672E-3	-228.030E-12	636.516E-3	14.1166E-3
-4.47474E-3	-235.649E-12	675.808E-3	-40.0579E-3	-229.282E-12	627.671E-3	1.32423E-3
-4.47974E-3	-235.076E-12	679.992E-3	-32.3395E-3	-229.225E-12	628.806E-3	-18.1629E-3
-4.48474E-3	-233.812E-12	673.649E-3	-16.1075E-3	-231.049E-12	633.888E-3	-24.2918E-3
-4.48974E-3	-232.259E-12	664.779E-3	7.44759E-3	-231.545E-12	654.026E-3	-41.2590E-3
-4.49475E-3	-232.417E-12	663.874E-3	19.2146E-3	-231.632E-12	674.498E-3	-55.4104E-3
-4.49975E-3	-232.405E-12	693.054E-3	-2.48517E-3	-232.595E-12	671.013E-3	-50.7195E-3
-4.50475E-3	-232.137E-12	709.939E-3	-32.0414E-3	-233.994E-12	655.641E-3	-47.8482E-3
-4.50975E-3	-232.619E-12	687.241E-3	-22.6927E-3	-233.705E-12	652.393E-3	-49.9674E-3
-4.51476E-3	-233.326E-12	668.543E-3	4.91642E-3	-233.950E-12	654.261E-3	-37.0329E-3
-4.51976E-3	-234.624E-12	666.428E-3	-1.79236E-3	-234.139E-12	662.378E-3	-30.8667E-3
-4.52476E-3	-236.045E-12	658.433E-3	-20.9063E-3	-234.907E-12	670.311E-3	-37.6190E-3
-4.52976E-3	-238.249E-12	650.258E-3	-16.9658E-3	-234.534E-12	651.069E-3	-18.0655E-3
-4.53477E-3	-238.900E-12	670.260E-3	-8.09921E-3	-234.544E-12	626.268E-3	18.6902E-3
-4.53977E-3	-239.278E-12	707.967E-3	12.1085E-3	-234.350E-12	641.850E-3	23.2294E-3
-4.54477E-3	-241.828E-12	720.719E-3	45.8905E-3	-235.500E-12	663.460E-3	11.9534E-3
-4.54977E-3	-241.702E-12	705.344E-3	25.6586E-3	-234.267E-12	653.982E-3	40.7363E-3
-4.55478E-3	-242.091E-12	676.803E-3	-22.1756E-3	-235.395E-12	648.001E-3	38.5071E-3
-4.55978E-3	-241.592E-12	645.125E-3	-18.5342E-3	-236.270E-12	660.712E-3	-10.2432E-3
-4.56478E-3	-240.628E-12	666.817E-3	-3.82418E-3	-236.840E-12	678.459E-3	-7.62082E-3
-4.56978E-3	-239.348E-12	707.533E-3	-10.7968E-3	-237.805E-12	670.776E-3	11.6860E-3
-4.57479E-3	-239.087E-12	694.679E-3	16.1518E-3	-238.968E-12	643.807E-3	10.4086E-3
-4.57979E-3	-237.593E-12	684.213E-3	44.3370E-3	-239.333E-12	647.397E-3	26.7714E-3
-4.58479E-3	-236.221E-12	684.318E-3	25.4507E-3	-240.289E-12	658.344E-3	35.2090E-3
-4.58979E-3	-236.109E-12	663.010E-3	14.2598E-3	-241.523E-12	644.837E-3	19.2387E-3
-4.59480E-3	-235.754E-12	658.790E-3	18.3296E-3	-242.340E-12	646.434E-3	-1.78445E-3
-4.59980E-3	-234.782E-12	669.363E-3	18.8026E-3	-241.972E-12	692.492E-3	-22.7301E-3
-4.60480E-3	-235.233E-12	657.350E-3	7.14781E-3	-241.504E-12	714.792E-3	-12.6805E-3
-4.60980E-3	-236.388E-12	641.900E-3	-19.2884E-3	-241.855E-12	692.472E-3	7.00438E-3
-4.61481E-3	-236.792E-12	621.751E-3	-26.3770E-3	-241.536E-12	696.333E-3	-6.70987E-3
-4.61981E-3	-237.386E-12	602.694E-3	-4.66529E-3	-241.537E-12	704.154E-3	-25.5594E-3
-4.62481E-3	-238.787E-12	638.857E-3	-9.28249E-3	-241.766E-12	676.788E-3	-18.7624E-3
-4.62981E-3	-238.575E-12	684.911E-3	-32.8225E-3	-241.103E-12	665.913E-3	-19.6581E-3
-4.63482E-3	-239.293E-12	665.866E-3	-35.6106E-3	-240.712E-12	688.303E-3	-31.2525E-3
-4.63982E-3	-240.369E-12	630.126E-3	-45.8169E-3	-239.874E-12	692.398E-3	-22.2884E-3
-4.64482E-3	-238.585E-12	652.000E-3	-50.0083E-3	-242.023E-12	660.229E-3	-10.9654E-3
-4.64982E-3	-238.708E-12	693.109E-3	-25.6534E-3	-241.691E-12	634.667E-3	-20.2983E-3
-4.65483E-3	-238.874E-12	698.494E-3	-9.14570E-3	-242.085E-12	647.860E-3	-33.3723E-3
-4.65983E-3	-237.855E-12	684.785E-3	-9.50344E-3	-242.870E-12	674.878E-3	-31.2375E-3
-4.66483E-3	-236.726E-12	667.333E-3	-13.2773E-3	-244.859E-12	688.882E-3	-38.0451E-3
-4.66983E-3	-236.836E-12	664.148E-3	-21.2207E-3	-244.504E-12	677.810E-3	-43.8814E-3
-4.67484E-3	-237.213E-12	661.255E-3	-33.6459E-3	-244.309E-12	671.382E-3	-41.2562E-3
-4.67984E-3	-237.893E-12	648.262E-3	-43.4183E-3	-243.484E-12	688.863E-3	-21.6327E-3
-4.68484E-3	-236.893E-12	654.279E-3	-36.7558E-3	-243.730E-12	701.094E-3	-5.92759E-3
-4.68984E-3	-237.114E-12	668.048E-3	-15.9674E-3	-244.429E-12	698.260E-3	-24.0525E-3
-4.69485E-3	-239.074E-12	661.691E-3	-9.90557E-3	-242.638E-12	682.584E-3	-28.9596E-3
-4.69985E-3	-241.224E-12	656.744E-3	-32.4545E-3	-241.980E-12	645.249E-3	-17.3387E-3
-4.70485E-3	-240.886E-12	678.737E-3	-20.3300E-3	-242.453E-12	620.769E-3	-16.8422E-3
-4.70985E-3	-241.529E-12	680.496E-3	23.3804E-3	-242.367E-12	638.379E-3	-24.4915E-3
-4.71486E-3	-243.488E-12	659.241E-3	12.0686E-3	-240.514E-12	656.551E-3	-32.8160E-3
-4.71986E-3	-244.192E-12	663.491E-3	-10.3844E-3	-241.346E-12	650.582E-3	-32.7667E-3
-4.72486E-3	-245.172E-12	676.144E-3	-473.537E-6	-240.820E-12	659.535E-3	-16.3340E-3
-4.72986E-3	-245.251E-12	696.770E-3	3.08663E-3	-239.774E-12	685.171E-3	-6.44812E-3
-4.73487E-3	-245.502E-12	730.207E-3	17.8767E-3	-239.522E-12	673.326E-3	-23.7448E-3
-4.73987E-3	-247.077E-12	742.648E-3	40.5821E-3	-240.530E-12	654.110E-3	-48.3668E-3
-4.74487E-3	-245.591E-12	719.409E-3	43.7437E-3	-240.267E-12	662.854E-3	-32.1192E-3
-4.74988E-3	-244.264E-12	685.746E-3	55.6238E-3	-240.889E-12	654.248E-3	-4.63212E-3
-4.75488E-3	-245.605E-12	672.179E-3	52.7201E-3	-241.292E-12	641.367E-3	-39.7452E-3
-4.75988E-3	-245.605E-12	666.685E-3	18.2121E-3	-242.769E-12	633.274E-3	-92.7767E-3
-4.76488E-3	-245.096E-12	626.006E-3	-17.1860E-3	-241.818E-12	629.866E-3	-84.4900E-3
-4.76988E-3	-246.227E-12	604.308E-3	-41.4987E-3	-242.540E-12	661.534E-3	-39.5542E-3
-4.77489E-3	-247.149E-12	645.070E-3	-47.4046E-3	-243.009E-12	692.828E-3	-12.1890E-3
-4.77989E-3	-248.277E-12	660.085E-3	-51.2953E-3	-243.996E-12	689.480E-3	-17.2810E-3
-4.78489E-3	-248.230E-12	655.229E-3	-23.3646E-3	-244.154E-12	648.667E-3	-38.8101E-3
-4.78989E-3	-248.684E-12	682.837E-3	12.4781E-3	-243.980E-12	647.364E-3	-49.6661E-3
-4.79490E-3	-249.567E-12	700.284E-3	4.26957E-3	-244.386E-12	699.381E-3	-39.2405E-3
-4.79990E-3	-249.876E-12	682.312E-3	298.916E-6	-246.268E-12	696.977E-3	-20.3433E-3
-4.80490E-3	-249.320E-12	648.558E-3	18.2640E-3	-246.158E-12	665.704E-3	-15.1737E-3
-4.80990E-3	-250.693E-12	626.610E-3	19.4135E-3	-247.633E-12	646.702E-3	-14.4869E-3
-4.81491E-3	-250.066E-12	643.201E-3	14.0591E-3	-248.498E-12	607.703E-3	-7.45558E-3
-4.81991E-3	-249.338E-12	661.055E-3	11.2675E-3	-248.667E-12	598.165E-3	4.74191E-3
-4.82491E-3	-249.881E-12	645.548E-3	-5.46906E-3	-249.352E-12	634.704E-3	20.0687E-3
-4.82991E-3	-250.475E-12	642.460E-3	-7.36217E-3	-251.317E-12	659.380E-3	16.6130E-3
-4.83492E-3	-248.939E-12	641.990E-3	-8.50604E-3	-251.115E-12	652.033E-3	2.00768E-3
-4.83992E-3	-249.083E-12	641.906E-3	-18.0166E-3	-250.634E-12	638.755E-3	16.4508E-3
-4.84492E-3	-250.299E-12	658.879E-3	-752.206E-6	-251.918E-12	637.496E-3	15.6872E-3
-4.84992E-3	-251.446E-12	658.688E-3	21.3809E-3	-252.994E-12	651.911E-3	-8.82634E-3
-4.85493E-3	-251.336E-12	666.686E-3	-6.86195E-3	-251.730E-12	659.193E-3	-5.48458E-3
-4.85993E-3	-253.223E-12	697.945E-3	-38.2310E-3	-251.545E-12	649.733E-3	6.68427E-3
-4.86493E-3	-253.203E-12	710.891E-3	-31.4987E-3	-252.610E-12	652.054E-3	13.4063E-3
-4.86993E-3	-254.283E-12	700.536E-3	-22.4182E-3	-252.140E-12	656.069E-3	-7.22325E-3
-4.87494E-3	-254.889E-12	695.067E-3	-11.4972E-3	-250.574E-12	651.207E-3	-55.7210E-3
-4.87994E-3	-255.997E-12	700.885E-3	-43.7366E-3	-251.252E-12	638.401E-3	-65.2456E-3
-4.88494E-3	-255.622E-12	686.955E-3	-80.9389E-3	-250.723E-12	614.513E-3	-32.7054E-3
-4.88995E-3	-255.752E-12	691.321E-3	-49.6843E-3	-251.624E-12	613.303E-3	-16.8668E-3
-4.89495E-3	-254.578E-12	706.279E-3	-30.1115E-3	-253.026E-12	638.595E-3	-19.5937E-3
-4.89995E-3	-253.723E-12	678.007E-3	-47.9876E-3	-253.022E-12	661.140E-3	-25.0450E-3
-4.90495E-3	-252.024E-12	670.437E-3	-51.7914E-3	-252.921E-12	703.409E-3	-40.1641E-3
-4.90995E-3	-250.768E-12	702.589E-3	-32.9550E-3	-254.114E-12	726.479E-3	-59.4949E-3
-4.91496E-3	-250.021E-12	708.639E-3	-24.1977E-3	-254.828E-12	713.404E-3	-44.5441E-3
-4.91996E-3	-249.384E-12	693.194E-3	-49.1557E-3	-255.925E-12	704.129E-3	-5.69430E-3
-4.92496E-3	-248.267E-12	684.373E-3	-50.6549E-3	-256.305E-12	674.585E-3	-68.4990E-6
-4.92996E-3	-247.320E-12	656.753E-3	-22.0428E-3	-256.929E-12	652.400E-3	12.5707E-3
-4.93497E-3	-247.693E-12	622.137E-3	-4.11111E-3	-255.106E-12	686.566E-3	37.5281E-3
-4.93997E-3	-248.970E-12	615.354E-3	15.0591E-3	-256.006E-12	705.629E-3	18.4888E-3
-4.94497E-3	-250.106E-12	623.234E-3	30.4214E-3	-254.523E-12	673.547E-3	-4.72416E-3
-4.94997E-3	-250.541E-12	647.945E-3	16.2224E-3	-253.056E-12	668.993E-3	-5.74706E-3
-4.95498E-3	-252.517E-12	687.058E-3	-8.15096E-3	-251.748E-12	653.745E-3	-12.9954E-3
-4.95998E-3	-252.759E-12	683.665E-3	-5.21262E-3	-251.891E-12	632.957E-3	-17.6719E-3
-4.96498E-3	-255.094E-12	637.887E-3	11.8066E-3	-250.131E-12	658.174E-3	-1.24625E-3
-4.96998E-3	-257.839E-12	636.868E-3	18.9735E-3	-249.286E-12	674.672E-3	14.7333E-3
-4.97499E-3	-258.915E-12	679.118E-3	2.95220E-3	-249.339E-12	663.743E-3	886.195E-6
-4.97999E-3	-256.837E-12	722.810E-3	-37.3764E-3	-248.723E-12	635.328E-3	-32.1037E-3
-4.98499E-3	-258.474E-12	727.604E-3	-45.6874E-3	-249.095E-12	636.636E-3	-39.3097E-3
-4.98999E-3	-259.154E-12	694.245E-3	-26.2170E-3	-252.041E-12	662.460E-3	-7.31349E-3
-4.99500E-3	-257.233E-12	700.823E-3	-30.7896E-3	-253.477E-12	684.675E-3	24.7470E-3
-5.00000E-3	-253.850E-12	732.980E-3	-23.9015E-3	-253.579E-12	722.150E-3	11.6546E-3
