Experiment	bias spectroscopy	
Date	19.01.2016 20:48:43	
User		
X (m)	49.3487E-9	
Y (m)	256.633E-9	
Z (m)	-132.591E-9	
Z offset (m)	0E+0	
Settling time (s)	200E-6	
Integration time (s)	5E-3	
Z-Ctrl hold	TRUE	
Final Z (m)	N/A	
Filter type	None	
Order		
Cutoff frq		
Comment01	MnPc/Pb(111)	
Comment02	dz =00pm	
Comment03	7 Sweeps	
Comment04	MagField =0.T	
Comment05	Divider 1:10	
Comment06	Setpoint:5mV,200 pA	
Comment07	Lockin: 50uVrms,5ms,5mV	
Comment08	Gain:9; 912Hz modulation	
Comment09	T=1.06K	
Bias>Bias (V)	5E-3	
Bias>Calibration (V/V)	81.475E-3	
Bias>Offset (V)	1.046E-3	
Bias Spectroscopy>Sweep Start (V)	5E-3	
Bias Spectroscopy>Sweep End (V)	-5E-3	
Bias Spectroscopy>Num Pixel	2000	
Bias Spectroscopy>Z Avg time (s)	500E-3	
Bias Spectroscopy>Z offset (m)	0E+0	
Bias Spectroscopy>1st Settling time (s)	500E-3	
Bias Spectroscopy>Settling time (s)	200E-6	
Bias Spectroscopy>Integration time (s)	5E-3	
Bias Spectroscopy>End Settling time (s)	500E-3	
Bias Spectroscopy>Z control time (s)	500E-3	
Bias Spectroscopy>Max Slew rate (V/s)	Inf	
Bias Spectroscopy>backward sweep	TRUE	
Bias Spectroscopy>Z-controller hold	TRUE	
Bias Spectroscopy>Number of sweeps	7	
Bias Spectroscopy>Channels	Current (A);X% LockIn (V);Y% LockIn (V)	
Bias Spectroscopy>Reset Bias	TRUE	
Bias Spectroscopy>Record final Z	FALSE	
Bias Spectroscopy>Lock-In run	FALSE	
Bias Spectroscopy>Sweep mode	Linear	
Bias Spectroscopy>MultiLine Settings : Segment Start (V), Segment End (V), Settling (s), Integration (s), Steps (xn)	100E-3,3.3E-3,100E-6,10E-3,2500;3.3E-3,-3.3E-3,100E-6,10E-3,10;-3.3E-3,-100E-3,100E-6,10E-3,2500	
Current>Current (A)	200.052E-12	
Current>Calibration (A/V)	999.99900E-12	
Current>Offset (A)	-455.429E-15	
Current>Gain	LN 10^9	
Z-Controller>Z (m)	-132.591E-9	
Z-Controller>Controller name	log Current	
Z-Controller>Controller status	ON	
Z-Controller>Setpoint	200E-12	
Z-Controller>Setpoint unit	A	
Z-Controller>P gain	2.96994E-12	
Z-Controller>I gain	67.0321E-9	
Z-Controller>Time const (s)	44.3062E-6	
Z-Controller>TipLift (m)	0E+0	
Z-Controller>Switch off delay (s)	50E-3	
Current (A)	200.408E-12	
Z (m)	-132.591E-9	

[DATA]
Bias calc (V)	Current (A)	X% LockIn (V)	Y% LockIn (V)	Current [bwd] (A)	X% LockIn [bwd] (V)	Y% LockIn [bwd] (V)
5.00000E-3	195.835E-12	658.620E-3	-10.5199E-3	200.491E-12	683.198E-3	-48.5498E-3
4.99500E-3	195.787E-12	654.184E-3	-28.4189E-3	200.335E-12	682.990E-3	-60.5987E-3
4.98999E-3	196.621E-12	642.682E-3	-28.9896E-3	201.178E-12	650.385E-3	-72.6089E-3
4.98499E-3	196.933E-12	649.467E-3	1.67375E-3	201.322E-12	644.377E-3	-92.7702E-3
4.97999E-3	197.069E-12	654.293E-3	8.85816E-3	200.146E-12	670.487E-3	-89.3460E-3
4.97499E-3	197.914E-12	634.392E-3	-11.0638E-3	199.600E-12	699.532E-3	-62.1492E-3
4.96998E-3	198.519E-12	621.391E-3	-23.5274E-3	200.780E-12	705.942E-3	-44.1569E-3
4.96498E-3	199.772E-12	622.400E-3	-26.0120E-3	199.922E-12	680.456E-3	-35.0552E-3
4.95998E-3	199.584E-12	637.452E-3	-19.9745E-3	199.104E-12	664.958E-3	-24.0444E-3
4.95498E-3	200.935E-12	653.404E-3	-18.2420E-3	197.515E-12	644.464E-3	-4.17669E-3
4.94997E-3	201.267E-12	668.047E-3	-23.4541E-3	197.085E-12	632.391E-3	-656.573E-6
4.94497E-3	200.379E-12	684.618E-3	-16.3218E-3	196.830E-12	660.782E-3	-25.9036E-3
4.93997E-3	200.756E-12	653.912E-3	-2.72630E-3	195.749E-12	654.731E-3	-48.4043E-3
4.93497E-3	200.716E-12	618.584E-3	-7.76791E-3	194.902E-12	632.196E-3	-50.7198E-3
4.92996E-3	200.147E-12	631.325E-3	-30.4553E-3	193.793E-12	636.528E-3	-38.0042E-3
4.92496E-3	197.418E-12	639.383E-3	-50.6656E-3	193.815E-12	633.391E-3	-22.1927E-3
4.91996E-3	197.287E-12	641.769E-3	-58.0738E-3	193.085E-12	645.552E-3	-558.847E-6
4.91496E-3	196.035E-12	658.871E-3	-45.9491E-3	194.246E-12	675.106E-3	19.9220E-3
4.90995E-3	195.423E-12	656.156E-3	-27.4091E-3	195.241E-12	686.744E-3	15.6199E-3
4.90495E-3	194.026E-12	643.132E-3	-5.22408E-3	194.929E-12	685.894E-3	-4.56745E-3
4.89995E-3	195.032E-12	653.042E-3	1.11550E-3	194.286E-12	674.312E-3	-3.62458E-3
4.89495E-3	195.554E-12	661.067E-3	-15.8858E-3	195.078E-12	645.095E-3	8.05934E-3
4.88995E-3	195.856E-12	660.703E-3	-24.6768E-3	196.553E-12	615.277E-3	3.05136E-3
4.88494E-3	195.872E-12	671.905E-3	-18.5133E-3	196.366E-12	612.582E-3	-10.5725E-3
4.87994E-3	195.658E-12	675.179E-3	-11.4447E-3	196.471E-12	636.160E-3	-18.2933E-3
4.87494E-3	196.209E-12	657.404E-3	-14.6557E-3	196.440E-12	662.446E-3	-11.8122E-3
4.86993E-3	196.519E-12	645.047E-3	-19.1918E-3	197.005E-12	685.095E-3	-2.63449E-3
4.86493E-3	196.758E-12	633.387E-3	-20.0610E-3	196.433E-12	694.728E-3	-11.3091E-3
4.85993E-3	196.884E-12	629.323E-3	-6.29551E-3	195.577E-12	688.718E-3	-10.6073E-3
4.85493E-3	195.916E-12	638.277E-3	11.0192E-3	194.426E-12	664.412E-3	15.7203E-3
4.84992E-3	194.990E-12	643.645E-3	-13.4727E-3	193.984E-12	638.911E-3	18.6675E-3
4.84492E-3	195.706E-12	653.035E-3	-57.7186E-3	193.294E-12	644.770E-3	2.51195E-3
4.83992E-3	195.161E-12	660.577E-3	-41.2428E-3	191.820E-12	663.288E-3	1.90676E-3
4.83492E-3	193.113E-12	668.693E-3	7.44672E-3	191.483E-12	670.376E-3	-4.25534E-3
4.82991E-3	191.383E-12	687.194E-3	21.0564E-3	191.436E-12	664.091E-3	-16.5673E-3
4.82491E-3	190.863E-12	680.686E-3	28.5682E-3	191.763E-12	650.575E-3	-18.7791E-3
4.81991E-3	191.042E-12	649.216E-3	31.4894E-3	191.263E-12	645.917E-3	-19.2705E-3
4.81491E-3	189.893E-12	645.739E-3	9.71838E-3	191.706E-12	667.922E-3	-12.8697E-3
4.80990E-3	190.168E-12	644.815E-3	-3.41966E-3	191.716E-12	688.099E-3	-12.9720E-3
4.80490E-3	190.786E-12	632.139E-3	-6.69078E-3	193.593E-12	696.103E-3	-30.9181E-3
4.79990E-3	191.288E-12	643.143E-3	-2.73001E-3	193.317E-12	683.860E-3	-43.4459E-3
4.79490E-3	190.742E-12	666.407E-3	16.0149E-3	192.829E-12	640.149E-3	-36.1507E-3
4.78989E-3	190.987E-12	664.388E-3	18.6396E-3	192.808E-12	616.498E-3	-25.6849E-3
4.78489E-3	191.856E-12	661.751E-3	2.75809E-3	193.287E-12	633.259E-3	-33.4936E-3
4.77989E-3	191.373E-12	671.565E-3	-2.66512E-3	193.742E-12	663.737E-3	-53.4601E-3
4.77489E-3	190.908E-12	653.494E-3	16.0070E-3	192.607E-12	673.998E-3	-56.1190E-3
4.76988E-3	189.337E-12	631.549E-3	37.2583E-3	193.143E-12	667.342E-3	-38.3399E-3
4.76488E-3	189.447E-12	629.437E-3	49.3286E-3	192.535E-12	672.412E-3	-31.2863E-3
4.75988E-3	187.814E-12	621.659E-3	40.2024E-3	192.672E-12	655.152E-3	-38.1727E-3
4.75488E-3	187.712E-12	608.135E-3	16.7666E-3	191.018E-12	618.927E-3	-34.2911E-3
4.74988E-3	187.895E-12	601.712E-3	-1.13866E-3	190.277E-12	608.083E-3	-19.2758E-3
4.74487E-3	187.751E-12	582.471E-3	-8.76598E-3	189.254E-12	613.257E-3	-23.6730E-3
4.73987E-3	187.173E-12	595.356E-3	-4.03828E-3	189.941E-12	649.813E-3	-31.2414E-3
4.73487E-3	186.728E-12	659.408E-3	-4.19880E-3	188.922E-12	678.917E-3	-7.54708E-3
4.72986E-3	187.175E-12	687.297E-3	-13.4311E-3	188.500E-12	652.344E-3	9.38617E-3
4.72486E-3	187.076E-12	668.832E-3	-32.9004E-3	188.414E-12	626.999E-3	-16.8081E-3
4.71986E-3	187.675E-12	670.267E-3	-33.4460E-3	189.325E-12	647.558E-3	-45.8569E-3
4.71486E-3	187.178E-12	687.147E-3	-9.90055E-3	189.667E-12	674.708E-3	-25.2360E-3
4.70985E-3	187.216E-12	684.513E-3	-5.17146E-3	188.175E-12	682.336E-3	15.2988E-3
4.70485E-3	187.599E-12	674.748E-3	-12.3403E-3	188.092E-12	682.796E-3	8.87303E-3
4.69985E-3	187.666E-12	659.675E-3	-16.1649E-3	188.542E-12	674.387E-3	-5.62221E-3
4.69485E-3	188.278E-12	660.714E-3	-39.7332E-3	188.726E-12	660.417E-3	13.3300E-3
4.68984E-3	187.499E-12	671.530E-3	-67.0472E-3	186.719E-12	651.754E-3	10.2839E-3
4.68484E-3	187.591E-12	675.139E-3	-61.7678E-3	185.828E-12	648.671E-3	-17.7858E-3
4.67984E-3	186.649E-12	692.845E-3	-35.2078E-3	185.245E-12	627.645E-3	-24.7752E-3
4.67484E-3	185.219E-12	708.813E-3	-18.8067E-3	185.695E-12	607.397E-3	-21.6122E-3
4.66983E-3	184.120E-12	689.502E-3	-18.4327E-3	185.361E-12	630.461E-3	-24.8006E-3
4.66483E-3	183.934E-12	646.573E-3	-22.3718E-3	184.657E-12	670.315E-3	-26.4152E-3
4.65983E-3	183.592E-12	630.207E-3	-26.1899E-3	184.227E-12	684.017E-3	-7.31293E-3
4.65483E-3	183.287E-12	645.329E-3	-11.4704E-3	183.709E-12	669.281E-3	9.01979E-3
4.64982E-3	183.027E-12	662.053E-3	-9.56404E-3	185.156E-12	648.378E-3	-13.8421E-3
4.64482E-3	183.533E-12	665.433E-3	-32.7849E-3	184.173E-12	652.222E-3	-54.1594E-3
4.63982E-3	183.765E-12	670.569E-3	-37.4118E-3	183.401E-12	665.655E-3	-65.9260E-3
4.63482E-3	184.984E-12	678.957E-3	-21.1155E-3	182.901E-12	669.998E-3	-38.6212E-3
4.62981E-3	185.598E-12	667.686E-3	-3.31714E-3	184.059E-12	681.535E-3	-2.66003E-3
4.62481E-3	186.649E-12	658.866E-3	-4.26909E-3	185.262E-12	685.456E-3	15.6461E-3
4.61981E-3	187.527E-12	681.789E-3	-33.1373E-3	184.687E-12	678.708E-3	8.79141E-3
4.61481E-3	188.222E-12	692.429E-3	-71.0721E-3	184.073E-12	666.206E-3	-23.5048E-3
4.60980E-3	186.456E-12	681.822E-3	-65.2116E-3	183.576E-12	658.486E-3	-57.4772E-3
4.60480E-3	185.900E-12	682.386E-3	-47.2706E-3	183.893E-12	672.782E-3	-50.9392E-3
4.59980E-3	185.970E-12	667.412E-3	-49.5138E-3	183.095E-12	683.196E-3	-20.3435E-3
4.59480E-3	185.487E-12	653.548E-3	-38.1433E-3	181.822E-12	651.603E-3	-361.232E-6
4.58979E-3	183.772E-12	672.488E-3	-21.6218E-3	181.390E-12	614.546E-3	23.2319E-3
4.58479E-3	182.099E-12	680.795E-3	-27.9489E-3	180.638E-12	626.313E-3	8.97630E-3
4.57979E-3	182.094E-12	675.647E-3	-44.7462E-3	181.479E-12	635.113E-3	-36.1336E-3
4.57479E-3	181.517E-12	675.687E-3	-37.4241E-3	181.267E-12	633.569E-3	-35.9421E-3
4.56978E-3	181.121E-12	658.447E-3	-6.93587E-3	181.843E-12	649.862E-3	-22.7152E-3
4.56478E-3	179.750E-12	651.060E-3	9.49508E-3	181.512E-12	655.811E-3	-27.0662E-3
4.55978E-3	180.468E-12	655.987E-3	-14.3834E-3	181.093E-12	661.961E-3	-31.6801E-3
4.55478E-3	179.736E-12	644.543E-3	-31.4304E-3	182.508E-12	675.167E-3	-31.2949E-3
4.54977E-3	180.295E-12	636.815E-3	-27.3243E-3	182.992E-12	691.225E-3	-16.0890E-3
4.54477E-3	180.416E-12	628.503E-3	-17.9556E-3	182.006E-12	714.406E-3	-4.39473E-3
4.53977E-3	180.463E-12	620.228E-3	-12.3829E-3	182.071E-12	711.877E-3	-15.7506E-3
4.53477E-3	180.692E-12	641.235E-3	-11.1760E-3	182.792E-12	691.066E-3	-33.4767E-3
4.52976E-3	180.982E-12	656.066E-3	-16.5689E-3	182.665E-12	671.094E-3	-31.8350E-3
4.52476E-3	181.994E-12	644.865E-3	-24.3625E-3	181.161E-12	650.821E-3	-18.7320E-3
4.51976E-3	181.479E-12	645.938E-3	-24.8273E-3	180.370E-12	661.078E-3	-13.8832E-3
4.51476E-3	181.097E-12	653.086E-3	-22.4704E-3	180.005E-12	684.894E-3	-19.0045E-3
4.50975E-3	179.642E-12	654.127E-3	-13.9181E-3	180.018E-12	670.349E-3	-21.6617E-3
4.50475E-3	178.789E-12	649.240E-3	-9.64161E-3	179.049E-12	642.050E-3	-19.5769E-3
4.49975E-3	177.763E-12	651.983E-3	-13.9924E-3	178.421E-12	640.394E-3	-19.7066E-3
4.49475E-3	177.025E-12	655.836E-3	-11.0153E-3	177.975E-12	657.683E-3	-1.70197E-3
4.48974E-3	175.842E-12	641.998E-3	-7.18204E-3	177.844E-12	667.545E-3	19.6928E-3
4.48474E-3	174.178E-12	618.377E-3	340.820E-6	178.239E-12	652.395E-3	11.9846E-3
4.47974E-3	174.759E-12	605.900E-3	12.0647E-3	178.860E-12	653.769E-3	-889.858E-6
4.47474E-3	174.637E-12	627.451E-3	-5.68951E-3	178.254E-12	674.166E-3	2.35111E-3
4.46973E-3	174.896E-12	642.049E-3	-24.1955E-3	178.321E-12	670.661E-3	1.83473E-3
4.46473E-3	174.147E-12	624.791E-3	-20.5657E-3	179.417E-12	658.073E-3	-10.8310E-3
4.45973E-3	175.479E-12	629.344E-3	-25.2545E-3	179.037E-12	658.964E-3	-40.3037E-3
4.45473E-3	176.449E-12	663.770E-3	-31.9583E-3	178.535E-12	672.593E-3	-58.4436E-3
4.44972E-3	176.487E-12	672.981E-3	-18.1988E-3	177.754E-12	672.728E-3	-33.7060E-3
4.44472E-3	176.153E-12	655.356E-3	-2.30640E-3	179.346E-12	656.289E-3	-10.7243E-3
4.43972E-3	176.903E-12	639.656E-3	5.54063E-3	179.310E-12	655.866E-3	-21.9949E-3
4.43472E-3	176.960E-12	644.246E-3	19.2211E-3	178.454E-12	652.352E-3	-46.4335E-3
4.42971E-3	176.010E-12	654.162E-3	4.75075E-3	176.933E-12	636.011E-3	-60.3760E-3
4.42471E-3	175.216E-12	643.711E-3	-29.4631E-3	175.381E-12	632.602E-3	-47.1378E-3
4.41971E-3	174.251E-12	638.001E-3	-37.2377E-3	174.745E-12	639.042E-3	-5.93260E-3
4.41471E-3	173.967E-12	646.959E-3	-42.8779E-3	174.424E-12	656.280E-3	16.2395E-3
4.40970E-3	173.773E-12	663.355E-3	-57.3956E-3	173.298E-12	670.117E-3	-5.05395E-3
4.40470E-3	172.295E-12	680.189E-3	-44.6015E-3	173.026E-12	673.255E-3	-26.6971E-3
4.39970E-3	171.436E-12	678.980E-3	-42.9218E-3	172.927E-12	692.494E-3	-14.6326E-3
4.39470E-3	171.547E-12	655.755E-3	-75.0080E-3	173.944E-12	698.572E-3	405.709E-6
4.38969E-3	171.853E-12	637.926E-3	-82.1035E-3	173.287E-12	668.332E-3	-7.59582E-3
4.38469E-3	170.962E-12	640.257E-3	-49.8595E-3	173.543E-12	647.927E-3	-24.7003E-3
4.37969E-3	170.953E-12	639.405E-3	-21.7936E-3	172.719E-12	652.686E-3	-41.7458E-3
4.37469E-3	171.822E-12	632.353E-3	-7.05364E-3	173.770E-12	650.344E-3	-46.2878E-3
4.36968E-3	173.092E-12	643.951E-3	12.1418E-3	173.459E-12	644.734E-3	-37.1268E-3
4.36468E-3	173.307E-12	658.513E-3	28.5547E-3	173.531E-12	658.989E-3	-19.6862E-3
4.35968E-3	173.340E-12	654.383E-3	27.7099E-3	172.827E-12	675.014E-3	-12.3881E-3
4.35468E-3	173.916E-12	650.483E-3	14.6645E-3	173.049E-12	673.546E-3	-16.8346E-3
4.34967E-3	174.244E-12	653.019E-3	8.62244E-3	172.549E-12	655.780E-3	-2.57158E-3
4.34467E-3	174.063E-12	666.218E-3	-7.36655E-3	172.189E-12	633.764E-3	7.10594E-3
4.33967E-3	173.015E-12	676.852E-3	-29.8624E-3	170.636E-12	622.100E-3	-11.0714E-3
4.33467E-3	172.888E-12	688.873E-3	-26.2326E-3	170.451E-12	626.153E-3	-30.8247E-3
4.32966E-3	171.714E-12	693.658E-3	-24.5826E-3	170.516E-12	642.041E-3	-37.7265E-3
4.32466E-3	170.508E-12	678.201E-3	-29.4357E-3	170.473E-12	647.582E-3	-26.7494E-3
4.31966E-3	169.531E-12	665.587E-3	-10.7868E-3	169.413E-12	636.808E-3	-14.1664E-3
4.31466E-3	169.537E-12	632.494E-3	4.25299E-3	168.900E-12	632.922E-3	-21.8371E-3
4.30965E-3	169.737E-12	607.659E-3	-19.1951E-3	170.141E-12	640.338E-3	-26.7648E-3
4.30465E-3	169.112E-12	640.860E-3	-31.3183E-3	171.037E-12	663.019E-3	-15.8479E-3
4.29965E-3	170.005E-12	672.192E-3	-12.7444E-3	170.401E-12	685.611E-3	-12.6071E-3
4.29465E-3	170.701E-12	676.875E-3	-14.4956E-3	169.959E-12	672.147E-3	-9.88351E-3
4.28964E-3	170.877E-12	672.750E-3	-25.3007E-3	170.087E-12	644.106E-3	6.74345E-3
4.28464E-3	170.686E-12	665.674E-3	-24.0180E-3	170.871E-12	641.556E-3	17.4182E-3
4.27964E-3	170.318E-12	671.790E-3	-7.94493E-3	170.568E-12	666.990E-3	17.0576E-3
4.27464E-3	170.777E-12	664.857E-3	8.21489E-3	169.166E-12	686.275E-3	22.0440E-3
4.26963E-3	170.868E-12	649.781E-3	-3.93066E-3	168.322E-12	683.050E-3	14.6494E-3
4.26463E-3	170.412E-12	648.631E-3	-11.4573E-3	169.937E-12	676.135E-3	-18.8592E-3
4.25963E-3	168.998E-12	657.658E-3	9.86063E-3	170.723E-12	675.642E-3	-37.6649E-3
4.25463E-3	168.783E-12	674.404E-3	16.5087E-3	168.592E-12	676.300E-3	-26.9821E-3
4.24962E-3	167.640E-12	684.654E-3	-2.53855E-3	167.058E-12	672.090E-3	-7.07648E-3
4.24462E-3	167.148E-12	687.569E-3	-14.2128E-3	167.376E-12	668.076E-3	1.95817E-3
4.23962E-3	165.446E-12	677.988E-3	-6.79620E-3	168.818E-12	673.895E-3	4.02796E-3
4.23462E-3	164.994E-12	651.994E-3	-7.09909E-3	167.028E-12	688.975E-3	10.2984E-3
4.22961E-3	163.935E-12	636.953E-3	-29.7862E-3	166.087E-12	696.439E-3	11.2588E-3
4.22461E-3	163.353E-12	640.293E-3	-53.4943E-3	166.441E-12	684.304E-3	5.17547E-3
4.21961E-3	163.099E-12	657.643E-3	-51.9655E-3	168.194E-12	667.195E-3	-10.7165E-3
4.21461E-3	164.041E-12	690.528E-3	-27.5592E-3	167.240E-12	654.521E-3	-5.21444E-3
4.20960E-3	164.465E-12	698.464E-3	-10.0973E-3	166.309E-12	652.156E-3	34.5788E-3
4.20460E-3	164.333E-12	679.339E-3	-6.72015E-3	165.821E-12	658.014E-3	39.8012E-3
4.19960E-3	164.919E-12	669.571E-3	-16.7989E-3	166.587E-12	654.975E-3	16.3987E-3
4.19460E-3	165.413E-12	667.188E-3	-32.9507E-3	166.976E-12	653.279E-3	5.33181E-3
4.18959E-3	165.827E-12	668.650E-3	-43.8412E-3	165.731E-12	666.846E-3	-19.0458E-3
4.18459E-3	165.568E-12	671.278E-3	-35.2186E-3	165.720E-12	674.303E-3	-32.8911E-3
4.17959E-3	165.547E-12	658.740E-3	-18.4376E-3	166.414E-12	662.408E-3	-3.03530E-3
4.17459E-3	164.310E-12	655.417E-3	-16.6498E-3	167.276E-12	653.615E-3	35.1872E-3
4.16958E-3	164.078E-12	686.763E-3	-26.0607E-3	166.113E-12	659.392E-3	36.2620E-3
4.16458E-3	163.097E-12	697.755E-3	-43.1606E-3	164.914E-12	657.530E-3	328.177E-6
4.15958E-3	161.916E-12	678.976E-3	-41.7596E-3	164.271E-12	647.169E-3	-27.3063E-3
4.15458E-3	159.942E-12	670.001E-3	-10.7237E-3	164.639E-12	662.832E-3	-14.8855E-3
4.14957E-3	159.885E-12	652.842E-3	9.84812E-3	164.734E-12	685.919E-3	13.2872E-3
4.14457E-3	159.790E-12	627.186E-3	-5.02536E-3	163.742E-12	683.313E-3	8.77747E-3
4.13957E-3	158.647E-12	622.459E-3	-29.8601E-3	163.396E-12	673.606E-3	-13.3397E-3
4.13457E-3	158.553E-12	617.724E-3	-40.5533E-3	163.164E-12	676.053E-3	-6.85205E-3
4.12956E-3	159.501E-12	623.152E-3	-44.9710E-3	164.640E-12	669.688E-3	19.0152E-3
4.12456E-3	161.200E-12	652.556E-3	-52.1600E-3	163.955E-12	659.518E-3	22.1934E-3
4.11956E-3	161.842E-12	656.304E-3	-64.5984E-3	162.853E-12	661.604E-3	3.92465E-3
4.11456E-3	162.207E-12	634.592E-3	-68.7751E-3	161.977E-12	655.069E-3	-2.33864E-3
4.10955E-3	162.734E-12	624.457E-3	-39.3120E-3	162.347E-12	646.246E-3	-5.10581E-3
4.10455E-3	164.119E-12	631.512E-3	-242.850E-6	163.259E-12	650.160E-3	-21.6949E-3
4.09955E-3	165.027E-12	638.282E-3	14.3272E-3	162.443E-12	656.137E-3	-28.8144E-3
4.09455E-3	162.996E-12	645.408E-3	-3.53236E-3	161.121E-12	630.516E-3	-16.7613E-3
4.08954E-3	163.372E-12	654.364E-3	-34.7006E-3	160.364E-12	609.240E-3	-15.7319E-3
4.08454E-3	162.835E-12	667.061E-3	-42.7511E-3	160.966E-12	647.712E-3	-35.1250E-3
4.07954E-3	162.928E-12	686.243E-3	-28.0265E-3	161.419E-12	677.941E-3	-44.8273E-3
4.07454E-3	160.918E-12	687.933E-3	-14.4272E-3	160.026E-12	654.261E-3	-30.1465E-3
4.06953E-3	159.109E-12	662.381E-3	-18.7436E-3	159.315E-12	631.165E-3	-24.8650E-3
4.06453E-3	158.489E-12	636.487E-3	-23.3984E-3	159.098E-12	627.952E-3	-26.8603E-3
4.05953E-3	158.805E-12	646.918E-3	-13.5097E-3	159.539E-12	642.719E-3	-16.9180E-3
4.05453E-3	158.258E-12	657.715E-3	-18.5041E-3	159.369E-12	670.978E-3	-18.8979E-3
4.04952E-3	156.749E-12	641.566E-3	-27.2456E-3	159.420E-12	683.316E-3	-21.1575E-3
4.04452E-3	157.134E-12	638.621E-3	-8.67488E-3	158.627E-12	672.222E-3	685.032E-6
4.03952E-3	157.559E-12	642.337E-3	4.78972E-3	158.647E-12	664.802E-3	4.71757E-3
4.03452E-3	157.734E-12	632.108E-3	-1.12914E-3	158.748E-12	676.442E-3	-25.7901E-3
4.02951E-3	158.212E-12	615.978E-3	2.06482E-3	159.363E-12	679.564E-3	-38.4910E-3
4.02451E-3	159.232E-12	612.367E-3	-3.49452E-3	158.382E-12	667.438E-3	-11.3099E-3
4.01951E-3	160.742E-12	625.587E-3	-28.5927E-3	158.147E-12	650.050E-3	15.8350E-3
4.01451E-3	160.187E-12	651.694E-3	-45.3123E-3	157.810E-12	639.360E-3	17.1972E-3
4.00950E-3	160.316E-12	676.062E-3	-43.0340E-3	158.951E-12	658.955E-3	7.32636E-3
4.00450E-3	159.210E-12	675.727E-3	-38.1749E-3	158.088E-12	671.380E-3	-2.71373E-3
3.99950E-3	159.203E-12	668.626E-3	-20.2236E-3	157.217E-12	660.293E-3	-2.06878E-3
3.99450E-3	157.892E-12	676.621E-3	-1.75437E-3	156.541E-12	669.263E-3	-7.05553E-3
3.98949E-3	157.333E-12	685.499E-3	-18.4717E-3	156.823E-12	684.835E-3	-36.3197E-3
3.98449E-3	156.149E-12	684.003E-3	-31.6995E-3	156.575E-12	666.794E-3	-37.4437E-3
3.97949E-3	154.999E-12	679.675E-3	-27.9155E-3	156.096E-12	653.912E-3	-11.1409E-3
3.97449E-3	153.938E-12	670.741E-3	-34.3621E-3	155.931E-12	671.072E-3	-16.2445E-3
3.96948E-3	153.269E-12	645.584E-3	-32.0795E-3	155.709E-12	680.811E-3	-25.9591E-3
3.96448E-3	153.179E-12	632.880E-3	-3.80836E-3	155.803E-12	686.457E-3	-24.1228E-3
3.95948E-3	152.787E-12	648.475E-3	11.4032E-3	156.409E-12	688.691E-3	-26.5081E-3
3.95448E-3	152.351E-12	658.183E-3	-5.55249E-3	155.139E-12	683.650E-3	-21.0398E-3
3.94947E-3	152.511E-12	654.288E-3	-22.3636E-3	155.596E-12	680.258E-3	-10.8544E-3
3.94447E-3	153.068E-12	657.565E-3	-17.5000E-3	155.436E-12	671.980E-3	-540.248E-6
3.93947E-3	153.175E-12	668.613E-3	-13.7400E-3	156.402E-12	663.354E-3	5.81398E-3
3.93447E-3	153.548E-12	666.370E-3	-20.3511E-3	155.051E-12	662.874E-3	-14.3835E-3
3.92946E-3	153.828E-12	652.484E-3	-36.1186E-3	155.153E-12	665.431E-3	-23.0797E-3
3.92446E-3	153.999E-12	638.838E-3	-52.3525E-3	154.749E-12	654.665E-3	-3.97332E-3
3.91946E-3	153.414E-12	633.588E-3	-39.8338E-3	154.936E-12	632.451E-3	-6.63129E-3
3.91446E-3	152.622E-12	640.472E-3	-18.0298E-3	153.815E-12	622.222E-3	-35.6967E-3
3.90945E-3	152.161E-12	663.735E-3	172.669E-6	153.484E-12	627.107E-3	-57.5078E-3
3.90445E-3	151.171E-12	677.814E-3	13.4933E-3	152.411E-12	640.613E-3	-50.8221E-3
3.89945E-3	150.483E-12	658.930E-3	1.51848E-3	152.871E-12	650.822E-3	-36.8158E-3
3.89445E-3	149.655E-12	640.100E-3	-17.6209E-3	152.654E-12	641.995E-3	-26.8086E-3
3.88944E-3	150.008E-12	643.887E-3	-8.56310E-3	151.956E-12	635.925E-3	-6.34794E-3
3.88444E-3	148.869E-12	660.109E-3	8.47519E-3	150.919E-12	646.836E-3	9.40966E-3
3.87944E-3	148.308E-12	662.968E-3	8.10097E-3	150.452E-12	663.238E-3	-1.92684E-3
3.87444E-3	148.381E-12	652.970E-3	-6.03167E-3	151.200E-12	680.656E-3	-27.5426E-3
3.86943E-3	149.175E-12	649.642E-3	-19.1230E-3	151.830E-12	686.101E-3	-47.2292E-3
3.86443E-3	149.710E-12	648.280E-3	-27.4716E-3	151.110E-12	661.180E-3	-43.1269E-3
3.85943E-3	149.573E-12	642.614E-3	-26.9732E-3	151.393E-12	644.973E-3	-26.2492E-3
3.85443E-3	149.379E-12	642.517E-3	-3.76489E-3	151.268E-12	678.935E-3	-32.0509E-3
3.84942E-3	149.703E-12	644.691E-3	2.49557E-3	151.760E-12	704.769E-3	-33.9241E-3
3.84442E-3	149.950E-12	651.801E-3	-27.8854E-3	151.341E-12	680.570E-3	-299.020E-6
3.83942E-3	149.917E-12	666.597E-3	-44.1868E-3	150.477E-12	659.356E-3	9.60262E-3
3.83442E-3	148.909E-12	670.629E-3	-27.5507E-3	150.484E-12	671.443E-3	-7.18946E-3
3.82941E-3	148.438E-12	663.073E-3	-18.2927E-3	150.327E-12	685.682E-3	-8.91334E-3
3.82441E-3	148.471E-12	651.322E-3	-20.7866E-3	149.937E-12	684.467E-3	-2.22311E-3
3.81941E-3	148.464E-12	651.146E-3	-8.98375E-3	148.907E-12	650.617E-3	12.7082E-3
3.81441E-3	147.264E-12	666.954E-3	-7.76050E-3	148.347E-12	626.294E-3	12.2643E-3
3.80940E-3	146.642E-12	675.408E-3	-18.7947E-3	146.767E-12	653.447E-3	-21.3499E-3
3.80440E-3	146.772E-12	665.157E-3	-9.51769E-3	146.754E-12	672.966E-3	-26.7277E-3
3.79940E-3	146.594E-12	645.613E-3	-376.134E-6	146.024E-12	664.862E-3	8.43985E-3
3.79440E-3	146.227E-12	638.367E-3	-10.9788E-3	145.243E-12	654.863E-3	20.8866E-3
3.78939E-3	146.085E-12	663.475E-3	-25.4094E-3	145.036E-12	628.388E-3	10.6726E-3
3.78439E-3	146.745E-12	687.787E-3	-35.4126E-3	145.891E-12	616.052E-3	6.08214E-3
3.77939E-3	146.536E-12	674.217E-3	-44.7735E-3	146.351E-12	632.271E-3	-5.59143E-3
3.77439E-3	146.841E-12	646.213E-3	-45.6292E-3	145.632E-12	629.752E-3	-17.9734E-3
3.76938E-3	147.364E-12	632.979E-3	-39.0197E-3	145.910E-12	635.884E-3	-18.8654E-3
3.76438E-3	148.089E-12	632.764E-3	-30.2130E-3	146.323E-12	656.123E-3	-29.5880E-3
3.75938E-3	148.644E-12	628.593E-3	-8.60949E-3	146.522E-12	656.255E-3	-40.8726E-3
3.75438E-3	148.141E-12	629.676E-3	3.88597E-3	145.923E-12	652.780E-3	-41.8654E-3
3.74937E-3	147.529E-12	639.550E-3	1.50943E-3	145.050E-12	658.603E-3	-34.8535E-3
3.74437E-3	147.154E-12	638.897E-3	-3.95847E-3	145.340E-12	663.314E-3	-21.4723E-3
3.73937E-3	147.493E-12	629.333E-3	-12.3582E-3	145.435E-12	651.805E-3	-8.29110E-3
3.73437E-3	146.601E-12	626.698E-3	-21.7716E-3	144.999E-12	639.862E-3	-10.9837E-3
3.72936E-3	145.767E-12	646.119E-3	-28.0277E-3	145.114E-12	654.377E-3	-21.5012E-3
3.72436E-3	144.744E-12	671.769E-3	-24.4290E-3	145.767E-12	678.189E-3	-19.3757E-3
3.71936E-3	144.841E-12	668.479E-3	-21.9830E-3	145.859E-12	688.653E-3	-13.4250E-3
3.71436E-3	144.390E-12	657.151E-3	-21.3145E-3	145.156E-12	685.871E-3	3.00145E-3
3.70935E-3	143.332E-12	670.888E-3	-13.2282E-3	144.403E-12	675.439E-3	6.42997E-3
3.70435E-3	143.249E-12	681.412E-3	3.05442E-3	144.377E-12	652.394E-3	-19.7244E-3
3.69935E-3	142.935E-12	661.058E-3	9.83285E-3	144.251E-12	638.894E-3	-31.0331E-3
3.69435E-3	143.080E-12	641.733E-3	1.65365E-3	143.824E-12	635.914E-3	-14.2635E-3
3.68934E-3	143.629E-12	659.021E-3	-17.2893E-3	143.984E-12	634.916E-3	-8.89994E-3
3.68434E-3	144.714E-12	683.063E-3	-20.7248E-3	143.955E-12	652.287E-3	-29.7058E-3
3.67934E-3	144.345E-12	683.574E-3	-12.0636E-3	144.727E-12	651.552E-3	-39.3501E-3
3.67434E-3	144.655E-12	676.364E-3	-19.7564E-3	144.369E-12	637.621E-3	-31.3265E-3
3.66933E-3	144.578E-12	677.729E-3	-12.8770E-3	144.346E-12	657.764E-3	-19.7071E-3
3.66433E-3	143.821E-12	691.411E-3	-5.70734E-3	143.587E-12	679.083E-3	387.382E-6
3.65933E-3	143.509E-12	701.704E-3	-14.0470E-3	143.411E-12	676.678E-3	-4.66219E-3
3.65433E-3	143.082E-12	693.331E-3	-15.6373E-3	142.628E-12	668.861E-3	-35.4664E-3
3.64932E-3	142.741E-12	690.203E-3	-8.20796E-3	142.050E-12	648.370E-3	-39.9479E-3
3.64432E-3	141.082E-12	700.905E-3	-10.3077E-3	141.180E-12	628.177E-3	-23.2660E-3
3.63932E-3	139.818E-12	686.922E-3	-22.5257E-3	141.614E-12	640.833E-3	-3.58869E-3
3.63432E-3	139.566E-12	654.147E-3	-23.6972E-3	141.830E-12	662.046E-3	12.6990E-3
3.62931E-3	139.265E-12	649.487E-3	-21.6993E-3	140.957E-12	661.513E-3	6.49242E-3
3.62431E-3	138.437E-12	667.396E-3	-13.7401E-3	140.736E-12	661.632E-3	-24.2919E-3
3.61931E-3	137.113E-12	674.819E-3	-4.24456E-3	140.397E-12	666.992E-3	-38.2753E-3
3.61431E-3	137.459E-12	663.419E-3	-18.3876E-3	140.741E-12	665.255E-3	-22.5266E-3
3.60930E-3	137.937E-12	638.862E-3	-24.6219E-3	140.551E-12	671.277E-3	-19.0174E-3
3.60430E-3	138.646E-12	607.814E-3	1.72878E-3	139.788E-12	663.777E-3	-23.5682E-3
3.59930E-3	137.437E-12	602.480E-3	16.8057E-3	140.190E-12	646.014E-3	-33.8412E-3
3.59430E-3	138.302E-12	621.517E-3	10.3860E-3	140.674E-12	659.470E-3	-38.8971E-3
3.58929E-3	138.798E-12	624.687E-3	4.58528E-3	140.246E-12	670.275E-3	-23.1576E-3
3.58429E-3	139.422E-12	622.045E-3	-2.48053E-3	139.622E-12	664.052E-3	-14.1562E-3
3.57929E-3	139.179E-12	638.433E-3	-16.6960E-3	138.784E-12	675.536E-3	-4.71373E-3
3.57429E-3	138.894E-12	661.893E-3	-26.9529E-3	138.817E-12	684.962E-3	9.36879E-3
3.56928E-3	139.159E-12	660.299E-3	-26.3330E-3	138.390E-12	672.001E-3	12.9893E-3
3.56428E-3	138.762E-12	653.710E-3	-16.4029E-3	137.998E-12	670.453E-3	-3.35258E-3
3.55928E-3	138.052E-12	662.666E-3	-1.06227E-3	136.918E-12	681.155E-3	-25.7323E-3
3.55428E-3	136.652E-12	655.081E-3	-7.82462E-3	136.760E-12	676.509E-3	-43.1129E-3
3.54927E-3	136.173E-12	644.040E-3	-24.0629E-3	136.591E-12	661.855E-3	-46.6385E-3
3.54427E-3	135.651E-12	648.996E-3	-17.5813E-3	136.597E-12	649.517E-3	-32.3478E-3
3.53927E-3	135.104E-12	661.710E-3	-25.3119E-3	136.004E-12	647.796E-3	-34.7110E-3
3.53427E-3	134.625E-12	672.747E-3	-39.4425E-3	135.557E-12	664.655E-3	-47.2807E-3
3.52926E-3	134.134E-12	667.476E-3	-24.2949E-3	135.777E-12	661.554E-3	-39.2914E-3
3.52426E-3	134.578E-12	645.347E-3	-18.0266E-3	135.250E-12	639.519E-3	-22.0494E-3
3.51926E-3	134.975E-12	638.800E-3	-22.7936E-3	135.316E-12	655.174E-3	-16.9228E-3
3.51426E-3	135.204E-12	662.344E-3	-13.6480E-3	134.463E-12	675.188E-3	-15.3523E-3
3.50925E-3	135.032E-12	669.692E-3	-13.5850E-3	134.724E-12	670.692E-3	-5.21040E-3
3.50425E-3	135.670E-12	654.942E-3	-19.9477E-3	134.195E-12	655.237E-3	13.3740E-3
3.49925E-3	135.889E-12	653.090E-3	-13.8933E-3	134.405E-12	640.859E-3	11.4339E-3
3.49425E-3	136.235E-12	664.101E-3	-16.7026E-3	133.799E-12	639.922E-3	-27.5948E-3
3.48924E-3	136.172E-12	666.002E-3	-23.6263E-3	133.535E-12	644.698E-3	-37.9845E-3
3.48424E-3	135.902E-12	662.593E-3	-50.3191E-6	132.543E-12	660.976E-3	-5.76474E-3
3.47924E-3	136.122E-12	667.775E-3	23.4302E-3	132.039E-12	664.968E-3	-4.03601E-3
3.47424E-3	135.229E-12	678.255E-3	12.0349E-3	132.077E-12	667.618E-3	-25.9138E-3
3.46923E-3	134.695E-12	689.725E-3	-13.1965E-3	132.061E-12	692.697E-3	-24.6861E-3
3.46423E-3	133.361E-12	694.399E-3	-34.4315E-3	131.267E-12	694.410E-3	-18.9117E-3
3.45923E-3	133.044E-12	696.994E-3	-46.7430E-3	131.165E-12	673.944E-3	-19.6661E-3
3.45423E-3	132.126E-12	694.174E-3	-30.6464E-3	132.330E-12	676.083E-3	-19.8136E-3
3.44922E-3	131.746E-12	680.488E-3	-8.71503E-3	132.098E-12	690.256E-3	-25.3660E-3
3.44422E-3	130.966E-12	679.134E-3	-3.36930E-3	131.378E-12	673.052E-3	-16.3967E-3
3.43922E-3	130.808E-12	692.100E-3	-10.6569E-3	131.097E-12	646.931E-3	4.65688E-3
3.43422E-3	131.135E-12	687.645E-3	-26.2434E-3	132.239E-12	647.747E-3	12.5866E-3
3.42921E-3	132.034E-12	671.404E-3	-17.8243E-3	132.043E-12	667.024E-3	3.74914E-3
3.42421E-3	132.046E-12	664.666E-3	503.392E-6	131.181E-12	690.964E-3	-15.6398E-3
3.41921E-3	131.666E-12	662.069E-3	-2.87049E-3	130.955E-12	697.536E-3	-16.0734E-3
3.41421E-3	131.946E-12	663.654E-3	-24.2516E-3	131.112E-12	683.307E-3	2.38569E-3
3.40920E-3	132.170E-12	676.454E-3	-39.9205E-3	130.509E-12	666.723E-3	7.40355E-3
3.40420E-3	132.264E-12	692.086E-3	-26.5269E-3	129.239E-12	660.242E-3	-3.34710E-3
3.39920E-3	131.723E-12	690.528E-3	-4.60370E-3	129.144E-12	673.229E-3	-18.4548E-3
3.39420E-3	130.831E-12	679.460E-3	6.00009E-3	129.242E-12	689.640E-3	-29.8607E-3
3.38919E-3	130.364E-12	667.295E-3	14.4061E-3	129.081E-12	688.919E-3	-32.4693E-3
3.38419E-3	130.284E-12	643.375E-3	8.99526E-3	128.128E-12	678.936E-3	-17.3575E-3
3.37919E-3	129.412E-12	635.374E-3	-18.3010E-3	128.474E-12	678.200E-3	15.4918E-3
3.37419E-3	127.866E-12	667.933E-3	-34.4252E-3	128.270E-12	682.870E-3	22.0699E-3
3.36918E-3	127.401E-12	687.319E-3	-30.5025E-3	128.330E-12	674.917E-3	-4.32402E-3
3.36418E-3	126.801E-12	670.245E-3	-23.7190E-3	127.963E-12	664.964E-3	-17.4487E-3
3.35918E-3	126.644E-12	658.552E-3	-21.4730E-3	128.236E-12	665.543E-3	-20.9609E-3
3.35418E-3	125.942E-12	659.516E-3	-28.3750E-3	128.616E-12	668.519E-3	-15.5238E-3
3.34917E-3	125.644E-12	667.931E-3	-26.3299E-3	129.228E-12	665.536E-3	7.33935E-3
3.34417E-3	125.836E-12	677.699E-3	-11.4343E-3	129.053E-12	670.661E-3	10.3873E-3
3.33917E-3	126.317E-12	679.093E-3	-2.86295E-3	128.706E-12	688.646E-3	-3.27449E-3
3.33417E-3	126.166E-12	666.128E-3	-11.3712E-3	128.539E-12	686.316E-3	-19.0745E-3
3.32916E-3	126.821E-12	649.483E-3	-22.6418E-3	128.260E-12	663.116E-3	-44.5223E-3
3.32416E-3	127.634E-12	649.557E-3	-8.39555E-3	128.010E-12	648.345E-3	-53.0577E-3
3.31916E-3	127.081E-12	669.694E-3	5.03522E-3	127.148E-12	644.403E-3	-25.2156E-3
3.31416E-3	126.427E-12	683.366E-3	-5.89645E-3	127.082E-12	646.830E-3	596.436E-6
3.30915E-3	126.446E-12	667.410E-3	-24.4921E-3	126.552E-12	658.051E-3	-12.8784E-3
3.30415E-3	126.735E-12	651.647E-3	-40.4523E-3	126.503E-12	677.812E-3	-37.5690E-3
3.29915E-3	126.370E-12	658.264E-3	-27.4536E-3	126.077E-12	700.725E-3	-31.5635E-3
3.29415E-3	125.347E-12	666.656E-3	9.43001E-3	125.776E-12	698.917E-3	-13.6483E-3
3.28914E-3	124.642E-12	681.899E-3	23.2651E-3	125.392E-12	686.565E-3	-10.8463E-3
3.28414E-3	123.832E-12	710.918E-3	8.08423E-3	124.829E-12	668.785E-3	-14.9840E-3
3.27914E-3	123.641E-12	711.034E-3	-13.5153E-3	124.981E-12	647.326E-3	-17.1139E-3
3.27414E-3	123.157E-12	681.500E-3	-47.9471E-3	125.407E-12	661.723E-3	-11.9669E-3
3.26913E-3	122.867E-12	664.222E-3	-62.0489E-3	125.328E-12	677.469E-3	-11.2713E-3
3.26413E-3	122.303E-12	661.286E-3	-27.2934E-3	124.692E-12	671.272E-3	-23.0881E-3
3.25913E-3	122.446E-12	656.151E-3	1.71157E-3	125.091E-12	676.033E-3	-32.5967E-3
3.25413E-3	122.894E-12	650.574E-3	4.65845E-3	125.563E-12	686.310E-3	-31.5746E-3
3.24912E-3	122.565E-12	652.336E-3	1.00963E-3	124.927E-12	684.952E-3	-12.6804E-3
3.24412E-3	123.005E-12	663.345E-3	-7.33420E-3	124.131E-12	683.038E-3	15.1484E-3
3.23912E-3	123.274E-12	671.074E-3	-20.6340E-3	123.803E-12	678.020E-3	15.2295E-3
3.23412E-3	123.077E-12	659.165E-3	-29.5891E-3	123.948E-12	671.012E-3	-8.72913E-3
3.22911E-3	122.408E-12	645.590E-3	-26.2952E-3	123.287E-12	670.146E-3	-21.2790E-3
3.22411E-3	122.634E-12	655.120E-3	-23.5066E-3	123.177E-12	669.464E-3	-11.9834E-3
3.21911E-3	122.031E-12	673.690E-3	-29.3531E-3	121.446E-12	666.375E-3	-17.2118E-6
3.21411E-3	121.916E-12	680.349E-3	-25.0853E-3	121.901E-12	660.790E-3	-5.56539E-3
3.20910E-3	121.928E-12	676.121E-3	-8.19229E-3	121.676E-12	663.788E-3	-7.94716E-3
3.20410E-3	121.005E-12	666.635E-3	206.657E-6	121.844E-12	671.956E-3	-8.46983E-3
3.19910E-3	120.509E-12	659.544E-3	-2.07241E-3	120.669E-12	674.220E-3	-12.5190E-3
3.19410E-3	119.845E-12	656.964E-3	-7.90414E-3	120.179E-12	682.318E-3	-5.62721E-3
3.18909E-3	119.697E-12	659.828E-3	-8.76161E-3	120.496E-12	694.651E-3	-21.2511E-3
3.18409E-3	119.999E-12	660.349E-3	419.948E-6	120.272E-12	694.233E-3	-46.6758E-3
3.17909E-3	119.364E-12	658.258E-3	8.74454E-3	120.329E-12	692.734E-3	-38.7786E-3
3.17409E-3	119.856E-12	652.252E-3	9.32926E-3	119.141E-12	683.917E-3	-24.8969E-3
3.16908E-3	120.459E-12	646.557E-3	5.15871E-3	119.641E-12	651.670E-3	-21.4260E-3
3.16408E-3	120.809E-12	669.272E-3	-3.93825E-3	119.280E-12	648.347E-3	-11.5072E-3
3.15908E-3	120.205E-12	684.621E-3	-6.33986E-3	119.485E-12	675.060E-3	-9.21218E-3
3.15408E-3	120.907E-12	675.447E-3	-12.5983E-3	118.368E-12	679.086E-3	-21.0310E-3
3.14907E-3	121.015E-12	670.715E-3	-29.2210E-3	117.452E-12	664.237E-3	-22.8562E-3
3.14407E-3	120.983E-12	664.131E-3	-26.4414E-3	118.324E-12	653.681E-3	-14.9923E-3
3.13907E-3	120.567E-12	663.209E-3	-21.0387E-3	118.280E-12	658.685E-3	1.12903E-3
3.13407E-3	120.133E-12	683.921E-3	-33.7628E-3	118.697E-12	666.070E-3	14.4135E-3
3.12906E-3	119.721E-12	707.080E-3	-37.7083E-3	117.644E-12	669.602E-3	-815.446E-6
3.12406E-3	118.440E-12	707.719E-3	-37.3140E-3	118.068E-12	675.178E-3	-22.2947E-3
3.11906E-3	117.683E-12	684.616E-3	-50.2030E-3	117.939E-12	686.492E-3	-32.4407E-3
3.11406E-3	117.448E-12	661.804E-3	-50.1243E-3	117.840E-12	706.784E-3	-30.2561E-3
3.10905E-3	116.694E-12	667.771E-3	-32.1933E-3	117.247E-12	703.113E-3	-24.5363E-3
3.10405E-3	116.098E-12	684.402E-3	-25.0317E-3	117.409E-12	683.800E-3	-28.5924E-3
3.09905E-3	115.485E-12	674.396E-3	-28.8173E-3	117.122E-12	689.007E-3	-23.1772E-3
3.09405E-3	115.526E-12	646.261E-3	-29.7826E-3	117.096E-12	695.297E-3	-13.2437E-3
3.08904E-3	115.228E-12	644.189E-3	-29.2309E-3	116.945E-12	685.869E-3	-7.08943E-3
3.08404E-3	115.869E-12	677.901E-3	-23.9783E-3	115.850E-12	675.263E-3	-4.73327E-3
3.07904E-3	115.718E-12	701.907E-3	-14.7031E-3	115.411E-12	665.503E-3	-17.2611E-3
3.07404E-3	116.059E-12	695.910E-3	-15.5690E-3	114.976E-12	661.853E-3	-21.8959E-3
3.06903E-3	116.691E-12	680.824E-3	-4.72696E-3	115.016E-12	675.209E-3	-9.87055E-3
3.06403E-3	116.877E-12	671.850E-3	11.2510E-3	115.002E-12	684.878E-3	-3.61321E-3
3.05903E-3	116.760E-12	679.568E-3	4.49145E-3	114.514E-12	683.176E-3	-5.81634E-3
3.05403E-3	115.852E-12	698.905E-3	-2.77881E-3	114.075E-12	689.808E-3	-11.0421E-3
3.04902E-3	116.186E-12	705.856E-3	-1.51127E-3	114.298E-12	700.307E-3	-16.4379E-3
3.04402E-3	115.557E-12	704.521E-3	4.45241E-3	114.832E-12	693.677E-3	-4.86767E-3
3.03902E-3	114.615E-12	721.217E-3	9.23747E-3	114.652E-12	676.866E-3	12.8803E-3
3.03402E-3	112.955E-12	728.030E-3	-6.75781E-3	114.573E-12	678.550E-3	2.43464E-3
3.02901E-3	112.763E-12	702.422E-3	-25.3725E-3	114.536E-12	697.766E-3	-19.2848E-3
3.02401E-3	112.322E-12	684.072E-3	-27.6863E-3	115.014E-12	713.862E-3	-31.0644E-3
3.01901E-3	112.038E-12	678.024E-3	-37.7434E-3	115.451E-12	719.903E-3	-34.4947E-3
3.01401E-3	110.597E-12	677.402E-3	-52.7045E-3	115.069E-12	721.102E-3	-19.2804E-3
3.00900E-3	110.242E-12	686.243E-3	-45.3177E-3	114.134E-12	709.086E-3	2.48211E-3
3.00400E-3	110.420E-12	675.801E-3	-32.2847E-3	114.282E-12	692.942E-3	17.4753E-3
2.99900E-3	110.981E-12	635.271E-3	-30.7473E-3	114.232E-12	693.474E-3	15.9175E-3
2.99400E-3	110.968E-12	622.364E-3	-22.0210E-3	114.405E-12	701.989E-3	-2.06212E-3
2.98899E-3	110.411E-12	649.790E-3	-14.3342E-3	113.425E-12	713.144E-3	-17.2678E-3
2.98399E-3	111.617E-12	658.383E-3	-12.1298E-3	112.330E-12	709.582E-3	-24.0213E-3
2.97899E-3	112.041E-12	652.740E-3	-532.470E-6	112.161E-12	686.132E-3	-23.7127E-3
2.97399E-3	112.907E-12	665.374E-3	5.73787E-3	111.806E-12	675.676E-3	-19.4813E-3
2.96898E-3	111.414E-12	679.466E-3	1.84806E-3	111.317E-12	678.853E-3	-23.4344E-3
2.96398E-3	111.646E-12	678.801E-3	-1.92924E-3	110.629E-12	682.815E-3	-25.0866E-3
2.95898E-3	111.421E-12	679.658E-3	-2.67260E-3	109.892E-12	698.590E-3	-22.5753E-3
2.95398E-3	110.906E-12	682.601E-3	-11.4146E-3	110.021E-12	704.921E-3	-34.4936E-3
2.94897E-3	110.051E-12	681.011E-3	-33.7755E-3	110.287E-12	685.211E-3	-43.1610E-3
2.94397E-3	109.448E-12	667.047E-3	-39.0640E-3	110.154E-12	672.804E-3	-39.1295E-3
2.93897E-3	109.139E-12	650.706E-3	-17.0218E-3	109.761E-12	682.875E-3	-37.3401E-3
2.93397E-3	108.226E-12	653.328E-3	-10.8891E-3	109.299E-12	695.616E-3	-20.7476E-3
2.92896E-3	107.435E-12	669.227E-3	-20.4090E-3	109.393E-12	709.589E-3	3.00195E-3
2.92396E-3	107.192E-12	673.730E-3	-19.9042E-3	109.332E-12	712.613E-3	1.21537E-3
2.91896E-3	107.179E-12	656.555E-3	-20.9027E-3	108.900E-12	696.211E-3	-3.88093E-3
2.91396E-3	107.214E-12	649.678E-3	-25.4350E-3	108.856E-12	692.348E-3	-11.6118E-3
2.90895E-3	106.225E-12	666.381E-3	-20.2976E-3	108.802E-12	688.186E-3	-22.0338E-3
2.90395E-3	106.891E-12	668.861E-3	-14.7760E-3	108.777E-12	671.012E-3	-20.6968E-3
2.89895E-3	106.717E-12	641.342E-3	-17.8746E-3	108.060E-12	669.622E-3	-33.2100E-3
2.89395E-3	107.957E-12	633.547E-3	-24.1591E-3	107.429E-12	679.424E-3	-41.6539E-3
2.88894E-3	106.908E-12	664.524E-3	-26.6622E-3	107.255E-12	691.998E-3	-29.4454E-3
2.88394E-3	107.573E-12	688.014E-3	-12.7862E-3	106.961E-12	693.540E-3	-16.9459E-3
2.87894E-3	107.255E-12	686.773E-3	-7.34895E-3	106.351E-12	676.838E-3	-5.83986E-3
2.87394E-3	107.897E-12	683.781E-3	-24.6678E-3	105.456E-12	675.065E-3	4.00517E-3
2.86893E-3	107.225E-12	687.913E-3	-30.5742E-3	105.115E-12	690.044E-3	7.36526E-3
2.86393E-3	107.145E-12	697.388E-3	-28.5173E-3	105.142E-12	705.531E-3	3.68268E-3
2.85893E-3	106.592E-12	701.547E-3	-29.8502E-3	104.915E-12	707.902E-3	2.72461E-3
2.85393E-3	106.414E-12	689.933E-3	-20.7273E-3	104.556E-12	686.262E-3	5.21123E-3
2.84892E-3	105.780E-12	679.770E-3	-17.8330E-3	104.634E-12	660.541E-3	-1.40539E-3
2.84392E-3	105.068E-12	676.610E-3	-24.3172E-3	104.499E-12	667.186E-3	-18.3130E-3
2.83892E-3	104.256E-12	677.496E-3	-33.6289E-3	104.106E-12	684.441E-3	-27.7224E-3
2.83392E-3	104.239E-12	685.293E-3	-37.9387E-3	103.645E-12	677.782E-3	-33.0682E-3
2.82891E-3	104.012E-12	690.505E-3	-17.6006E-3	103.439E-12	676.392E-3	-42.3402E-3
2.82391E-3	103.968E-12	677.464E-3	4.38279E-3	103.282E-12	684.414E-3	-39.7861E-3
2.81891E-3	103.841E-12	668.164E-3	6.17127E-3	103.022E-12	681.118E-3	-31.2667E-3
2.81391E-3	103.815E-12	680.239E-3	722.221E-6	102.951E-12	663.220E-3	-30.8190E-3
2.80890E-3	104.205E-12	688.486E-3	732.875E-6	102.927E-12	655.336E-3	-29.7701E-3
2.80390E-3	104.773E-12	701.586E-3	-290.658E-6	102.518E-12	668.723E-3	-27.5653E-3
2.79890E-3	103.934E-12	716.378E-3	-11.5327E-3	102.238E-12	669.872E-3	-27.4151E-3
2.79390E-3	103.399E-12	715.510E-3	-21.6356E-3	102.594E-12	656.535E-3	-23.8853E-3
2.78889E-3	103.401E-12	703.499E-3	-14.2728E-3	102.482E-12	671.699E-3	-31.2418E-3
2.78389E-3	104.156E-12	685.525E-3	7.51953E-3	101.921E-12	698.226E-3	-39.7660E-3
2.77889E-3	103.302E-12	688.629E-3	9.95247E-3	102.336E-12	695.358E-3	-28.1467E-3
2.77389E-3	102.027E-12	707.639E-3	-9.20798E-3	102.195E-12	692.205E-3	-18.9627E-3
2.76888E-3	101.583E-12	714.050E-3	-25.9509E-3	101.756E-12	694.512E-3	-27.1849E-3
2.76388E-3	101.345E-12	713.086E-3	-28.4185E-3	101.106E-12	686.438E-3	-32.5232E-3
2.75888E-3	101.397E-12	704.014E-3	-22.9788E-3	100.936E-12	682.015E-3	-24.3711E-3
2.75388E-3	100.934E-12	697.016E-3	-22.4508E-3	101.397E-12	684.178E-3	-11.0137E-3
2.74887E-3	100.255E-12	697.322E-3	-18.2295E-3	101.075E-12	692.713E-3	3.54998E-3
2.74387E-3	100.362E-12	690.366E-3	-16.1701E-3	100.424E-12	704.608E-3	20.3150E-3
2.73887E-3	100.431E-12	667.992E-3	-23.1675E-3	99.8952E-12	697.010E-3	18.4500E-3
2.73387E-3	100.418E-12	643.635E-3	-12.1649E-3	99.8529E-12	675.141E-3	-913.138E-6
2.72886E-3	99.6419E-12	652.781E-3	15.0394E-3	99.6351E-12	680.259E-3	3.82548E-3
2.72386E-3	100.010E-12	683.171E-3	24.4256E-3	99.8224E-12	705.970E-3	18.5906E-3
2.71886E-3	100.098E-12	701.139E-3	10.4775E-3	99.0496E-12	710.587E-3	14.7974E-3
2.71386E-3	99.4563E-12	704.622E-3	2.26439E-3	98.9932E-12	704.231E-3	14.0358E-3
2.70885E-3	99.3498E-12	693.969E-3	-2.82121E-3	99.3474E-12	692.405E-3	9.84158E-3
2.70385E-3	99.2354E-12	682.876E-3	-18.0775E-3	99.3251E-12	677.446E-3	-3.17334E-3
2.69885E-3	99.0040E-12	685.537E-3	-21.3705E-3	99.1138E-12	691.024E-3	-3.54064E-3
2.69385E-3	98.0624E-12	689.065E-3	-18.5768E-3	99.2309E-12	712.059E-3	-958.697E-6
2.68884E-3	97.5031E-12	682.083E-3	-16.1679E-3	99.4206E-12	703.093E-3	-7.61993E-3
2.68384E-3	97.1969E-12	676.342E-3	-5.00393E-3	99.3664E-12	695.598E-3	-22.7814E-3
2.67884E-3	96.5424E-12	681.034E-3	68.1675E-6	98.9255E-12	703.577E-3	-41.0658E-3
2.67384E-3	95.7993E-12	702.969E-3	-9.38172E-3	98.9540E-12	696.045E-3	-42.9345E-3
2.66883E-3	95.4258E-12	707.391E-3	-20.8095E-3	99.0049E-12	684.483E-3	-43.3697E-3
2.66383E-3	95.5015E-12	686.123E-3	-20.8380E-3	98.4414E-12	690.596E-3	-50.1340E-3
2.65883E-3	95.1404E-12	684.947E-3	-7.89009E-3	97.5842E-12	700.974E-3	-32.3505E-3
2.65383E-3	94.6241E-12	691.949E-3	4.32661E-3	97.1682E-12	705.657E-3	85.6500E-6
2.64882E-3	95.0356E-12	680.676E-3	2.30991E-3	96.5594E-12	704.099E-3	9.56503E-3
2.64382E-3	95.0525E-12	666.143E-3	-10.4016E-3	95.9918E-12	692.628E-3	-6.57582E-3
2.63882E-3	95.1169E-12	670.260E-3	-20.4059E-3	95.3914E-12	682.516E-3	-20.3586E-3
2.63382E-3	95.2524E-12	676.783E-3	-16.3438E-3	95.0899E-12	681.359E-3	-16.5036E-3
2.62881E-3	95.1153E-12	671.848E-3	-14.8100E-3	94.7118E-12	680.494E-3	-7.63594E-3
2.62381E-3	95.1037E-12	674.290E-3	-19.6777E-3	94.3257E-12	690.717E-3	-9.56716E-3
2.61881E-3	94.6872E-12	693.836E-3	-20.9601E-3	94.0267E-12	705.144E-3	-15.4557E-3
2.61381E-3	94.2817E-12	708.783E-3	-29.3944E-3	94.4077E-12	694.579E-3	-17.9203E-3
2.60880E-3	94.0160E-12	698.294E-3	-29.6415E-3	94.0713E-12	692.540E-3	-13.3870E-3
2.60380E-3	93.4201E-12	682.593E-3	-5.75843E-3	94.1244E-12	720.760E-3	-6.29427E-3
2.59880E-3	93.1700E-12	690.659E-3	6.18009E-3	94.8793E-12	728.086E-3	-13.5463E-3
2.59380E-3	92.6123E-12	710.144E-3	-18.6302E-3	95.4084E-12	710.999E-3	-22.4049E-3
2.58879E-3	92.1440E-12	716.655E-3	-40.2975E-3	95.1295E-12	712.295E-3	-18.0856E-3
2.58379E-3	91.7386E-12	711.928E-3	-32.9555E-3	94.6325E-12	730.953E-3	-9.11871E-3
2.57879E-3	91.4384E-12	706.226E-3	-11.8206E-3	94.4679E-12	731.853E-3	-5.57227E-3
2.57379E-3	91.3485E-12	704.250E-3	1.14124E-3	94.2788E-12	721.059E-3	-11.9458E-3
2.56878E-3	91.1049E-12	691.599E-3	-6.69182E-3	93.5200E-12	717.839E-3	-30.7860E-3
2.56378E-3	91.3047E-12	681.393E-3	-15.6640E-3	92.5096E-12	716.346E-3	-44.7702E-3
2.55878E-3	91.4419E-12	680.925E-3	-11.1473E-3	91.4539E-12	719.645E-3	-39.9055E-3
2.55378E-3	91.6273E-12	676.510E-3	-3.22447E-3	91.3828E-12	720.973E-3	-36.4321E-3
2.54877E-3	91.2748E-12	689.360E-3	1.64540E-3	91.2141E-12	711.412E-3	-31.5207E-3
2.54377E-3	91.2104E-12	712.245E-3	-1.25426E-3	90.5832E-12	705.932E-3	-18.8730E-3
2.53877E-3	90.9661E-12	716.609E-3	-8.08685E-3	89.5825E-12	707.616E-3	-17.7675E-3
2.53377E-3	91.0536E-12	702.294E-3	-3.00439E-3	89.3767E-12	693.146E-3	-23.8158E-3
2.52876E-3	90.7058E-12	688.693E-3	-1.76450E-3	89.3405E-12	675.530E-3	-18.2983E-3
2.52376E-3	90.0282E-12	695.352E-3	-12.3533E-3	89.2747E-12	684.611E-3	-6.68120E-3
2.51876E-3	89.7398E-12	719.926E-3	-18.7490E-3	89.0858E-12	701.201E-3	-7.65948E-3
2.51376E-3	89.3921E-12	735.155E-3	-18.0801E-3	89.0990E-12	699.594E-3	-11.9169E-3
2.50875E-3	89.1604E-12	726.697E-3	-22.7610E-3	89.3112E-12	703.602E-3	-13.4365E-3
2.50375E-3	88.7808E-12	712.335E-3	-27.7020E-3	89.4782E-12	714.639E-3	-25.0369E-3
2.49875E-3	87.7690E-12	705.390E-3	-15.6827E-3	89.8257E-12	719.100E-3	-15.3968E-3
2.49375E-3	87.8955E-12	701.206E-3	-11.9266E-3	89.4684E-12	725.778E-3	6.72838E-3
2.48874E-3	87.9048E-12	700.813E-3	-18.9618E-3	88.8159E-12	716.522E-3	-2.85260E-3
2.48374E-3	87.8804E-12	704.890E-3	-10.7605E-3	88.5840E-12	697.923E-3	-4.83953E-3
2.47874E-3	87.4780E-12	706.196E-3	1.56738E-3	88.1175E-12	696.215E-3	6.20335E-3
2.47374E-3	87.6501E-12	700.952E-3	211.739E-6	87.6268E-12	702.456E-3	-3.95462E-3
2.46873E-3	87.7114E-12	698.031E-3	-8.13533E-3	86.6149E-12	700.443E-3	-4.30974E-3
2.46373E-3	87.8069E-12	703.102E-3	-19.9474E-3	86.0750E-12	699.685E-3	5.31351E-3
2.45873E-3	87.6658E-12	713.660E-3	-37.4456E-3	86.0834E-12	706.416E-3	7.64627E-3
2.45373E-3	87.6023E-12	719.984E-3	-41.0899E-3	86.1467E-12	706.890E-3	13.5273E-3
2.44872E-3	87.3220E-12	713.998E-3	-29.8815E-3	85.2991E-12	707.906E-3	13.6465E-3
2.44372E-3	87.1032E-12	712.385E-3	-17.4712E-3	84.9552E-12	705.945E-3	14.4030E-3
2.43872E-3	86.3092E-12	726.270E-3	-6.31744E-3	85.5476E-12	697.667E-3	11.5333E-3
2.43372E-3	85.8694E-12	733.264E-3	-11.8112E-3	86.2716E-12	711.969E-3	-4.67018E-3
2.42871E-3	85.8478E-12	717.063E-3	-17.2130E-3	85.6673E-12	725.079E-3	-18.5241E-3
2.42371E-3	85.2914E-12	700.019E-3	-13.1846E-3	85.5132E-12	718.690E-3	-31.0369E-3
2.41871E-3	84.6484E-12	705.174E-3	-13.7916E-3	85.3274E-12	727.198E-3	-38.5986E-3
2.41371E-3	83.9904E-12	714.418E-3	-14.5109E-3	85.4324E-12	734.389E-3	-27.6897E-3
2.40870E-3	83.6471E-12	713.933E-3	-20.1716E-3	85.6704E-12	719.820E-3	-9.52798E-3
2.40370E-3	83.3043E-12	721.392E-3	-24.5484E-3	85.0043E-12	709.442E-3	-721.287E-6
2.39870E-3	83.3080E-12	721.944E-3	-25.3237E-3	84.6792E-12	712.242E-3	-3.68102E-3
2.39370E-3	82.8813E-12	710.752E-3	-27.9005E-3	84.7203E-12	716.179E-3	-13.8544E-3
2.38869E-3	83.2495E-12	713.164E-3	-27.5522E-3	84.7403E-12	723.161E-3	-22.7685E-3
2.38369E-3	82.8646E-12	718.872E-3	-16.0254E-3	84.0547E-12	733.915E-3	-28.1885E-3
2.37869E-3	83.0960E-12	711.166E-3	3.62925E-3	83.5903E-12	730.019E-3	-21.7276E-3
2.37369E-3	83.2975E-12	692.374E-3	7.08102E-3	83.3357E-12	724.511E-3	-7.53670E-3
2.36868E-3	83.6245E-12	686.491E-3	-7.04499E-3	82.9560E-12	737.253E-3	-4.46928E-3
2.36368E-3	83.1719E-12	705.632E-3	-15.6565E-3	82.8163E-12	744.541E-3	-9.82104E-3
2.35868E-3	82.4898E-12	714.497E-3	-17.8435E-3	82.5305E-12	735.879E-3	-7.46169E-3
2.35368E-3	82.0997E-12	703.938E-3	-11.2992E-3	82.4482E-12	724.220E-3	-2.43282E-3
2.34867E-3	82.2553E-12	714.445E-3	4.08885E-3	82.2529E-12	724.479E-3	-2.41091E-3
2.34367E-3	81.8306E-12	735.389E-3	5.18915E-3	82.4545E-12	741.166E-3	-9.99365E-3
2.33867E-3	81.0552E-12	740.480E-3	3.21025E-3	81.9343E-12	759.298E-3	-28.9841E-3
2.33367E-3	80.3704E-12	739.965E-3	3.38900E-3	81.8955E-12	761.286E-3	-32.1116E-3
2.32866E-3	80.4948E-12	730.382E-3	-1.95609E-3	81.4676E-12	762.741E-3	-20.9692E-3
2.32366E-3	79.8085E-12	728.964E-3	3.47464E-3	81.1948E-12	760.587E-3	-20.3027E-3
2.31866E-3	79.1859E-12	735.380E-3	10.6112E-3	80.7087E-12	746.727E-3	-29.1743E-3
2.31366E-3	78.7574E-12	727.021E-3	2.76242E-3	80.2832E-12	748.376E-3	-40.8853E-3
2.30865E-3	78.9079E-12	721.348E-3	-17.8222E-3	79.7735E-12	749.888E-3	-48.4482E-3
2.30365E-3	78.8353E-12	725.762E-3	-22.5202E-3	79.6199E-12	730.863E-3	-55.8163E-3
2.29865E-3	78.5418E-12	721.207E-3	-10.1712E-3	79.1824E-12	722.556E-3	-48.6404E-3
2.29365E-3	78.5421E-12	711.442E-3	-11.2111E-3	78.7511E-12	741.344E-3	-22.5126E-3
2.28864E-3	78.1709E-12	726.029E-3	-26.9070E-3	78.6736E-12	745.285E-3	-1.74425E-3
2.28364E-3	78.0526E-12	749.386E-3	-33.8150E-3	78.8785E-12	732.315E-3	10.2137E-3
2.27864E-3	77.9495E-12	752.961E-3	-30.8207E-3	78.5430E-12	732.190E-3	1.84256E-3
2.27364E-3	77.4157E-12	756.468E-3	-18.8322E-3	78.7826E-12	745.214E-3	-21.2830E-3
2.26863E-3	77.3990E-12	756.982E-3	2.28123E-3	78.0071E-12	762.925E-3	-18.3282E-3
2.26363E-3	77.1294E-12	736.346E-3	9.36666E-3	78.1695E-12	767.759E-3	4.62347E-3
2.25863E-3	77.2410E-12	723.262E-3	-7.75862E-3	78.1425E-12	759.965E-3	-2.13063E-3
2.25363E-3	76.4952E-12	727.772E-3	-17.1955E-3	78.0016E-12	760.586E-3	-26.8901E-3
2.24862E-3	76.2319E-12	728.704E-3	-2.84437E-3	77.6848E-12	766.894E-3	-32.3493E-3
2.24362E-3	76.2238E-12	729.746E-3	3.82492E-3	77.5731E-12	760.045E-3	-32.9435E-3
2.23862E-3	76.6638E-12	749.975E-3	-5.86588E-3	77.1522E-12	744.435E-3	-20.2941E-3
2.23362E-3	76.1995E-12	765.195E-3	-16.3314E-3	76.2685E-12	728.990E-3	15.4756E-3
2.22861E-3	75.5913E-12	757.204E-3	-25.6247E-3	75.9107E-12	714.784E-3	20.6528E-3
2.22361E-3	75.1457E-12	744.027E-3	-16.7961E-3	75.2608E-12	714.175E-3	-7.96100E-3
2.21861E-3	75.3266E-12	728.291E-3	1.75777E-3	74.7885E-12	741.291E-3	-21.4577E-3
2.21361E-3	75.4748E-12	738.507E-3	-1.32520E-3	73.9993E-12	763.491E-3	-21.0141E-3
2.20860E-3	74.7805E-12	766.705E-3	-15.7322E-3	73.7526E-12	753.297E-3	-18.7566E-3
2.20360E-3	74.0720E-12	765.189E-3	-33.7972E-3	73.6304E-12	745.286E-3	-19.6653E-3
2.19860E-3	73.9391E-12	749.784E-3	-30.5913E-3	73.2775E-12	756.118E-3	-34.7097E-3
2.19360E-3	74.8423E-12	741.878E-3	-6.59430E-3	72.8763E-12	769.202E-3	-35.8995E-3
2.18859E-3	74.7895E-12	738.615E-3	1.83699E-3	72.9082E-12	781.851E-3	-15.3331E-3
2.18359E-3	73.5644E-12	748.894E-3	-1.21311E-3	72.7042E-12	784.485E-3	-9.57946E-3
2.17859E-3	73.0289E-12	760.255E-3	-14.1426E-3	72.8004E-12	772.811E-3	-12.7300E-3
2.17359E-3	73.2252E-12	756.989E-3	-27.2595E-3	72.9429E-12	765.069E-3	-22.7140E-3
2.16858E-3	73.5252E-12	756.215E-3	-16.5903E-3	72.8883E-12	769.672E-3	-39.7027E-3
2.16358E-3	72.6911E-12	763.611E-3	8.93023E-3	72.8995E-12	779.503E-3	-29.1437E-3
2.15858E-3	72.3850E-12	766.029E-3	5.40013E-3	72.5561E-12	777.814E-3	2.97941E-3
2.15358E-3	72.1242E-12	759.220E-3	-24.1478E-3	72.5939E-12	760.143E-3	13.5345E-3
2.14857E-3	72.4581E-12	748.121E-3	-16.8675E-3	72.2604E-12	748.780E-3	-4.17246E-3
2.14357E-3	72.2781E-12	742.082E-3	10.9909E-3	71.6323E-12	749.778E-3	-17.5890E-3
2.13857E-3	71.5881E-12	754.368E-3	7.60343E-3	70.7421E-12	744.640E-3	-20.8267E-3
2.13357E-3	71.4083E-12	769.351E-3	-12.1268E-3	70.4156E-12	733.890E-3	-22.6555E-3
2.12856E-3	71.4465E-12	768.527E-3	-16.3587E-3	70.3380E-12	735.096E-3	-14.2565E-3
2.12356E-3	71.8600E-12	767.333E-3	-11.1514E-3	69.2733E-12	746.350E-3	-9.32533E-3
2.11856E-3	71.3257E-12	779.304E-3	-11.1495E-3	68.8444E-12	747.852E-3	-16.0891E-3
2.11356E-3	70.9853E-12	786.768E-3	-18.6018E-3	68.4068E-12	745.620E-3	-11.7132E-3
2.10855E-3	71.2051E-12	777.014E-3	-33.1803E-3	68.2708E-12	763.084E-3	-5.42317E-3
2.10355E-3	70.8959E-12	772.273E-3	-33.0664E-3	68.0013E-12	770.355E-3	-4.57619E-3
2.09855E-3	70.6309E-12	777.668E-3	-14.9104E-3	67.8110E-12	760.046E-3	-4.14997E-3
2.09355E-3	69.8517E-12	781.985E-3	-7.28310E-3	68.1596E-12	763.333E-3	-15.5969E-3
2.08854E-3	69.6738E-12	785.207E-3	-17.0981E-3	68.5330E-12	768.404E-3	-17.2093E-3
2.08354E-3	69.3723E-12	775.668E-3	-23.4606E-3	68.6247E-12	768.103E-3	-4.67937E-3
2.07854E-3	69.1079E-12	765.185E-3	-18.2572E-3	68.7179E-12	774.425E-3	5.79013E-6
2.07354E-3	68.2907E-12	766.082E-3	-10.8627E-3	68.6192E-12	776.741E-3	-4.72228E-3
2.06853E-3	67.7752E-12	764.554E-3	-7.14578E-3	68.4926E-12	778.553E-3	-6.32677E-3
2.06353E-3	67.5665E-12	772.138E-3	-8.84084E-3	68.2872E-12	789.668E-3	-946.149E-6
2.05853E-3	67.6322E-12	783.448E-3	-23.6721E-3	67.8223E-12	789.679E-3	1.54119E-3
2.05353E-3	67.0999E-12	787.437E-3	-27.4898E-3	67.3196E-12	780.024E-3	1.96163E-3
2.04852E-3	66.7214E-12	789.623E-3	-15.7597E-3	67.0286E-12	788.008E-3	-1.48670E-3
2.04352E-3	66.2971E-12	793.620E-3	-14.6825E-3	66.5344E-12	806.394E-3	-6.96948E-3
2.03852E-3	66.5085E-12	800.681E-3	-7.10446E-3	65.7463E-12	813.038E-3	-4.58607E-3
2.03352E-3	66.4989E-12	799.648E-3	6.40614E-3	65.4794E-12	804.962E-3	2.83860E-3
2.02851E-3	66.2967E-12	805.784E-3	3.28022E-3	65.4343E-12	799.296E-3	-2.74453E-3
2.02351E-3	65.8345E-12	810.408E-3	-5.18052E-3	64.9031E-12	799.754E-3	-19.4212E-3
2.01851E-3	65.3562E-12	788.035E-3	-3.51772E-3	64.8395E-12	801.061E-3	-30.1957E-3
2.01351E-3	65.5444E-12	779.218E-3	1.11210E-3	64.3903E-12	806.673E-3	-28.0024E-3
2.00850E-3	64.8085E-12	799.470E-3	-692.043E-6	64.5977E-12	801.722E-3	-13.0370E-3
2.00350E-3	64.5466E-12	805.327E-3	-16.5772E-3	64.3836E-12	794.845E-3	-5.47907E-3
1.99850E-3	63.6936E-12	791.284E-3	-27.2833E-3	64.2837E-12	812.748E-3	-16.3203E-3
1.99350E-3	63.8721E-12	786.748E-3	-6.03959E-3	64.2110E-12	840.561E-3	-29.3600E-3
1.98849E-3	63.4902E-12	794.267E-3	14.3659E-3	64.1666E-12	852.862E-3	-20.7843E-3
1.98349E-3	62.9712E-12	809.036E-3	-342.032E-6	64.2064E-12	843.025E-3	-1.11693E-3
1.97849E-3	62.2475E-12	813.385E-3	-16.4172E-3	63.8790E-12	823.335E-3	1.44519E-3
1.97349E-3	61.9446E-12	803.429E-3	-13.3704E-3	63.6973E-12	821.183E-3	-5.93014E-3
1.96848E-3	61.8125E-12	801.153E-3	-3.76438E-3	63.2438E-12	834.675E-3	-13.7692E-3
1.96348E-3	61.2231E-12	804.545E-3	3.59247E-3	62.9968E-12	833.750E-3	-21.5954E-3
1.95848E-3	60.7531E-12	800.883E-3	4.59173E-3	62.6580E-12	820.502E-3	-18.3301E-3
1.95348E-3	60.5967E-12	792.957E-3	-3.65716E-3	62.1457E-12	819.747E-3	-6.72405E-3
1.94847E-3	60.4488E-12	789.199E-3	-15.9311E-3	61.4785E-12	823.420E-3	-1.27196E-3
1.94347E-3	60.2154E-12	786.185E-3	-12.4657E-3	61.2031E-12	831.035E-3	-11.9830E-3
1.93847E-3	59.9972E-12	791.798E-3	-8.80449E-3	60.9848E-12	850.516E-3	-23.2932E-3
1.93347E-3	60.0027E-12	809.223E-3	-15.0199E-3	60.8284E-12	854.750E-3	-9.65182E-3
1.92846E-3	59.8511E-12	814.770E-3	-5.56008E-3	60.4852E-12	841.593E-3	5.92325E-3
1.92346E-3	59.9982E-12	804.862E-3	672.599E-6	59.9761E-12	840.123E-3	-10.0991E-3
1.91846E-3	59.8440E-12	806.089E-3	-1.09603E-3	59.6378E-12	848.025E-3	-37.2249E-3
1.91346E-3	59.7115E-12	824.187E-3	14.4277E-3	59.8902E-12	851.475E-3	-31.4933E-3
1.90845E-3	58.9080E-12	841.500E-3	15.2000E-3	59.6393E-12	852.214E-3	-5.14221E-3
1.90345E-3	58.7466E-12	846.226E-3	-4.13734E-3	58.9839E-12	854.663E-3	185.861E-6
1.89845E-3	58.3459E-12	838.066E-3	-11.2006E-3	58.6248E-12	857.984E-3	-6.62297E-3
1.89345E-3	58.2552E-12	828.620E-3	-13.8320E-3	58.6568E-12	864.538E-3	-8.12599E-3
1.88844E-3	57.6860E-12	838.428E-3	-12.0547E-3	58.4244E-12	865.779E-3	-16.9276E-3
1.88344E-3	57.2844E-12	859.145E-3	-10.1796E-3	57.8237E-12	861.060E-3	-29.1594E-3
1.87844E-3	57.2663E-12	862.620E-3	-25.4837E-3	57.3370E-12	863.351E-3	-37.7369E-3
1.87344E-3	56.8100E-12	850.957E-3	-44.2530E-3	57.0460E-12	865.502E-3	-32.6776E-3
1.86843E-3	56.4687E-12	847.341E-3	-39.4518E-3	56.7379E-12	868.365E-3	-10.4704E-3
1.86343E-3	55.7929E-12	855.773E-3	-19.2908E-3	56.1785E-12	869.363E-3	-2.01660E-3
1.85843E-3	55.7704E-12	855.955E-3	-12.7255E-3	55.6852E-12	858.367E-3	-11.5561E-3
1.85343E-3	55.4072E-12	845.864E-3	-23.0188E-3	55.5674E-12	848.405E-3	-10.1769E-3
1.84842E-3	55.3807E-12	833.508E-3	-35.7941E-3	55.2806E-12	855.327E-3	-9.39290E-3
1.84342E-3	55.0256E-12	838.844E-3	-37.3088E-3	54.9835E-12	862.716E-3	-25.0569E-3
1.83842E-3	54.8241E-12	861.612E-3	-17.8417E-3	54.6333E-12	868.479E-3	-20.6473E-3
1.83342E-3	55.1976E-12	868.243E-3	5.73574E-3	55.0766E-12	884.485E-3	2.96612E-3
1.82841E-3	55.1876E-12	872.414E-3	9.90209E-3	54.7973E-12	887.094E-3	-3.01379E-3
1.82341E-3	54.6684E-12	884.442E-3	2.28889E-3	54.5217E-12	873.739E-3	-24.3328E-3
1.81841E-3	54.1433E-12	881.159E-3	2.31575E-3	54.0257E-12	873.725E-3	-31.2064E-3
1.81341E-3	54.3508E-12	870.515E-3	10.3282E-3	53.9863E-12	895.459E-3	-30.1304E-3
1.80840E-3	54.5025E-12	874.052E-3	15.8792E-3	53.3285E-12	913.378E-3	-12.0458E-3
1.80340E-3	53.8661E-12	896.689E-3	1.39051E-3	52.9233E-12	909.015E-3	1.43102E-3
1.79840E-3	53.3494E-12	913.762E-3	-27.3047E-3	52.4318E-12	886.379E-3	-17.3944E-3
1.79340E-3	53.0421E-12	912.758E-3	-30.0463E-3	52.1482E-12	864.474E-3	-40.0077E-3
1.78839E-3	53.2921E-12	907.678E-3	-12.4754E-3	51.5037E-12	872.780E-3	-44.5894E-3
1.78339E-3	52.8283E-12	909.869E-3	-5.37703E-3	50.8578E-12	894.641E-3	-40.8080E-3
1.77839E-3	52.1768E-12	922.537E-3	-6.13022E-3	50.7287E-12	904.475E-3	-35.1360E-3
1.77339E-3	51.4714E-12	920.954E-3	-9.38002E-3	50.6007E-12	913.947E-3	-14.3434E-3
1.76838E-3	51.3920E-12	907.221E-3	-10.4985E-3	50.3312E-12	926.673E-3	1.10047E-3
1.76338E-3	51.4355E-12	909.321E-3	-6.28418E-3	50.0269E-12	940.427E-3	-6.24484E-3
1.75838E-3	50.8335E-12	918.207E-3	-2.11581E-3	50.0800E-12	953.671E-3	-6.12664E-3
1.75338E-3	50.1555E-12	919.859E-3	-6.77543E-3	50.0623E-12	953.316E-3	5.08679E-3
1.74837E-3	49.5841E-12	924.009E-3	-26.4828E-3	49.8446E-12	948.070E-3	3.63927E-3
1.74337E-3	49.9277E-12	924.370E-3	-38.2113E-3	49.7835E-12	959.450E-3	-2.30765E-3
1.73837E-3	49.7726E-12	907.543E-3	-35.4703E-3	49.6832E-12	977.285E-3	-1.71028E-3
1.73337E-3	49.1742E-12	903.753E-3	-37.0111E-3	49.6806E-12	983.898E-3	-3.75915E-3
1.72836E-3	48.7116E-12	927.397E-3	-39.6663E-3	49.2480E-12	978.706E-3	-7.89971E-3
1.72336E-3	48.3947E-12	936.178E-3	-41.2222E-3	48.9017E-12	970.569E-3	-16.5984E-3
1.71836E-3	48.3375E-12	923.957E-3	-42.3806E-3	48.4394E-12	966.803E-3	-29.7153E-3
1.71336E-3	47.7401E-12	927.052E-3	-31.9441E-3	47.9217E-12	965.670E-3	-26.4736E-3
1.70835E-3	47.2618E-12	947.553E-3	-17.9273E-3	47.2939E-12	969.536E-3	-14.8056E-3
1.70335E-3	46.6584E-12	964.837E-3	-8.78878E-3	46.8845E-12	972.506E-3	-17.8062E-3
1.69835E-3	46.7080E-12	964.174E-3	-4.91666E-3	46.3350E-12	962.433E-3	-19.4037E-3
1.69335E-3	46.6614E-12	962.363E-3	-13.9805E-3	45.7000E-12	952.114E-3	-18.8011E-3
1.68834E-3	46.0533E-12	978.159E-3	-15.6259E-3	45.1230E-12	968.045E-3	-30.7589E-3
1.68334E-3	45.4643E-12	985.951E-3	-3.55144E-3	44.8045E-12	989.347E-3	-35.9533E-3
1.67834E-3	45.4461E-12	992.169E-3	-2.29498E-3	44.6734E-12	997.596E-3	-28.7715E-3
1.67334E-3	45.3667E-12	1.00692E+0	-11.6728E-3	44.5091E-12	1.00745E+0	-23.3696E-3
1.66833E-3	44.7396E-12	1.00127E+0	-24.7713E-3	44.2178E-12	1.01836E+0	-20.8606E-3
1.66333E-3	44.2243E-12	988.588E-3	-35.3328E-3	44.2828E-12	1.02866E+0	-20.5112E-3
1.65833E-3	43.7313E-12	985.967E-3	-29.4092E-3	44.3935E-12	1.03250E+0	-23.5768E-3
1.65333E-3	43.8277E-12	992.332E-3	-11.5604E-3	44.1075E-12	1.02874E+0	-26.7234E-3
1.64832E-3	43.2197E-12	1.00330E+0	-2.25126E-3	43.7014E-12	1.03211E+0	-20.2800E-3
1.64332E-3	42.5558E-12	1.00971E+0	-22.1692E-3	43.7081E-12	1.04049E+0	-12.5496E-3
1.63832E-3	42.0868E-12	1.01166E+0	-32.1262E-3	43.4242E-12	1.03634E+0	-10.1687E-3
1.63332E-3	41.9035E-12	994.176E-3	63.4415E-6	42.9838E-12	1.02953E+0	-10.9632E-3
1.62831E-3	41.5177E-12	974.516E-3	13.6750E-3	42.2446E-12	1.03406E+0	-21.8779E-3
1.62331E-3	40.8096E-12	989.952E-3	-8.07277E-3	42.0032E-12	1.03916E+0	-30.2913E-3
1.61831E-3	40.4878E-12	1.01246E+0	-20.4207E-3	41.4050E-12	1.04360E+0	-19.0579E-3
1.61331E-3	40.2648E-12	1.01504E+0	-13.4185E-3	40.6543E-12	1.04025E+0	-10.3209E-3
1.60830E-3	40.1829E-12	1.01498E+0	-5.96532E-3	39.8964E-12	1.03746E+0	-11.8002E-3
1.60330E-3	39.5959E-12	1.02205E+0	-3.93413E-3	39.5253E-12	1.04796E+0	-11.5082E-3
1.59830E-3	39.6108E-12	1.02972E+0	-10.6280E-3	39.1113E-12	1.05195E+0	-13.1658E-3
1.59330E-3	39.4237E-12	1.03432E+0	-14.7072E-3	38.6554E-12	1.04826E+0	-10.6666E-3
1.58829E-3	39.1582E-12	1.03258E+0	-1.24792E-3	38.3340E-12	1.06098E+0	-4.92242E-3
1.58329E-3	38.7388E-12	1.03186E+0	12.4992E-3	38.2074E-12	1.08675E+0	-2.54340E-3
1.57829E-3	38.4921E-12	1.05088E+0	799.517E-6	37.9395E-12	1.10026E+0	-4.27189E-3
1.57329E-3	38.3634E-12	1.07517E+0	-22.8894E-3	37.7265E-12	1.10466E+0	-14.5711E-3
1.56828E-3	38.0198E-12	1.08066E+0	-29.5553E-3	37.7668E-12	1.11692E+0	-28.2727E-3
1.56328E-3	37.5166E-12	1.08232E+0	-22.3539E-3	37.4237E-12	1.13130E+0	-29.6161E-3
1.55828E-3	37.0139E-12	1.08723E+0	-17.3574E-3	36.9612E-12	1.13113E+0	-14.0136E-3
1.55328E-3	36.6484E-12	1.09046E+0	-27.0632E-3	36.5494E-12	1.12667E+0	-4.01757E-3
1.54827E-3	36.0904E-12	1.10100E+0	-41.8006E-3	36.5659E-12	1.12823E+0	-14.0434E-3
1.54327E-3	35.8586E-12	1.10008E+0	-36.9081E-3	36.2223E-12	1.12802E+0	-24.3686E-3
1.53827E-3	35.5492E-12	1.08220E+0	-21.4072E-3	35.5137E-12	1.12136E+0	-21.8355E-3
1.53327E-3	35.0782E-12	1.08086E+0	-10.7901E-3	34.9171E-12	1.10622E+0	-14.2275E-3
1.52826E-3	34.6715E-12	1.09587E+0	-2.32066E-3	34.6692E-12	1.09231E+0	-11.6411E-3
1.52326E-3	34.1026E-12	1.10196E+0	-6.32183E-3	34.3911E-12	1.10176E+0	-13.6199E-3
1.51826E-3	33.9317E-12	1.09970E+0	-20.0442E-3	33.6392E-12	1.11886E+0	-10.6898E-3
1.51326E-3	33.6182E-12	1.09366E+0	-24.7359E-3	33.0246E-12	1.12605E+0	-3.26146E-3
1.50825E-3	33.1481E-12	1.09067E+0	-26.7085E-3	32.7857E-12	1.13583E+0	3.49702E-3
1.50325E-3	32.7847E-12	1.10147E+0	-20.6856E-3	32.6581E-12	1.13690E+0	651.602E-6
1.49825E-3	32.6275E-12	1.12029E+0	-3.41534E-3	32.1748E-12	1.13037E+0	-5.59444E-3
1.49325E-3	32.4601E-12	1.13280E+0	-2.19885E-3	31.6137E-12	1.13226E+0	-424.229E-6
1.48824E-3	31.7921E-12	1.13657E+0	-18.5286E-3	31.5666E-12	1.13277E+0	-1.26159E-3
1.48324E-3	31.5588E-12	1.14569E+0	-24.5845E-3	31.4749E-12	1.12741E+0	-15.8806E-3
1.47824E-3	31.2495E-12	1.15102E+0	-23.3443E-3	31.0744E-12	1.12889E+0	-25.7287E-3
1.47324E-3	31.0425E-12	1.15354E+0	-30.8453E-3	30.3519E-12	1.13435E+0	-28.8085E-3
1.46823E-3	30.5611E-12	1.15742E+0	-29.7775E-3	30.0460E-12	1.12311E+0	-17.9134E-3
1.46323E-3	30.0014E-12	1.14444E+0	-15.2562E-3	29.8655E-12	1.11269E+0	-6.89965E-3
1.45823E-3	29.4682E-12	1.13829E+0	-16.7337E-3	29.6244E-12	1.12240E+0	-18.1580E-3
1.45323E-3	28.9476E-12	1.14360E+0	-25.7061E-3	28.9767E-12	1.12819E+0	-27.4491E-3
1.44822E-3	28.7847E-12	1.13282E+0	-24.5476E-3	28.4840E-12	1.12301E+0	-24.6871E-3
1.44322E-3	28.2476E-12	1.13118E+0	-21.7237E-3	28.1732E-12	1.11186E+0	-27.0315E-3
1.43822E-3	27.6685E-12	1.14738E+0	-20.3897E-3	27.9761E-12	1.10142E+0	-19.2243E-3
1.43322E-3	27.2419E-12	1.13731E+0	-18.6134E-3	27.7731E-12	1.11314E+0	4.46686E-3
1.42821E-3	27.1038E-12	1.10936E+0	-10.8593E-3	27.3151E-12	1.13477E+0	7.67258E-3
1.42321E-3	26.8113E-12	1.10624E+0	1.62039E-3	26.7646E-12	1.13641E+0	-7.98661E-3
1.41821E-3	26.2358E-12	1.11516E+0	-1.58314E-3	26.4919E-12	1.12672E+0	-8.26461E-3
1.41321E-3	25.6550E-12	1.11609E+0	-26.9907E-3	26.3438E-12	1.11129E+0	-12.5739E-3
1.40820E-3	25.4983E-12	1.11553E+0	-32.3347E-3	26.0685E-12	1.10060E+0	-35.4190E-3
1.40320E-3	25.5363E-12	1.10570E+0	-9.70587E-3	25.6460E-12	1.10650E+0	-39.7569E-3
1.39820E-3	25.0050E-12	1.09944E+0	-7.63519E-3	25.2916E-12	1.10816E+0	-28.2908E-3
1.39320E-3	24.3512E-12	1.10339E+0	-25.3889E-3	25.0254E-12	1.09351E+0	-30.9846E-3
1.38819E-3	24.2121E-12	1.09724E+0	-28.4955E-3	24.7590E-12	1.07163E+0	-22.8281E-3
1.38319E-3	24.3960E-12	1.08891E+0	-21.5656E-3	24.0452E-12	1.05630E+0	-6.77984E-3
1.37819E-3	23.8795E-12	1.08466E+0	-18.4003E-3	23.4150E-12	1.04882E+0	-16.4907E-3
1.37319E-3	23.2055E-12	1.08032E+0	-20.0976E-3	23.2473E-12	1.05103E+0	-33.8467E-3
1.36818E-3	22.7267E-12	1.07766E+0	-23.3728E-3	22.9333E-12	1.05535E+0	-42.3710E-3
1.36318E-3	22.5989E-12	1.07299E+0	-25.5565E-3	22.2076E-12	1.03953E+0	-46.7657E-3
1.35818E-3	22.1953E-12	1.05775E+0	-27.0202E-3	21.7092E-12	1.01357E+0	-30.2918E-3
1.35318E-3	21.5427E-12	1.04553E+0	-25.6988E-3	21.6489E-12	1.00752E+0	-4.20534E-3
1.34817E-3	21.0625E-12	1.04528E+0	-24.7973E-3	21.4745E-12	1.01176E+0	-5.29053E-3
1.34317E-3	20.9512E-12	1.03395E+0	-25.1191E-3	20.9412E-12	998.903E-3	-14.9353E-3
1.33817E-3	20.7250E-12	1.01041E+0	-29.2189E-3	20.6279E-12	987.366E-3	-21.2248E-3
1.33317E-3	20.0900E-12	994.622E-3	-27.4156E-3	20.5687E-12	988.552E-3	-21.5385E-3
1.32816E-3	19.9792E-12	984.015E-3	-9.92867E-3	20.4556E-12	983.639E-3	-9.55348E-3
1.32316E-3	19.8052E-12	967.539E-3	-6.94990E-3	19.9790E-12	976.524E-3	-5.90028E-3
1.31816E-3	19.4613E-12	949.767E-3	-24.0621E-3	19.6480E-12	967.385E-3	-9.51061E-3
1.31316E-3	18.9940E-12	939.622E-3	-21.6198E-3	19.8050E-12	946.847E-3	-9.98636E-3
1.30815E-3	18.7552E-12	942.128E-3	-14.8379E-3	19.4223E-12	926.630E-3	-14.5333E-3
1.30315E-3	18.6440E-12	940.217E-3	-28.2161E-3	18.9520E-12	908.840E-3	-20.2870E-3
1.29815E-3	18.2322E-12	931.927E-3	-27.8330E-3	18.5663E-12	892.218E-3	-21.5942E-3
1.29315E-3	17.9554E-12	926.069E-3	-23.8140E-3	18.3413E-12	883.553E-3	-19.4415E-3
1.28814E-3	17.6679E-12	910.189E-3	-27.8216E-3	17.9308E-12	874.141E-3	-11.8690E-3
1.28314E-3	17.4497E-12	893.325E-3	-19.5316E-3	17.3436E-12	850.589E-3	-5.04494E-3
1.27814E-3	17.0715E-12	882.517E-3	-5.03071E-3	17.0044E-12	820.320E-3	-1.41969E-3
1.27314E-3	16.6638E-12	877.412E-3	-4.58467E-3	16.6978E-12	799.102E-3	-1.91373E-3
1.26813E-3	16.4514E-12	876.864E-3	-17.9958E-3	16.2836E-12	780.577E-3	-1.78252E-3
1.26313E-3	16.1984E-12	860.445E-3	-16.4746E-3	15.8763E-12	769.768E-3	3.99455E-3
1.25813E-3	15.8243E-12	835.341E-3	-8.53375E-3	15.5969E-12	767.553E-3	-10.0019E-3
1.25313E-3	15.5600E-12	817.357E-3	-5.48241E-3	15.4867E-12	753.803E-3	-31.8434E-3
1.24812E-3	15.5830E-12	798.447E-3	779.210E-6	15.0979E-12	738.192E-3	-20.6756E-3
1.24312E-3	15.0912E-12	782.455E-3	-10.4391E-3	15.0678E-12	736.579E-3	-320.277E-6
1.23812E-3	14.6807E-12	768.769E-3	-30.5939E-3	14.8575E-12	728.745E-3	-156.756E-6
1.23312E-3	14.5316E-12	748.095E-3	-28.6770E-3	14.8606E-12	704.570E-3	-6.02322E-3
1.22811E-3	14.6099E-12	724.000E-3	-8.75532E-3	14.5147E-12	677.788E-3	-11.8125E-3
1.22311E-3	14.2296E-12	713.646E-3	4.03138E-3	14.4322E-12	653.127E-3	-15.8481E-3
1.21811E-3	13.7410E-12	722.232E-3	76.8520E-6	14.3243E-12	647.540E-3	-9.77570E-3
1.21311E-3	13.6880E-12	720.282E-3	-9.92727E-3	14.0005E-12	652.607E-3	-7.24903E-3
1.20810E-3	13.6929E-12	702.462E-3	-17.7678E-3	13.9011E-12	623.755E-3	-16.3502E-3
1.20310E-3	13.4550E-12	682.539E-3	-11.2555E-3	13.5652E-12	584.702E-3	-25.9735E-3
1.19810E-3	13.1384E-12	678.334E-3	7.98109E-3	13.4218E-12	574.199E-3	-28.0383E-3
1.19310E-3	12.9296E-12	674.694E-3	13.8338E-3	12.9666E-12	566.667E-3	-21.1866E-3
1.18809E-3	12.7938E-12	640.453E-3	-6.36407E-3	12.8365E-12	552.964E-3	-12.6236E-3
1.18309E-3	12.6079E-12	601.351E-3	-26.5836E-3	12.5152E-12	544.732E-3	-17.9689E-3
1.17809E-3	12.4055E-12	581.746E-3	-18.0510E-3	12.3118E-12	525.689E-3	-31.9435E-3
1.17309E-3	12.2186E-12	573.468E-3	5.10909E-3	12.0312E-12	497.665E-3	-24.6310E-3
1.16808E-3	12.0459E-12	569.099E-3	9.08249E-3	11.7198E-12	484.235E-3	-8.98941E-3
1.16308E-3	11.8173E-12	564.684E-3	-1.90891E-3	11.6951E-12	473.172E-3	-8.94487E-3
1.15808E-3	11.6371E-12	547.917E-3	-11.3957E-3	11.5137E-12	459.308E-3	-15.7612E-3
1.15308E-3	11.5926E-12	520.637E-3	-21.9303E-3	11.3122E-12	458.342E-3	-26.2670E-3
1.14807E-3	11.3670E-12	505.466E-3	-27.0792E-3	11.0510E-12	456.541E-3	-33.2988E-3
1.14307E-3	11.0919E-12	494.514E-3	-17.5012E-3	10.9826E-12	441.468E-3	-26.0590E-3
1.13807E-3	10.9510E-12	469.956E-3	-9.40440E-3	11.0578E-12	429.572E-3	-24.7837E-3
1.13307E-3	10.9069E-12	454.553E-3	-5.68857E-3	10.7644E-12	423.101E-3	-35.5105E-3
1.12806E-3	10.7241E-12	456.111E-3	4.33535E-3	10.5151E-12	410.596E-3	-30.3870E-3
1.12306E-3	10.5562E-12	445.142E-3	3.53232E-3	10.4641E-12	395.125E-3	-11.8314E-3
1.11806E-3	10.4534E-12	420.899E-3	-9.07676E-3	10.4415E-12	379.265E-3	-11.4979E-3
1.11306E-3	10.2984E-12	413.611E-3	-9.82013E-3	10.1098E-12	359.718E-3	-17.1152E-3
1.10805E-3	10.0129E-12	410.221E-3	-913.461E-6	9.90529E-12	348.196E-3	-5.62886E-3
1.10305E-3	9.80068E-12	399.123E-3	-1.46105E-3	9.81907E-12	348.694E-3	-6.15207E-3
1.09805E-3	9.77914E-12	381.027E-3	-6.34545E-3	9.87596E-12	340.339E-3	-19.4321E-3
1.09305E-3	9.78529E-12	344.128E-3	-12.4624E-3	9.71530E-12	325.722E-3	-17.3605E-3
1.08804E-3	9.57782E-12	319.890E-3	-28.6071E-3	9.47640E-12	316.409E-3	-15.6988E-3
1.08304E-3	9.31383E-12	319.339E-3	-31.3100E-3	9.46845E-12	295.104E-3	-19.6539E-3
1.07804E-3	9.46774E-12	320.425E-3	-13.7465E-3	9.41102E-12	269.832E-3	-10.8260E-3
1.07304E-3	9.42230E-12	315.821E-3	-5.56160E-3	9.30368E-12	258.642E-3	-6.73560E-3
1.06803E-3	9.17526E-12	310.666E-3	-335.998E-6	9.06206E-12	256.530E-3	-18.6501E-3
1.06303E-3	9.07228E-12	310.936E-3	-460.222E-6	9.01924E-12	261.121E-3	-15.0419E-3
1.05803E-3	9.13081E-12	303.623E-3	-17.5477E-3	9.05529E-12	257.437E-3	-9.43092E-3
1.05303E-3	9.14420E-12	283.446E-3	-24.1478E-3	8.89109E-12	234.521E-3	-21.6836E-3
1.04802E-3	8.91925E-12	268.341E-3	-19.6249E-3	8.90740E-12	213.277E-3	-28.3112E-3
1.04302E-3	8.87619E-12	267.447E-3	-24.2618E-3	9.03054E-12	205.877E-3	-36.8017E-3
1.03802E-3	8.82826E-12	270.693E-3	-30.4655E-3	8.74095E-12	198.912E-3	-39.4311E-3
1.03302E-3	8.87331E-12	266.274E-3	-28.0931E-3	8.42030E-12	193.574E-3	-23.4887E-3
1.02801E-3	8.61241E-12	245.504E-3	-29.2427E-3	8.42426E-12	197.306E-3	-17.6871E-3
1.02301E-3	8.30459E-12	222.625E-3	-26.0833E-3	8.33839E-12	187.156E-3	-25.1614E-3
1.01801E-3	8.24691E-12	210.644E-3	-8.17422E-3	8.12236E-12	176.126E-3	-21.1333E-3
1.01301E-3	8.27210E-12	205.674E-3	-1.61889E-3	8.01004E-12	190.495E-3	-14.7513E-3
1.00800E-3	8.14686E-12	210.225E-3	-9.21217E-3	8.04479E-12	183.894E-3	-22.3040E-3
1.00300E-3	8.02018E-12	205.494E-3	-14.7914E-3	8.01886E-12	147.728E-3	-26.5052E-3
997.999E-6	7.91344E-12	182.197E-3	-15.1805E-3	7.97530E-12	134.254E-3	-21.7747E-3
992.997E-6	7.73954E-12	170.220E-3	-19.6980E-3	7.92819E-12	143.637E-3	-17.8644E-3
987.994E-6	7.80670E-12	172.818E-3	-30.3717E-3	7.79842E-12	152.000E-3	-11.4163E-3
982.991E-6	7.83991E-12	171.558E-3	-24.9189E-3	7.96704E-12	152.634E-3	-6.31420E-3
977.989E-6	7.79127E-12	164.424E-3	-4.69010E-3	7.84864E-12	142.064E-3	-18.2804E-3
972.986E-6	7.66918E-12	152.860E-3	-1.85529E-3	7.65832E-12	129.003E-3	-31.5390E-3
967.984E-6	7.64302E-12	147.077E-3	-16.7080E-3	7.67825E-12	125.107E-3	-28.3493E-3
962.981E-6	7.66861E-12	152.293E-3	-25.7019E-3	7.74154E-12	125.742E-3	-26.0205E-3
957.979E-6	7.63109E-12	152.328E-3	-26.6359E-3	7.57006E-12	118.760E-3	-28.2632E-3
952.976E-6	7.50208E-12	143.582E-3	-30.2581E-3	7.39592E-12	112.467E-3	-26.9810E-3
947.974E-6	7.33142E-12	136.718E-3	-33.3473E-3	7.46969E-12	116.074E-3	-34.7395E-3
942.971E-6	7.34222E-12	121.985E-3	-23.4683E-3	7.42266E-12	110.913E-3	-50.9312E-3
937.969E-6	7.33863E-12	110.018E-3	-5.56317E-3	7.30898E-12	103.752E-3	-47.3788E-3
932.966E-6	7.23510E-12	116.081E-3	1.00539E-3	7.25496E-12	107.592E-3	-30.8005E-3
927.964E-6	7.08682E-12	116.497E-3	-5.63618E-3	7.12367E-12	102.486E-3	-17.6160E-3
922.961E-6	7.13112E-12	104.973E-3	-17.2203E-3	7.09764E-12	89.5709E-3	-2.32890E-3
917.959E-6	7.06531E-12	101.329E-3	-15.9545E-3	7.19995E-12	84.6773E-3	664.080E-6
912.956E-6	7.08302E-12	104.384E-3	-1.34818E-3	7.23825E-12	83.5305E-3	-8.25515E-3
907.954E-6	7.01738E-12	107.547E-3	-6.13537E-3	7.07569E-12	91.4246E-3	-2.28298E-3
902.951E-6	6.97790E-12	115.422E-3	-26.0434E-3	7.05775E-12	92.5662E-3	9.05461E-3
897.949E-6	6.99420E-12	115.879E-3	-32.7522E-3	7.03423E-12	78.8231E-3	1.91298E-3
892.946E-6	7.05441E-12	103.775E-3	-22.4507E-3	7.05679E-12	85.4181E-3	-1.43018E-3
887.944E-6	7.02379E-12	99.9029E-3	-17.6358E-3	7.16982E-12	97.8267E-3	2.47428E-3
882.941E-6	6.86214E-12	106.190E-3	-19.3795E-3	7.05521E-12	89.9023E-3	-5.19226E-3
877.939E-6	6.91920E-12	101.758E-3	-13.6755E-3	6.92965E-12	83.3048E-3	-7.97338E-3
872.936E-6	6.92260E-12	88.1543E-3	-18.6444E-3	7.01935E-12	86.9989E-3	-7.24616E-3
867.934E-6	6.95399E-12	80.5574E-3	-22.8768E-3	7.03216E-12	82.6817E-3	-16.4457E-3
862.931E-6	6.88102E-12	69.2431E-3	-10.5080E-3	6.81597E-12	72.8356E-3	-27.4965E-3
857.929E-6	6.80998E-12	65.2064E-3	-10.9156E-3	6.69011E-12	72.3580E-3	-39.3116E-3
852.926E-6	6.81426E-12	87.5142E-3	-22.0024E-3	6.77262E-12	67.1990E-3	-44.4950E-3
847.924E-6	6.85488E-12	92.8353E-3	-19.7293E-3	6.83157E-12	62.0340E-3	-32.8310E-3
842.921E-6	6.83294E-12	71.2671E-3	-10.7807E-3	6.65810E-12	68.5573E-3	-16.1142E-3
837.919E-6	6.68783E-12	67.2860E-3	-9.28852E-3	6.50312E-12	69.4515E-3	-11.4930E-3
832.916E-6	6.64100E-12	74.5342E-3	-11.3169E-3	6.52764E-12	60.7555E-3	-7.35970E-3
827.914E-6	6.68459E-12	75.7251E-3	-18.5932E-3	6.55810E-12	59.0524E-3	9.53489E-3
822.911E-6	6.80002E-12	78.9038E-3	-23.6839E-3	6.46922E-12	64.1991E-3	2.65396E-3
817.909E-6	6.67155E-12	75.0561E-3	-17.3750E-3	6.40678E-12	64.7134E-3	-18.8278E-3
812.906E-6	6.54775E-12	71.5919E-3	-17.6541E-3	6.46559E-12	69.5217E-3	-19.9314E-3
807.904E-6	6.55734E-12	86.6357E-3	-18.2829E-3	6.49031E-12	74.6030E-3	-21.9269E-3
802.901E-6	6.61963E-12	95.5534E-3	-7.84214E-3	6.46467E-12	63.6264E-3	-18.7072E-3
797.899E-6	6.42887E-12	86.9157E-3	-8.19937E-3	6.42272E-12	59.3089E-3	-5.75494E-3
792.896E-6	6.26082E-12	77.8192E-3	-16.4707E-3	6.32713E-12	77.0644E-3	-12.7349E-3
787.894E-6	6.38818E-12	69.4527E-3	-10.9185E-3	6.39390E-12	89.6824E-3	-23.1398E-3
782.891E-6	6.49862E-12	67.0169E-3	-4.35368E-3	6.46777E-12	91.8551E-3	-15.7769E-3
777.889E-6	6.44475E-12	74.1634E-3	-3.73206E-3	6.31164E-12	87.2689E-3	-10.2588E-3
772.886E-6	6.23497E-12	74.7309E-3	131.889E-6	6.22607E-12	78.7263E-3	-9.01637E-3
767.884E-6	6.29774E-12	70.4362E-3	-4.74440E-3	6.24368E-12	86.9034E-3	-7.95026E-3
762.881E-6	6.37670E-12	70.4355E-3	-14.4211E-3	6.27854E-12	100.906E-3	-12.3023E-3
757.879E-6	6.38978E-12	73.4652E-3	-9.64605E-3	6.18118E-12	94.8530E-3	-12.6417E-3
752.876E-6	6.34430E-12	76.1359E-3	-4.72913E-3	6.08527E-12	75.0961E-3	-4.27478E-3
747.874E-6	6.25948E-12	73.5224E-3	-14.3148E-3	6.08262E-12	57.1644E-3	-2.16484E-3
742.871E-6	6.26105E-12	68.6496E-3	-19.5008E-3	6.08165E-12	49.9462E-3	-9.12319E-3
737.869E-6	6.33211E-12	67.0898E-3	-14.4836E-3	6.01756E-12	63.7480E-3	-14.6192E-3
732.866E-6	6.41235E-12	76.0695E-3	-10.7086E-3	6.02621E-12	85.5120E-3	-25.7005E-3
727.864E-6	6.27474E-12	84.1665E-3	-10.8338E-3	5.99913E-12	87.5937E-3	-30.7330E-3
722.861E-6	6.22878E-12	82.4440E-3	-13.8323E-3	5.95391E-12	75.4744E-3	-17.0878E-3
717.859E-6	6.19331E-12	86.3905E-3	-20.8786E-3	5.93836E-12	78.1656E-3	-11.6525E-3
712.856E-6	6.29801E-12	89.6667E-3	-24.0815E-3	5.89222E-12	86.1736E-3	-21.1185E-3
707.854E-6	6.36306E-12	78.3254E-3	-6.51571E-3	5.84938E-12	79.3552E-3	-20.9223E-3
702.851E-6	6.08785E-12	76.1127E-3	6.34302E-3	5.92126E-12	74.9404E-3	-4.03597E-3
697.849E-6	6.04081E-12	95.6509E-3	-3.21271E-3	5.92350E-12	77.9729E-3	10.5971E-3
692.846E-6	6.07606E-12	108.167E-3	-11.5955E-3	5.83159E-12	82.6907E-3	431.370E-6
687.844E-6	6.08486E-12	99.6374E-3	-17.9818E-3	5.74552E-12	98.5283E-3	-21.4609E-3
682.841E-6	5.94903E-12	90.8841E-3	-21.1925E-3	5.72149E-12	116.353E-3	-24.4770E-3
677.839E-6	5.80830E-12	88.6025E-3	-14.4900E-3	5.84039E-12	107.104E-3	-14.4246E-3
672.836E-6	5.86870E-12	93.8608E-3	-9.76904E-3	5.76705E-12	92.6550E-3	-18.2063E-3
667.834E-6	5.90120E-12	111.849E-3	-5.83033E-3	5.60934E-12	100.325E-3	-26.2520E-3
662.831E-6	5.76827E-12	115.313E-3	1.17523E-3	5.54396E-12	110.353E-3	-18.6546E-3
657.829E-6	5.63438E-12	108.788E-3	858.277E-6	5.53004E-12	116.681E-3	-10.7912E-3
652.826E-6	5.73382E-12	113.391E-3	-8.35823E-3	5.46416E-12	115.362E-3	-12.9106E-3
647.824E-6	5.66566E-12	105.261E-3	-16.9536E-3	5.42458E-12	109.138E-3	-14.5832E-3
642.821E-6	5.64162E-12	91.2339E-3	-25.7768E-3	5.38050E-12	115.769E-3	-8.22091E-3
637.819E-6	5.57936E-12	106.353E-3	-28.7263E-3	5.37725E-12	125.239E-3	-7.57874E-3
632.816E-6	5.56234E-12	130.016E-3	-16.2159E-3	5.33632E-12	125.955E-3	-13.1185E-3
627.814E-6	5.66385E-12	133.239E-3	-5.17199E-3	5.29690E-12	123.644E-3	-17.0225E-3
622.811E-6	5.45454E-12	133.877E-3	-3.69089E-3	5.26137E-12	119.577E-3	-26.8548E-3
617.809E-6	5.43910E-12	134.135E-3	4.22098E-3	5.30676E-12	111.589E-3	-27.9976E-3
612.806E-6	5.33685E-12	119.700E-3	4.48623E-3	5.22884E-12	112.075E-3	-12.4332E-3
607.804E-6	5.28342E-12	112.891E-3	-10.1392E-3	5.15483E-12	134.319E-3	-4.40502E-3
602.801E-6	5.23227E-12	120.738E-3	-12.6953E-3	5.13548E-12	154.805E-3	-7.90899E-3
597.799E-6	5.19841E-12	124.833E-3	-10.5323E-3	5.21970E-12	148.423E-3	-11.8734E-3
592.796E-6	5.11308E-12	132.206E-3	-19.8485E-3	5.13876E-12	135.329E-3	-23.4470E-3
587.794E-6	5.05111E-12	134.655E-3	-18.9576E-3	5.08852E-12	129.843E-3	-31.2689E-3
582.791E-6	4.98592E-12	128.332E-3	-14.9548E-3	4.93552E-12	129.338E-3	-13.5904E-3
577.789E-6	5.00354E-12	139.568E-3	-23.2420E-3	4.95433E-12	139.316E-3	-823.582E-6
572.786E-6	4.90944E-12	153.413E-3	-22.2227E-3	4.84416E-12	150.833E-3	-19.0557E-3
567.784E-6	4.82479E-12	149.952E-3	-16.9011E-3	4.76560E-12	153.666E-3	-32.9209E-3
562.781E-6	4.76331E-12	148.499E-3	-24.0921E-3	4.72977E-12	155.926E-3	-30.0659E-3
557.779E-6	4.75816E-12	145.673E-3	-21.6647E-3	4.66534E-12	161.462E-3	-23.9934E-3
552.776E-6	4.74879E-12	133.465E-3	-4.00249E-3	4.63375E-12	167.500E-3	-12.6295E-3
547.774E-6	4.71178E-12	136.822E-3	-5.53088E-3	4.61050E-12	172.213E-3	-12.8435E-3
542.771E-6	4.60814E-12	147.697E-3	-17.2305E-3	4.63339E-12	174.883E-3	-21.9668E-3
537.769E-6	4.66642E-12	145.213E-3	-17.9619E-3	4.38594E-12	172.420E-3	-18.1720E-3
532.766E-6	4.55828E-12	150.826E-3	-18.6159E-3	4.30280E-12	174.911E-3	-13.7256E-3
527.764E-6	4.48773E-12	163.069E-3	-18.1165E-3	4.37780E-12	178.495E-3	-14.5941E-3
522.761E-6	4.41375E-12	162.239E-3	-11.3952E-3	4.26564E-12	172.328E-3	-11.9037E-3
517.759E-6	4.29348E-12	165.050E-3	-15.5501E-3	4.20922E-12	170.690E-3	-9.27367E-3
512.756E-6	4.38182E-12	170.381E-3	-24.0477E-3	4.10957E-12	172.447E-3	-8.46512E-3
507.754E-6	4.26971E-12	168.513E-3	-7.05993E-3	4.13709E-12	180.338E-3	-6.80919E-3
502.751E-6	4.20494E-12	174.261E-3	5.27877E-3	4.07451E-12	194.868E-3	-4.07066E-3
497.749E-6	4.06855E-12	178.528E-3	-6.96397E-3	4.03733E-12	193.344E-3	-4.70143E-3
492.746E-6	3.96527E-12	168.435E-3	-11.9201E-3	3.93584E-12	179.354E-3	-4.31759E-3
487.744E-6	4.00674E-12	160.178E-3	-12.0086E-3	3.89707E-12	178.366E-3	-760.733E-6
482.741E-6	3.96813E-12	166.865E-3	-13.4463E-3	3.99810E-12	184.462E-3	-8.54747E-3
477.739E-6	3.85811E-12	171.921E-3	-14.3556E-3	3.85405E-12	181.684E-3	-21.0701E-3
472.736E-6	3.75174E-12	169.710E-3	-24.6716E-3	3.71414E-12	181.068E-3	-25.8548E-3
467.734E-6	3.69940E-12	170.107E-3	-32.3204E-3	3.72308E-12	188.178E-3	-25.1789E-3
462.731E-6	3.67773E-12	163.726E-3	-28.2012E-3	3.73950E-12	187.086E-3	-19.3415E-3
457.729E-6	3.62479E-12	158.801E-3	-26.0824E-3	3.68779E-12	171.372E-3	-16.7870E-3
452.726E-6	3.51692E-12	176.728E-3	-25.1406E-3	3.50203E-12	166.188E-3	-19.8461E-3
447.724E-6	3.48425E-12	192.283E-3	-28.8773E-3	3.44392E-12	181.972E-3	-17.7541E-3
442.721E-6	3.53514E-12	189.328E-3	-44.7722E-3	3.40501E-12	188.496E-3	-7.78960E-3
437.719E-6	3.43339E-12	186.297E-3	-45.3627E-3	3.38298E-12	184.490E-3	-4.83678E-3
432.716E-6	3.31152E-12	183.518E-3	-21.1936E-3	3.32634E-12	192.226E-3	-10.7343E-3
427.714E-6	3.28501E-12	183.910E-3	-7.04972E-3	3.24747E-12	203.042E-3	-9.46574E-3
422.711E-6	3.30999E-12	199.152E-3	-6.27807E-3	3.12243E-12	196.656E-3	-9.37908E-3
417.709E-6	3.28726E-12	210.808E-3	-2.79248E-3	3.05595E-12	174.239E-3	-14.3055E-3
412.706E-6	3.07171E-12	198.616E-3	-10.2172E-3	3.02598E-12	162.563E-3	-12.2124E-3
407.704E-6	3.00031E-12	182.573E-3	-17.7114E-3	2.94730E-12	178.497E-3	-10.2184E-3
402.701E-6	3.04429E-12	180.936E-3	-10.4838E-3	2.81424E-12	194.586E-3	-15.3397E-3
397.699E-6	2.96296E-12	185.228E-3	-4.26014E-3	2.77347E-12	186.585E-3	-16.6810E-3
392.696E-6	2.76644E-12	189.927E-3	-6.56157E-3	2.79382E-12	180.187E-3	-17.6921E-3
387.694E-6	2.72789E-12	193.325E-3	-3.50283E-3	2.73622E-12	182.609E-3	-27.1193E-3
382.691E-6	2.64053E-12	185.272E-3	-1.05000E-3	2.54752E-12	177.901E-3	-27.5641E-3
377.689E-6	2.56709E-12	180.413E-3	-13.6155E-3	2.48490E-12	177.812E-3	-15.6208E-3
372.686E-6	2.45895E-12	184.240E-3	-14.0016E-3	2.54759E-12	180.356E-3	-9.95604E-3
367.684E-6	2.48418E-12	179.816E-3	-6.44901E-3	2.48712E-12	166.512E-3	-4.99023E-3
362.681E-6	2.38279E-12	178.452E-3	-17.0332E-3	2.39104E-12	158.557E-3	-4.03783E-3
357.679E-6	2.34990E-12	185.077E-3	-12.2511E-3	2.25755E-12	170.944E-3	-11.0406E-3
352.676E-6	2.35012E-12	179.951E-3	9.25335E-3	2.25415E-12	176.948E-3	-7.46920E-3
347.674E-6	2.26114E-12	169.459E-3	7.36285E-3	2.28425E-12	168.658E-3	827.497E-6
342.671E-6	2.20230E-12	180.947E-3	-6.18607E-3	2.21343E-12	156.148E-3	-477.156E-6
337.669E-6	2.09281E-12	186.447E-3	-4.37634E-3	2.04352E-12	147.101E-3	-1.14430E-3
332.666E-6	2.09622E-12	166.766E-3	-6.35579E-3	2.01257E-12	148.467E-3	-5.13477E-3
327.664E-6	2.12556E-12	163.871E-3	-10.5739E-3	1.92558E-12	160.296E-3	-8.70558E-3
322.661E-6	2.09197E-12	174.889E-3	-4.48470E-3	1.98548E-12	164.544E-3	3.07742E-3
317.659E-6	1.96121E-12	170.780E-3	-12.1809E-3	1.83070E-12	156.440E-3	8.73333E-3
312.656E-6	1.86443E-12	168.311E-3	-18.2412E-3	1.74026E-12	156.665E-3	-10.2495E-3
307.654E-6	1.88724E-12	167.754E-3	-9.90050E-3	1.73497E-12	151.914E-3	-28.7511E-3
302.651E-6	1.83695E-12	155.947E-3	-15.9870E-3	1.70627E-12	139.053E-3	-21.8760E-3
297.649E-6	1.72250E-12	156.715E-3	-24.5485E-3	1.70294E-12	145.389E-3	-3.41404E-3
292.646E-6	1.64060E-12	156.622E-3	-14.8540E-3	1.61723E-12	147.867E-3	-786.908E-6
287.644E-6	1.65792E-12	139.212E-3	-7.73021E-3	1.50706E-12	136.351E-3	-11.9242E-3
282.641E-6	1.58330E-12	136.977E-3	-10.0860E-3	1.47797E-12	133.543E-3	-24.3110E-3
277.639E-6	1.51275E-12	139.804E-3	-5.81888E-3	1.47459E-12	140.800E-3	-32.3071E-3
272.636E-6	1.46048E-12	134.197E-3	-4.00681E-3	1.46095E-12	145.200E-3	-28.1298E-3
267.634E-6	1.42786E-12	136.031E-3	-10.8276E-3	1.30974E-12	131.376E-3	-22.6797E-3
262.631E-6	1.37109E-12	131.847E-3	-11.9591E-3	1.26166E-12	112.664E-3	-25.2949E-3
257.629E-6	1.33008E-12	124.276E-3	-14.9245E-3	1.33329E-12	110.590E-3	-29.1071E-3
252.626E-6	1.28678E-12	132.918E-3	-32.0640E-3	1.26362E-12	119.792E-3	-32.7003E-3
247.624E-6	1.29176E-12	142.673E-3	-32.1243E-3	1.15847E-12	129.273E-3	-30.4526E-3
242.621E-6	1.17908E-12	138.134E-3	-16.3028E-3	1.09249E-12	128.643E-3	-17.1909E-3
237.619E-6	1.12139E-12	131.305E-3	-24.3345E-3	1.13145E-12	113.269E-3	-10.2572E-3
232.616E-6	1.19457E-12	123.014E-3	-27.5238E-3	1.12753E-12	96.1251E-3	-18.8949E-3
227.614E-6	1.11405E-12	118.237E-3	-13.5495E-3	980.772E-15	93.0153E-3	-25.5944E-3
222.611E-6	1.01459E-12	131.571E-3	-20.0940E-3	836.293E-15	100.857E-3	-32.2154E-3
217.609E-6	940.959E-15	135.718E-3	-31.5200E-3	861.187E-15	92.9201E-3	-38.9201E-3
212.606E-6	998.568E-15	114.359E-3	-36.2647E-3	912.901E-15	69.8783E-3	-34.7892E-3
207.604E-6	985.663E-15	106.881E-3	-50.4805E-3	871.571E-15	68.6795E-3	-30.7491E-3
202.601E-6	823.292E-15	113.474E-3	-46.9988E-3	807.441E-15	91.9154E-3	-31.6850E-3
197.599E-6	750.024E-15	106.704E-3	-23.2187E-3	705.111E-15	102.745E-3	-23.8216E-3
192.596E-6	808.975E-15	100.740E-3	-16.4505E-3	786.479E-15	94.3474E-3	-5.95947E-3
187.594E-6	875.756E-15	106.530E-3	-25.1343E-3	710.996E-15	87.5655E-3	-8.14087E-3
182.591E-6	732.184E-15	109.549E-3	-24.8756E-3	673.870E-15	88.3468E-3	-30.8287E-3
177.589E-6	616.034E-15	97.2804E-3	-12.5514E-3	673.381E-15	95.1290E-3	-39.3977E-3
172.586E-6	704.570E-15	85.6337E-3	-2.63544E-3	580.355E-15	97.2423E-3	-29.8773E-3
167.584E-6	681.647E-15	80.7391E-3	-5.52025E-3	554.223E-15	89.1143E-3	-11.4424E-3
162.581E-6	565.253E-15	75.9555E-3	-19.8267E-3	603.156E-15	69.3338E-3	-1.12214E-3
157.579E-6	510.670E-15	80.7478E-3	-17.8235E-3	560.292E-15	56.6964E-3	-10.4504E-3
152.576E-6	538.755E-15	86.6332E-3	2.00033E-3	473.692E-15	65.2336E-3	-17.6294E-3
147.574E-6	530.332E-15	82.1172E-3	2.43227E-3	476.011E-15	70.3415E-3	-18.2740E-3
142.571E-6	476.508E-15	82.5458E-3	-9.83872E-3	455.634E-15	70.2956E-3	-20.2013E-3
137.569E-6	437.829E-15	85.7059E-3	-12.5076E-3	474.145E-15	77.1039E-3	-16.4060E-3
132.566E-6	416.598E-15	79.3181E-3	-14.4721E-3	334.261E-15	83.2699E-3	-21.9391E-3
127.564E-6	361.500E-15	71.4487E-3	-14.6799E-3	345.657E-15	77.9272E-3	-37.9590E-3
122.561E-6	335.726E-15	66.8870E-3	-7.78472E-3	337.888E-15	64.7683E-3	-41.1364E-3
117.559E-6	353.435E-15	73.2345E-3	-12.7943E-3	392.088E-15	61.2556E-3	-38.4756E-3
112.556E-6	340.103E-15	83.1172E-3	-24.2720E-3	290.246E-15	65.4920E-3	-33.4402E-3
107.554E-6	267.044E-15	71.1685E-3	-14.8462E-3	171.550E-15	57.1059E-3	-25.9998E-3
102.551E-6	227.450E-15	50.4203E-3	-7.49038E-3	270.026E-15	47.0921E-3	-30.2057E-3
97.5488E-6	258.116E-15	46.9300E-3	-10.2618E-3	284.021E-15	48.3827E-3	-31.8577E-3
92.5463E-6	277.010E-15	57.5366E-3	-6.69216E-3	205.320E-15	50.4679E-3	-20.2253E-3
87.5438E-6	186.670E-15	72.3530E-3	-3.96763E-3	136.778E-15	54.1502E-3	-11.8561E-3
82.5413E-6	127.544E-15	80.1151E-3	979.039E-6	164.784E-15	54.7955E-3	-9.97187E-3
77.5388E-6	219.079E-15	68.5761E-3	3.91176E-3	151.243E-15	55.9199E-3	-11.4575E-3
72.5363E-6	184.934E-15	61.3896E-3	-4.94014E-3	143.413E-15	64.2442E-3	-17.6338E-3
67.5338E-6	87.5833E-15	75.8977E-3	-15.3350E-3	107.359E-15	69.4421E-3	-28.4688E-3
62.5313E-6	2.29979E-15	83.7905E-3	-11.7463E-3	60.5709E-15	71.2866E-3	-32.4550E-3
57.5288E-6	67.4243E-15	64.6327E-3	-6.79669E-3	41.3361E-15	65.9103E-3	-21.8544E-3
52.5263E-6	97.6541E-15	46.3438E-3	-8.98202E-3	55.3829E-15	54.0879E-3	-7.16758E-3
47.5238E-6	-42.1425E-15	50.9662E-3	-3.36487E-3	43.1933E-15	53.3928E-3	175.319E-6
42.5213E-6	-57.0264E-15	54.8996E-3	-3.42449E-3	25.6937E-15	65.5736E-3	-8.20266E-3
37.5188E-6	52.4707E-15	61.1910E-3	-9.72521E-3	-45.5866E-15	74.4564E-3	-19.4638E-3
32.5163E-6	-11.7209E-15	73.4542E-3	-7.52084E-3	-32.2635E-15	71.3046E-3	-15.1384E-3
27.5138E-6	-109.804E-15	65.0276E-3	-7.75891E-3	-2.79228E-15	64.4701E-3	-15.1596E-3
22.5113E-6	-89.2181E-15	48.8453E-3	-20.3435E-3	-29.5431E-15	67.4083E-3	-30.2148E-3
17.5088E-6	-129.798E-15	52.5752E-3	-25.4572E-3	-119.797E-15	77.3983E-3	-27.3920E-3
12.5063E-6	-48.7518E-15	54.4400E-3	-15.0027E-3	-161.606E-15	75.6422E-3	-14.5286E-3
7.50375E-6	-132.788E-15	46.1262E-3	-12.7306E-3	-144.542E-15	54.7795E-3	-16.2017E-3
2.50125E-6	-161.920E-15	52.0452E-3	-21.9018E-3	-116.222E-15	42.4041E-3	-25.9829E-3
-2.50125E-6	-157.264E-15	57.8942E-3	-24.7666E-3	-192.289E-15	52.0225E-3	-34.8262E-3
-7.50375E-6	-217.967E-15	52.2732E-3	-22.8200E-3	-264.450E-15	54.0542E-3	-28.2373E-3
-12.5063E-6	-270.737E-15	49.2513E-3	-21.6685E-3	-224.690E-15	40.2588E-3	-12.1810E-3
-17.5088E-6	-193.492E-15	56.0117E-3	-12.6680E-3	-156.915E-15	29.7199E-3	-9.81620E-3
-22.5113E-6	-245.416E-15	75.1294E-3	-11.3686E-3	-277.791E-15	37.6297E-3	-16.9162E-3
-27.5138E-6	-314.804E-15	91.4454E-3	-18.8756E-3	-336.942E-15	53.8751E-3	-15.5659E-3
-32.5163E-6	-350.632E-15	84.6077E-3	-7.92730E-3	-307.645E-15	59.5429E-3	-11.6839E-3
-37.5188E-6	-315.685E-15	64.4246E-3	-347.534E-6	-272.254E-15	60.7371E-3	-11.2510E-3
-42.5213E-6	-304.777E-15	63.3915E-3	-11.0767E-3	-333.943E-15	62.7372E-3	-18.8247E-3
-47.5238E-6	-427.152E-15	74.7559E-3	-18.4322E-3	-396.922E-15	65.4518E-3	-34.7007E-3
-52.5263E-6	-445.907E-15	70.6068E-3	-21.9994E-3	-427.606E-15	76.2999E-3	-47.5054E-3
-57.5288E-6	-389.633E-15	65.3378E-3	-15.5437E-3	-435.052E-15	90.9163E-3	-45.6027E-3
-62.5313E-6	-385.727E-15	72.3115E-3	1.16638E-3	-444.879E-15	100.656E-3	-24.4636E-3
-67.5338E-6	-507.910E-15	73.0729E-3	-5.88520E-3	-502.853E-15	92.3791E-3	-7.11362E-3
-72.5363E-6	-553.007E-15	71.7607E-3	-31.3085E-3	-526.291E-15	75.8861E-3	-5.68345E-3
-77.5388E-6	-513.316E-15	73.9340E-3	-33.6763E-3	-524.468E-15	74.8114E-3	-11.4063E-3
-82.5413E-6	-521.242E-15	75.1511E-3	-20.4516E-3	-571.544E-15	82.3490E-3	-17.6928E-3
-87.5438E-6	-600.884E-15	78.4522E-3	-15.6727E-3	-607.468E-15	87.9277E-3	-16.1940E-3
-92.5463E-6	-658.048E-15	85.9257E-3	-10.7766E-3	-600.056E-15	88.9346E-3	-11.6501E-3
-97.5488E-6	-628.132E-15	96.5893E-3	-12.6947E-3	-714.532E-15	85.0733E-3	-16.9416E-3
-102.551E-6	-648.317E-15	101.978E-3	-25.1402E-3	-737.281E-15	90.5708E-3	-25.0476E-3
-107.554E-6	-727.253E-15	96.1758E-3	-22.1178E-3	-684.450E-15	108.972E-3	-21.0841E-3
-112.556E-6	-790.782E-15	80.9323E-3	-12.7170E-3	-734.456E-15	112.190E-3	-12.4235E-3
-117.559E-6	-764.441E-15	82.6742E-3	-11.1042E-3	-804.227E-15	100.350E-3	-5.76636E-3
-122.561E-6	-819.015E-15	103.103E-3	-8.12979E-3	-904.168E-15	97.4810E-3	-5.01936E-3
-127.564E-6	-880.643E-15	111.480E-3	-7.41979E-3	-844.144E-15	100.182E-3	-10.6791E-3
-132.566E-6	-905.502E-15	112.116E-3	-7.24288E-3	-852.498E-15	100.626E-3	-14.4896E-3
-137.569E-6	-873.999E-15	112.730E-3	-5.20546E-3	-960.704E-15	110.707E-3	-17.3252E-3
-142.571E-6	-1.00684E-12	108.255E-3	-5.36327E-3	-1.06314E-12	123.206E-3	-21.0566E-3
-147.574E-6	-1.08413E-12	108.212E-3	-11.6207E-3	-1.06893E-12	128.817E-3	-23.0436E-3
-152.576E-6	-1.04430E-12	117.115E-3	-21.3441E-3	-1.05288E-12	140.999E-3	-16.8229E-3
-157.579E-6	-1.04914E-12	117.416E-3	-25.1261E-3	-1.12055E-12	158.530E-3	-11.0981E-3
-162.581E-6	-1.20565E-12	107.825E-3	-20.8458E-3	-1.22997E-12	166.309E-3	-16.9131E-3
-167.584E-6	-1.27505E-12	114.025E-3	-11.6555E-3	-1.20829E-12	162.223E-3	-19.0404E-3
-172.586E-6	-1.25882E-12	133.020E-3	-13.4589E-3	-1.27087E-12	152.791E-3	-22.1323E-3
-177.589E-6	-1.26790E-12	148.793E-3	-23.5274E-3	-1.34606E-12	146.862E-3	-32.6633E-3
-182.591E-6	-1.42237E-12	154.530E-3	-17.9047E-3	-1.39293E-12	155.408E-3	-27.9059E-3
-187.594E-6	-1.50841E-12	145.219E-3	-3.60228E-3	-1.42653E-12	169.287E-3	-17.3268E-3
-192.596E-6	-1.47327E-12	138.066E-3	-2.92679E-3	-1.43898E-12	164.506E-3	-19.1378E-3
-197.599E-6	-1.51644E-12	155.227E-3	-7.62217E-3	-1.53608E-12	153.194E-3	-22.4337E-3
-202.601E-6	-1.63051E-12	171.502E-3	-10.0078E-3	-1.57283E-12	170.522E-3	-24.5419E-3
-207.604E-6	-1.73063E-12	166.311E-3	-18.6848E-3	-1.64119E-12	202.097E-3	-25.7237E-3
-212.606E-6	-1.72123E-12	174.494E-3	-18.2295E-3	-1.73488E-12	217.276E-3	-16.5411E-3
-217.609E-6	-1.73201E-12	197.027E-3	-5.92952E-3	-1.84064E-12	216.829E-3	-3.60184E-3
-222.611E-6	-1.90798E-12	199.345E-3	-3.37520E-3	-1.81798E-12	206.912E-3	-1.67250E-3
-227.614E-6	-2.00842E-12	194.523E-3	-8.14587E-3	-1.91675E-12	204.100E-3	-9.93581E-3
-232.616E-6	-2.01278E-12	198.471E-3	-14.4278E-3	-2.04007E-12	217.463E-3	-22.1917E-3
-237.619E-6	-2.04020E-12	201.354E-3	-28.8118E-3	-2.14480E-12	234.525E-3	-29.6958E-3
-242.621E-6	-2.17820E-12	214.166E-3	-31.5478E-3	-2.15294E-12	243.018E-3	-26.6045E-3
-247.624E-6	-2.26026E-12	232.789E-3	-13.9360E-3	-2.19867E-12	240.283E-3	-17.1585E-3
-252.626E-6	-2.25775E-12	234.984E-3	-5.60703E-3	-2.35677E-12	234.948E-3	-11.9822E-3
-257.629E-6	-2.41382E-12	229.974E-3	-13.9960E-3	-2.48895E-12	239.702E-3	-10.6656E-3
-262.631E-6	-2.52708E-12	235.639E-3	-17.7656E-3	-2.47762E-12	257.026E-3	-1.82552E-3
-267.634E-6	-2.53856E-12	246.433E-3	-17.7786E-3	-2.51768E-12	266.831E-3	7.84118E-3
-272.636E-6	-2.57378E-12	253.427E-3	-25.9222E-3	-2.74371E-12	261.471E-3	3.04769E-3
-277.639E-6	-2.75558E-12	260.602E-3	-28.2901E-3	-2.84579E-12	269.800E-3	-12.0657E-3
-282.641E-6	-2.87458E-12	263.858E-3	-25.9702E-3	-2.86165E-12	291.143E-3	-17.8145E-3
-287.644E-6	-2.90848E-12	266.631E-3	-23.0812E-3	-2.96523E-12	300.468E-3	-13.8193E-3
-292.646E-6	-2.94323E-12	277.230E-3	-9.19121E-3	-3.07651E-12	300.247E-3	-5.93591E-3
-297.649E-6	-3.14082E-12	290.481E-3	-6.04163E-3	-3.23778E-12	298.812E-3	-4.67411E-3
-302.651E-6	-3.34189E-12	296.309E-3	-16.0711E-3	-3.25392E-12	294.947E-3	-9.87420E-3
-307.654E-6	-3.28220E-12	293.163E-3	-14.1627E-3	-3.28956E-12	300.386E-3	-7.66906E-3
-312.656E-6	-3.34189E-12	295.135E-3	-10.4496E-3	-3.50740E-12	311.446E-3	548.941E-6
-317.659E-6	-3.52159E-12	304.094E-3	-17.4518E-3	-3.59901E-12	310.973E-3	2.73234E-3
-322.661E-6	-3.67750E-12	309.500E-3	-17.4304E-3	-3.58238E-12	305.423E-3	-5.63782E-3
-327.664E-6	-3.72894E-12	306.285E-3	-15.5637E-3	-3.68682E-12	302.182E-3	-12.8789E-3
-332.666E-6	-3.68449E-12	305.443E-3	-31.9369E-3	-3.98171E-12	303.339E-3	-11.3347E-3
-337.669E-6	-3.88479E-12	314.381E-3	-36.5396E-3	-4.04739E-12	313.013E-3	-6.19609E-3
-342.671E-6	-4.01615E-12	317.451E-3	-14.4353E-3	-3.99829E-12	328.912E-3	-5.38068E-3
-347.674E-6	-4.02806E-12	317.810E-3	-4.75622E-3	-4.21565E-12	334.133E-3	-3.00539E-3
-352.676E-6	-4.09833E-12	325.128E-3	-13.8237E-3	-4.37829E-12	327.383E-3	-1.53441E-3
-357.679E-6	-4.19763E-12	318.360E-3	-18.4740E-3	-4.38929E-12	323.744E-3	-13.5994E-3
-362.681E-6	-4.31904E-12	299.231E-3	-19.4259E-3	-4.49190E-12	331.146E-3	-24.5782E-3
-367.684E-6	-4.36102E-12	296.679E-3	-17.7744E-3	-4.67176E-12	352.173E-3	-8.63666E-3
-372.686E-6	-4.55986E-12	309.900E-3	-9.13785E-3	-4.74712E-12	366.626E-3	20.6947E-3
-377.689E-6	-4.70451E-12	317.286E-3	-7.06150E-3	-4.75427E-12	356.717E-3	16.4012E-3
-382.691E-6	-4.72060E-12	317.753E-3	-10.0840E-3	-4.85573E-12	345.930E-3	-11.0878E-3
-387.694E-6	-4.82108E-12	322.940E-3	-961.225E-6	-5.09922E-12	358.174E-3	-17.0101E-3
-392.696E-6	-5.11650E-12	325.914E-3	-2.06546E-3	-5.30432E-12	373.958E-3	-6.37849E-3
-397.699E-6	-5.34387E-12	328.458E-3	-18.5160E-3	-5.25953E-12	370.222E-3	3.20002E-3
-402.701E-6	-5.24735E-12	337.851E-3	-25.3904E-3	-5.30165E-12	363.354E-3	2.85080E-3
-407.704E-6	-5.33898E-12	338.172E-3	-29.2567E-3	-5.54309E-12	359.798E-3	-10.1655E-3
-412.706E-6	-5.62736E-12	328.417E-3	-33.2991E-3	-5.65583E-12	351.439E-3	-18.4999E-3
-417.709E-6	-5.86839E-12	326.146E-3	-22.0758E-3	-5.61954E-12	345.647E-3	-7.28125E-3
-422.711E-6	-5.88177E-12	342.822E-3	-2.18445E-3	-5.74735E-12	336.338E-3	3.14340E-3
-427.714E-6	-5.86579E-12	364.186E-3	2.43660E-3	-5.98764E-12	329.614E-3	79.3025E-6
-432.716E-6	-6.10228E-12	360.219E-3	-432.015E-6	-6.06724E-12	346.216E-3	-8.58863E-3
-437.719E-6	-6.38161E-12	338.573E-3	-8.86042E-3	-6.09264E-12	372.549E-3	-24.1795E-3
-442.721E-6	-6.41195E-12	330.414E-3	-21.7048E-3	-6.20251E-12	373.145E-3	-31.1171E-3
-447.724E-6	-6.29103E-12	346.446E-3	-10.6148E-3	-6.40386E-12	356.882E-3	-25.7846E-3
-452.726E-6	-6.54985E-12	370.240E-3	1.84004E-3	-6.57794E-12	348.992E-3	-24.8370E-3
-457.729E-6	-6.69875E-12	375.179E-3	-17.0282E-3	-6.63165E-12	344.784E-3	-25.2864E-3
-462.731E-6	-6.77350E-12	362.443E-3	-28.8209E-3	-6.81155E-12	355.994E-3	-17.8502E-3
-467.734E-6	-6.86073E-12	348.420E-3	-14.2656E-3	-6.95823E-12	369.356E-3	-8.94625E-3
-472.736E-6	-6.96405E-12	347.866E-3	-4.95723E-3	-7.06093E-12	352.157E-3	-5.89406E-3
-477.739E-6	-7.05308E-12	355.033E-3	-4.60201E-3	-7.21518E-12	327.212E-3	-2.96427E-3
-482.741E-6	-7.12813E-12	354.211E-3	-5.94497E-3	-7.39557E-12	323.335E-3	-6.51084E-3
-487.744E-6	-7.23297E-12	350.453E-3	-10.4126E-3	-7.53328E-12	328.701E-3	-20.3296E-3
-492.746E-6	-7.49458E-12	348.195E-3	-11.1486E-3	-7.57393E-12	330.644E-3	-26.8916E-3
-497.749E-6	-7.58846E-12	351.196E-3	-13.2996E-3	-7.61455E-12	329.718E-3	-25.8451E-3
-502.751E-6	-7.64219E-12	357.514E-3	-19.7397E-3	-7.78392E-12	322.279E-3	-28.4625E-3
-507.754E-6	-7.85068E-12	354.973E-3	-20.3149E-3	-7.94865E-12	323.485E-3	-25.4426E-3
-512.756E-6	-8.04183E-12	345.716E-3	-21.1589E-3	-7.92166E-12	342.179E-3	-14.4193E-3
-517.759E-6	-8.08805E-12	345.316E-3	-24.2772E-3	-7.88071E-12	344.903E-3	-13.1914E-3
-522.761E-6	-8.14442E-12	339.846E-3	-22.0107E-3	-8.07190E-12	325.462E-3	-16.7125E-3
-527.764E-6	-8.25375E-12	318.480E-3	-23.1179E-3	-8.23834E-12	308.532E-3	-6.49207E-3
-532.766E-6	-8.45325E-12	313.208E-3	-30.9417E-3	-8.35387E-12	299.543E-3	2.00868E-3
-537.769E-6	-8.54373E-12	321.266E-3	-31.5490E-3	-8.38383E-12	299.796E-3	-3.60597E-3
-542.771E-6	-8.51599E-12	322.198E-3	-22.7762E-3	-8.54236E-12	313.166E-3	-11.0344E-3
-547.774E-6	-8.68728E-12	330.221E-3	-16.0317E-3	-8.59541E-12	326.121E-3	-8.27332E-3
-552.776E-6	-8.92100E-12	345.862E-3	-12.5204E-3	-8.66850E-12	324.095E-3	-5.24911E-3
-557.779E-6	-8.91005E-12	348.748E-3	-7.73961E-3	-8.83057E-12	316.610E-3	-16.5846E-3
-562.781E-6	-8.95184E-12	327.231E-3	-9.54252E-3	-8.99728E-12	300.481E-3	-27.7590E-3
-567.784E-6	-9.16401E-12	296.831E-3	-8.27114E-3	-9.18017E-12	279.187E-3	-24.8707E-3
-572.786E-6	-9.48898E-12	288.283E-3	-1.89943E-3	-9.29776E-12	278.912E-3	-16.6474E-3
-577.789E-6	-9.45225E-12	303.167E-3	-4.47093E-3	-9.53048E-12	289.361E-3	-14.9321E-3
-582.791E-6	-9.58783E-12	309.521E-3	-10.6267E-3	-9.72651E-12	289.381E-3	-15.8201E-3
-587.794E-6	-9.92624E-12	298.167E-3	-16.8810E-3	-9.70375E-12	287.246E-3	-22.1707E-3
-592.796E-6	-9.95595E-12	289.369E-3	-15.7251E-3	-9.79013E-12	289.137E-3	-38.0271E-3
-597.799E-6	-9.83095E-12	287.961E-3	-5.73476E-3	-9.97693E-12	280.422E-3	-30.8834E-3
-602.801E-6	-9.90281E-12	282.131E-3	-8.13820E-3	-9.99592E-12	264.659E-3	-5.00843E-3
-607.804E-6	-10.2186E-12	275.552E-3	-27.8389E-3	-9.83523E-12	253.524E-3	-9.45563E-3
-612.806E-6	-10.3455E-12	277.809E-3	-40.8017E-3	-9.92417E-12	241.571E-3	-24.1522E-3
-617.809E-6	-10.1759E-12	282.137E-3	-30.5682E-3	-10.0381E-12	236.681E-3	-15.0026E-3
-622.811E-6	-10.2125E-12	270.743E-3	-5.00755E-3	-10.0571E-12	234.364E-3	-9.70992E-3
-627.814E-6	-10.5042E-12	254.893E-3	3.63107E-3	-10.0677E-12	223.513E-3	-7.77128E-3
-632.816E-6	-10.8767E-12	260.691E-3	-10.2684E-3	-10.0057E-12	220.229E-3	-2.46966E-3
-637.819E-6	-10.7181E-12	261.886E-3	-18.5556E-3	-10.1880E-12	217.939E-3	-16.4618E-3
-642.821E-6	-10.5423E-12	234.073E-3	-15.7537E-3	-10.3298E-12	214.585E-3	-23.0543E-3
-647.824E-6	-10.8013E-12	203.773E-3	-8.91384E-3	-10.3063E-12	225.627E-3	-4.94901E-3
-652.826E-6	-11.0477E-12	205.286E-3	-15.4921E-3	-10.3710E-12	225.533E-3	1.70360E-3
-657.829E-6	-11.1105E-12	231.118E-3	-29.8435E-3	-10.5601E-12	197.408E-3	-10.0087E-3
-662.831E-6	-10.8343E-12	239.961E-3	-19.4628E-3	-10.7532E-12	180.266E-3	-21.0778E-3
-667.834E-6	-10.8086E-12	218.825E-3	-5.68017E-3	-10.7760E-12	189.050E-3	-25.9035E-3
-672.836E-6	-11.0096E-12	193.218E-3	-15.4313E-3	-10.8921E-12	180.994E-3	-22.2317E-3
-677.839E-6	-11.3650E-12	194.415E-3	-18.5538E-3	-11.0456E-12	165.670E-3	-10.3279E-3
-682.841E-6	-11.2393E-12	212.362E-3	-10.9769E-3	-11.2555E-12	169.809E-3	-185.485E-6
-687.844E-6	-11.0128E-12	216.280E-3	-16.0158E-3	-11.2722E-12	172.526E-3	-3.96143E-3
-692.846E-6	-11.0026E-12	203.101E-3	-26.4703E-3	-11.3494E-12	167.595E-3	-5.44709E-3
-697.849E-6	-11.4065E-12	181.260E-3	-27.7441E-3	-11.4939E-12	174.216E-3	1.14744E-3
-702.851E-6	-11.6864E-12	171.827E-3	-27.7814E-3	-11.5076E-12	183.507E-3	-2.18734E-3
-707.854E-6	-11.5207E-12	180.626E-3	-38.3170E-3	-11.5215E-12	169.595E-3	-9.86040E-3
-712.856E-6	-11.3440E-12	180.316E-3	-46.7451E-3	-11.6883E-12	156.983E-3	-20.5483E-3
-717.859E-6	-11.5655E-12	165.147E-3	-39.4827E-3	-11.5510E-12	158.915E-3	-39.8657E-3
-722.861E-6	-11.9646E-12	154.615E-3	-15.7447E-3	-11.5973E-12	159.253E-3	-41.9976E-3
-727.864E-6	-12.1371E-12	159.065E-3	2.29443E-3	-11.4794E-12	156.009E-3	-22.1645E-3
-732.866E-6	-11.9336E-12	169.533E-3	-4.54276E-3	-11.5943E-12	148.854E-3	-19.2577E-3
-737.869E-6	-11.9948E-12	168.057E-3	-11.7799E-3	-11.6420E-12	142.178E-3	-34.1686E-3
-742.871E-6	-12.4147E-12	153.261E-3	-10.7047E-3	-11.5408E-12	136.052E-3	-38.3221E-3
-747.874E-6	-12.4196E-12	134.648E-3	-9.55497E-3	-11.5749E-12	130.966E-3	-33.1901E-3
-752.876E-6	-12.0883E-12	128.284E-3	-565.638E-6	-11.6938E-12	127.078E-3	-26.3819E-3
-757.879E-6	-12.1081E-12	133.830E-3	1.57176E-3	-11.8571E-12	125.116E-3	-19.6675E-3
-762.881E-6	-12.2853E-12	135.541E-3	-10.9126E-3	-11.7322E-12	121.488E-3	-20.5853E-3
-767.884E-6	-12.5332E-12	138.575E-3	-25.8501E-3	-11.7983E-12	113.019E-3	-16.2154E-3
-772.886E-6	-12.3892E-12	132.430E-3	-31.8879E-3	-11.9661E-12	118.029E-3	-1.68191E-3
-777.889E-6	-12.1191E-12	118.830E-3	-20.5971E-3	-12.0841E-12	128.352E-3	6.23585E-3
-782.891E-6	-12.0025E-12	121.495E-3	-15.1711E-3	-11.9918E-12	122.492E-3	7.43684E-3
-787.894E-6	-12.0164E-12	132.991E-3	-20.4503E-3	-12.1826E-12	112.608E-3	5.44643E-3
-792.896E-6	-12.1561E-12	127.722E-3	-21.8053E-3	-12.2857E-12	114.217E-3	-2.93504E-3
-797.899E-6	-12.2066E-12	108.629E-3	-19.0329E-3	-12.3745E-12	122.038E-3	-6.17451E-3
-802.901E-6	-12.1498E-12	105.614E-3	-18.9129E-3	-12.2360E-12	122.583E-3	-3.42101E-3
-807.904E-6	-12.0810E-12	120.564E-3	-25.8588E-3	-12.3435E-12	115.536E-3	-15.8509E-3
-812.906E-6	-12.1961E-12	126.314E-3	-25.2962E-3	-12.3244E-12	104.491E-3	-25.9322E-3
-817.909E-6	-12.6323E-12	112.510E-3	-24.6375E-3	-12.4495E-12	94.7303E-3	-17.6000E-3
-822.911E-6	-12.5017E-12	90.9554E-3	-25.8116E-3	-12.4692E-12	96.1081E-3	-14.0069E-3
-827.914E-6	-12.3968E-12	96.8362E-3	-9.79608E-3	-12.5029E-12	107.880E-3	-22.9532E-3
-832.916E-6	-12.5038E-12	125.451E-3	3.42542E-3	-12.5628E-12	114.933E-3	-30.8910E-3
-837.919E-6	-12.7579E-12	137.370E-3	-10.3572E-3	-12.8097E-12	107.507E-3	-31.1568E-3
-842.921E-6	-12.8917E-12	134.933E-3	-29.0331E-3	-12.5684E-12	95.1503E-3	-21.6933E-3
-847.924E-6	-12.6965E-12	123.462E-3	-31.7600E-3	-12.5450E-12	92.5285E-3	-8.59041E-3
-852.926E-6	-12.7010E-12	113.047E-3	-23.2618E-3	-12.8284E-12	107.048E-3	-3.63123E-3
-857.929E-6	-12.7840E-12	114.247E-3	-12.8385E-3	-12.8708E-12	115.977E-3	5.62848E-3
-862.931E-6	-13.0648E-12	113.723E-3	-10.6263E-3	-12.7651E-12	109.207E-3	11.7002E-3
-867.934E-6	-12.9277E-12	104.508E-3	-23.3491E-3	-12.8762E-12	119.870E-3	1.79909E-3
-872.936E-6	-12.8627E-12	99.5631E-3	-40.1873E-3	-13.0094E-12	134.985E-3	-13.1886E-3
-877.939E-6	-12.9144E-12	101.566E-3	-32.8170E-3	-13.0772E-12	124.013E-3	-23.8258E-3
-882.941E-6	-13.1104E-12	108.370E-3	-12.0240E-3	-13.1685E-12	111.720E-3	-24.4892E-3
-887.944E-6	-12.9599E-12	126.631E-3	-11.1192E-3	-13.0368E-12	119.375E-3	-18.1280E-3
-892.946E-6	-12.9466E-12	135.595E-3	-17.5582E-3	-12.9690E-12	136.398E-3	-6.21319E-3
-897.949E-6	-13.0173E-12	118.643E-3	-16.8150E-3	-13.2299E-12	146.612E-3	883.161E-6
-902.951E-6	-13.0791E-12	108.508E-3	-14.1408E-3	-13.5241E-12	141.922E-3	1.33781E-3
-907.954E-6	-13.1012E-12	118.021E-3	-8.59372E-3	-13.2589E-12	130.956E-3	2.08049E-3
-912.956E-6	-13.2044E-12	123.063E-3	-11.4389E-3	-13.0859E-12	130.916E-3	-3.18704E-3
-917.959E-6	-13.1651E-12	115.675E-3	-25.8306E-3	-13.3202E-12	137.272E-3	-14.8516E-3
-922.961E-6	-13.1889E-12	111.894E-3	-33.6318E-3	-13.4799E-12	141.584E-3	-24.9470E-3
-927.964E-6	-13.1736E-12	127.784E-3	-35.3978E-3	-13.5492E-12	146.190E-3	-30.0241E-3
-932.966E-6	-13.2958E-12	153.305E-3	-29.9946E-3	-13.3965E-12	140.548E-3	-25.5078E-3
-937.969E-6	-13.3743E-12	159.703E-3	-20.9923E-3	-13.3324E-12	130.243E-3	-12.8682E-3
-942.971E-6	-13.2533E-12	146.405E-3	-32.1854E-3	-13.4533E-12	137.213E-3	-9.93876E-3
-947.974E-6	-13.3577E-12	134.294E-3	-45.6079E-3	-13.5053E-12	149.081E-3	-16.3859E-3
-952.976E-6	-13.5715E-12	128.290E-3	-30.9243E-3	-13.5271E-12	143.888E-3	-18.2241E-3
-957.979E-6	-13.5504E-12	131.948E-3	-7.94467E-3	-13.4470E-12	135.051E-3	-23.3218E-3
-962.981E-6	-13.5594E-12	150.255E-3	-12.8613E-3	-13.6236E-12	146.158E-3	-32.6584E-3
-967.984E-6	-13.6792E-12	161.384E-3	-31.6906E-3	-13.6757E-12	163.195E-3	-31.5699E-3
-972.986E-6	-13.7796E-12	156.420E-3	-30.2892E-3	-13.9004E-12	176.901E-3	-24.0915E-3
-977.989E-6	-13.8259E-12	153.295E-3	-16.6652E-3	-13.8651E-12	189.496E-3	-21.0823E-3
-982.991E-6	-13.9823E-12	160.879E-3	-3.20749E-3	-13.8554E-12	183.724E-3	-17.6176E-3
-987.994E-6	-14.1335E-12	174.817E-3	-8.65513E-3	-13.8511E-12	178.580E-3	-9.00859E-3
-992.997E-6	-14.1915E-12	179.134E-3	-37.4963E-3	-14.2737E-12	191.464E-3	-6.29370E-3
-997.999E-6	-14.1673E-12	183.168E-3	-37.4957E-3	-14.3658E-12	206.304E-3	-11.1480E-3
-1.00300E-3	-14.0581E-12	196.405E-3	-9.69140E-3	-14.2324E-12	208.425E-3	-15.5450E-3
-1.00800E-3	-14.3562E-12	205.321E-3	-754.220E-6	-14.4831E-12	204.627E-3	-13.0268E-3
-1.01301E-3	-14.2904E-12	204.303E-3	-4.96382E-3	-14.6925E-12	213.229E-3	-2.52720E-3
-1.01801E-3	-14.3030E-12	201.519E-3	-12.8879E-3	-14.6456E-12	224.095E-3	2.28747E-3
-1.02301E-3	-14.2899E-12	202.608E-3	-29.0849E-3	-14.7576E-12	226.832E-3	-14.8792E-3
-1.02801E-3	-14.5346E-12	202.496E-3	-31.4724E-3	-14.8866E-12	231.175E-3	-27.7635E-3
-1.03302E-3	-14.5662E-12	199.105E-3	-16.5659E-3	-14.7006E-12	239.056E-3	-16.5802E-3
-1.03802E-3	-14.4757E-12	205.815E-3	-11.4555E-3	-14.6945E-12	237.119E-3	-21.4048E-3
-1.04302E-3	-14.5914E-12	224.821E-3	-21.2518E-3	-14.7407E-12	235.893E-3	-35.8501E-3
-1.04802E-3	-14.8717E-12	230.706E-3	-32.9297E-3	-14.5631E-12	255.124E-3	-26.1057E-3
-1.05303E-3	-15.0550E-12	227.284E-3	-38.8045E-3	-14.6078E-12	272.321E-3	-18.5525E-3
-1.05803E-3	-15.0862E-12	236.392E-3	-30.3955E-3	-14.6065E-12	272.853E-3	-32.3072E-3
-1.06303E-3	-14.9383E-12	257.103E-3	-9.60713E-3	-14.7255E-12	274.235E-3	-30.5886E-3
-1.06803E-3	-15.2731E-12	270.052E-3	-82.0311E-6	-14.6452E-12	289.420E-3	-10.6615E-3
-1.07304E-3	-15.4750E-12	269.174E-3	-3.93527E-3	-14.8261E-12	304.458E-3	-9.50431E-3
-1.07804E-3	-15.6440E-12	267.137E-3	-8.72365E-3	-14.9887E-12	306.532E-3	-20.1253E-3
-1.08304E-3	-15.5179E-12	271.059E-3	-17.2373E-3	-15.0372E-12	309.767E-3	-21.0538E-3
-1.08804E-3	-15.6829E-12	283.320E-3	-26.6987E-3	-15.2664E-12	326.937E-3	-14.5714E-3
-1.09305E-3	-15.7169E-12	290.473E-3	-30.2955E-3	-15.5415E-12	348.828E-3	-12.1347E-3
-1.09805E-3	-15.8410E-12	289.331E-3	-25.7486E-3	-15.7895E-12	369.407E-3	-17.3794E-3
-1.10305E-3	-16.0289E-12	294.016E-3	-15.7813E-3	-15.7535E-12	383.440E-3	-22.1278E-3
-1.10805E-3	-16.0033E-12	311.096E-3	-5.75720E-3	-16.1005E-12	385.899E-3	-17.7341E-3
-1.11306E-3	-15.8840E-12	328.326E-3	-2.44105E-3	-16.4068E-12	383.673E-3	-15.6996E-3
-1.11806E-3	-16.0334E-12	335.457E-3	-11.0196E-3	-16.6311E-12	393.335E-3	-31.0744E-3
-1.12306E-3	-16.3030E-12	344.144E-3	-25.9624E-3	-16.5857E-12	419.255E-3	-44.4833E-3
-1.12806E-3	-16.1614E-12	360.326E-3	-29.3957E-3	-16.8211E-12	432.019E-3	-36.2440E-3
-1.13307E-3	-16.3083E-12	374.698E-3	-26.2484E-3	-16.9358E-12	436.535E-3	-27.3110E-3
-1.13807E-3	-16.5038E-12	390.979E-3	-26.2866E-3	-17.0562E-12	453.327E-3	-30.3566E-3
-1.14307E-3	-17.0909E-12	408.270E-3	-20.0873E-3	-17.1314E-12	463.211E-3	-32.4955E-3
-1.14807E-3	-17.2588E-12	411.549E-3	-14.8885E-3	-17.0222E-12	462.879E-3	-31.5514E-3
-1.15308E-3	-17.3767E-12	418.254E-3	-8.35749E-3	-17.1214E-12	468.991E-3	-28.7533E-3
-1.15808E-3	-17.5553E-12	435.380E-3	-4.50474E-3	-17.4674E-12	489.467E-3	-19.4241E-3
-1.16308E-3	-17.8053E-12	446.184E-3	-10.8482E-3	-17.4793E-12	516.681E-3	-17.3433E-3
-1.16808E-3	-18.1929E-12	459.295E-3	-14.2312E-3	-17.5644E-12	537.443E-3	-27.9465E-3
-1.17309E-3	-18.1413E-12	480.297E-3	-23.3146E-3	-17.7416E-12	547.157E-3	-20.8809E-3
-1.17809E-3	-18.1538E-12	489.128E-3	-40.9344E-3	-18.2566E-12	554.163E-3	-9.70605E-3
-1.18309E-3	-18.4826E-12	491.884E-3	-36.3479E-3	-18.2845E-12	566.516E-3	-8.36445E-3
-1.18809E-3	-18.6760E-12	512.223E-3	-10.9369E-3	-18.2670E-12	581.875E-3	-3.07626E-3
-1.19310E-3	-18.6852E-12	544.724E-3	-3.64543E-3	-18.6224E-12	605.156E-3	-7.46042E-3
-1.19810E-3	-18.4779E-12	565.325E-3	-18.5632E-3	-19.1104E-12	620.685E-3	-18.6300E-3
-1.20310E-3	-18.8959E-12	566.189E-3	-28.8308E-3	-19.2367E-12	625.115E-3	-13.6351E-3
-1.20810E-3	-19.3507E-12	565.375E-3	-19.6793E-3	-19.4182E-12	639.174E-3	-6.79762E-3
-1.21311E-3	-19.4130E-12	569.621E-3	-6.08466E-3	-19.5864E-12	654.668E-3	-11.3504E-3
-1.21811E-3	-19.1859E-12	580.114E-3	-9.62279E-3	-19.8968E-12	658.959E-3	-16.1457E-3
-1.22311E-3	-19.5338E-12	596.099E-3	-23.3859E-3	-20.2360E-12	670.669E-3	-25.9999E-3
-1.22811E-3	-20.0686E-12	605.565E-3	-25.7289E-3	-20.3739E-12	699.449E-3	-32.6207E-3
-1.23312E-3	-20.3478E-12	610.105E-3	-7.15427E-3	-20.5626E-12	721.584E-3	-26.6610E-3
-1.23812E-3	-20.4125E-12	635.668E-3	5.27471E-3	-20.6663E-12	735.672E-3	-28.7825E-3
-1.24312E-3	-20.6822E-12	679.704E-3	-6.53210E-3	-20.9086E-12	744.967E-3	-34.3904E-3
-1.24812E-3	-21.2763E-12	707.820E-3	-23.8891E-3	-21.0900E-12	752.798E-3	-15.8468E-3
-1.25313E-3	-21.4446E-12	716.950E-3	-32.6703E-3	-21.1941E-12	765.705E-3	5.67586E-3
-1.25813E-3	-21.6724E-12	727.665E-3	-18.8287E-3	-21.3781E-12	771.450E-3	2.10913E-3
-1.26313E-3	-21.6768E-12	741.759E-3	5.35452E-3	-21.5719E-12	780.343E-3	-7.02723E-3
-1.26813E-3	-21.9468E-12	762.026E-3	8.18949E-3	-21.8659E-12	807.366E-3	-15.8471E-3
-1.27314E-3	-22.3926E-12	792.967E-3	-20.0091E-3	-22.2330E-12	828.505E-3	-30.8686E-3
-1.27814E-3	-22.7815E-12	801.942E-3	-44.4908E-3	-22.6806E-12	845.426E-3	-37.5113E-3
-1.28314E-3	-22.9428E-12	788.463E-3	-33.8795E-3	-22.7299E-12	879.625E-3	-41.7185E-3
-1.28814E-3	-22.9877E-12	798.495E-3	-13.9014E-3	-22.8343E-12	898.419E-3	-39.7962E-3
-1.29315E-3	-23.5995E-12	824.818E-3	-5.73935E-3	-23.3665E-12	900.364E-3	-16.9862E-3
-1.29815E-3	-23.9955E-12	836.527E-3	-8.54868E-3	-23.7829E-12	917.377E-3	7.00252E-3
-1.30315E-3	-24.0249E-12	836.217E-3	-21.5498E-3	-24.3153E-12	933.217E-3	14.3620E-3
-1.30815E-3	-24.3038E-12	840.679E-3	-28.4035E-3	-24.4033E-12	939.056E-3	9.38926E-3
-1.31316E-3	-24.7111E-12	876.595E-3	-24.0241E-3	-24.7449E-12	951.091E-3	-3.06673E-3
-1.31816E-3	-25.3947E-12	925.038E-3	-19.5975E-3	-25.3982E-12	972.777E-3	-10.2017E-3
-1.32316E-3	-25.5220E-12	948.737E-3	-18.0615E-3	-25.8164E-12	994.025E-3	318.342E-6
-1.32816E-3	-25.7382E-12	960.514E-3	-27.9497E-3	-25.7256E-12	1.01291E+0	3.46366E-3
-1.33317E-3	-26.1036E-12	966.020E-3	-37.2917E-3	-25.8976E-12	1.03047E+0	-21.4914E-3
-1.33817E-3	-26.7607E-12	971.153E-3	-37.8232E-3	-26.4192E-12	1.03871E+0	-40.8489E-3
-1.34317E-3	-26.8876E-12	982.024E-3	-37.7693E-3	-26.9280E-12	1.04457E+0	-28.7548E-3
-1.34817E-3	-26.7431E-12	991.542E-3	-36.2883E-3	-27.0608E-12	1.04607E+0	-10.8095E-3
-1.35318E-3	-27.0209E-12	1.00517E+0	-33.1621E-3	-26.9030E-12	1.04547E+0	3.81407E-3
-1.35818E-3	-27.8838E-12	1.01700E+0	-29.3511E-3	-27.2691E-12	1.06642E+0	13.7125E-3
-1.36318E-3	-28.1480E-12	1.02593E+0	-33.5976E-3	-27.7768E-12	1.08832E+0	-1.53912E-3
-1.36818E-3	-28.1039E-12	1.04243E+0	-28.1504E-3	-28.2233E-12	1.07959E+0	-26.8354E-3
-1.37319E-3	-28.5824E-12	1.05390E+0	-16.5654E-3	-28.6311E-12	1.07123E+0	-34.9007E-3
-1.37819E-3	-29.1897E-12	1.05561E+0	-26.4547E-3	-28.7081E-12	1.09064E+0	-33.4186E-3
-1.38319E-3	-29.7099E-12	1.06376E+0	-29.9742E-3	-29.0981E-12	1.09986E+0	-26.2729E-3
-1.38819E-3	-29.8649E-12	1.07081E+0	-15.7105E-3	-29.7421E-12	1.10096E+0	-6.52471E-3
-1.39320E-3	-30.1028E-12	1.07511E+0	-10.1272E-3	-30.1217E-12	1.12453E+0	1.84662E-3
-1.39820E-3	-30.7868E-12	1.09518E+0	-11.2006E-3	-30.1494E-12	1.14289E+0	-1.99930E-3
-1.40320E-3	-31.1410E-12	1.11855E+0	-10.1691E-3	-30.5294E-12	1.14198E+0	-5.67803E-3
-1.40820E-3	-31.4634E-12	1.12562E+0	-11.7036E-3	-30.9271E-12	1.14226E+0	-20.0068E-3
-1.41321E-3	-31.6402E-12	1.13516E+0	-7.20891E-3	-31.6502E-12	1.16334E+0	-33.7228E-3
-1.41821E-3	-32.1198E-12	1.15038E+0	9.21079E-3	-32.2278E-12	1.19107E+0	-30.7639E-3
-1.42321E-3	-32.4719E-12	1.14970E+0	9.67263E-3	-32.5653E-12	1.19836E+0	-19.2152E-3
-1.42821E-3	-32.8637E-12	1.14187E+0	-3.87568E-3	-32.9359E-12	1.19294E+0	-9.19475E-3
-1.43322E-3	-32.8641E-12	1.14278E+0	-2.56585E-3	-33.4837E-12	1.18784E+0	-4.24151E-3
-1.43822E-3	-33.2927E-12	1.14616E+0	3.53696E-3	-34.1785E-12	1.18732E+0	-12.0177E-3
-1.44322E-3	-33.3822E-12	1.14242E+0	8.63301E-3	-34.4206E-12	1.19186E+0	-20.8099E-3
-1.44822E-3	-33.8323E-12	1.14767E+0	5.87927E-3	-34.7182E-12	1.19835E+0	-9.19857E-3
-1.45323E-3	-34.3873E-12	1.16649E+0	-17.7729E-3	-34.8169E-12	1.20884E+0	5.09469E-3
-1.45823E-3	-34.6682E-12	1.17495E+0	-41.6748E-3	-35.5550E-12	1.20479E+0	-5.30927E-3
-1.46323E-3	-35.0280E-12	1.16431E+0	-40.9315E-3	-35.8740E-12	1.18692E+0	-25.4014E-3
-1.46823E-3	-35.6293E-12	1.14942E+0	-17.2916E-3	-35.8335E-12	1.18926E+0	-28.7057E-3
-1.47324E-3	-36.0912E-12	1.14756E+0	-2.68306E-3	-35.6413E-12	1.19110E+0	-11.7602E-3
-1.47824E-3	-36.6069E-12	1.16500E+0	-12.1087E-3	-36.1990E-12	1.17385E+0	451.216E-6
-1.48324E-3	-36.9466E-12	1.17641E+0	-22.2539E-3	-36.9481E-12	1.16399E+0	-10.4367E-3
-1.48824E-3	-37.6091E-12	1.17320E+0	-29.8401E-3	-37.0438E-12	1.16255E+0	-17.8809E-3
-1.49325E-3	-38.3805E-12	1.18553E+0	-27.5557E-3	-37.1484E-12	1.16783E+0	-10.5341E-3
-1.49825E-3	-38.8880E-12	1.20482E+0	-19.1327E-3	-37.6540E-12	1.18155E+0	-5.02393E-3
-1.50325E-3	-38.7836E-12	1.21048E+0	-34.0316E-3	-38.4009E-12	1.17890E+0	-139.901E-6
-1.50825E-3	-39.2301E-12	1.20564E+0	-46.2328E-3	-38.7443E-12	1.16951E+0	-918.631E-6
-1.51326E-3	-39.9479E-12	1.20039E+0	-32.6781E-3	-38.8417E-12	1.17326E+0	-10.9689E-3
-1.51826E-3	-40.1533E-12	1.20173E+0	-17.2506E-3	-39.4967E-12	1.18144E+0	-20.3990E-3
-1.52326E-3	-40.1203E-12	1.20795E+0	-5.58017E-3	-40.5333E-12	1.18567E+0	-23.6773E-3
-1.52826E-3	-40.2906E-12	1.21132E+0	1.97845E-3	-41.1587E-12	1.18360E+0	-22.0787E-3
-1.53327E-3	-40.9632E-12	1.19901E+0	-14.2509E-3	-41.5162E-12	1.17833E+0	-23.4755E-3
-1.53827E-3	-41.3559E-12	1.17692E+0	-25.9229E-3	-41.7403E-12	1.16741E+0	-22.4377E-3
-1.54327E-3	-41.2404E-12	1.17194E+0	-5.09120E-3	-42.4116E-12	1.15366E+0	-10.1129E-3
-1.54827E-3	-41.5654E-12	1.18085E+0	6.66564E-3	-42.6972E-12	1.14874E+0	-8.17622E-3
-1.55328E-3	-42.3328E-12	1.17741E+0	-5.40789E-3	-43.1763E-12	1.14582E+0	-18.1205E-3
-1.55828E-3	-43.1316E-12	1.16733E+0	-20.4531E-3	-43.3512E-12	1.14334E+0	-18.3102E-3
-1.56328E-3	-43.1876E-12	1.15737E+0	-25.5472E-3	-43.5656E-12	1.14232E+0	-21.4613E-3
-1.56828E-3	-43.5846E-12	1.14843E+0	-19.4905E-3	-43.8241E-12	1.13138E+0	-20.2725E-3
-1.57329E-3	-44.2003E-12	1.14542E+0	-10.1781E-3	-44.0397E-12	1.12798E+0	-10.9093E-3
-1.57829E-3	-45.2105E-12	1.13694E+0	-66.9386E-6	-44.2462E-12	1.12799E+0	-20.6906E-3
-1.58329E-3	-45.7370E-12	1.13198E+0	3.02641E-3	-44.3072E-12	1.11314E+0	-33.1943E-3
-1.58829E-3	-46.1662E-12	1.14647E+0	-8.87403E-3	-44.5268E-12	1.09695E+0	-20.6658E-3
-1.59330E-3	-46.6796E-12	1.15759E+0	-26.7266E-3	-44.9181E-12	1.10241E+0	-7.08050E-3
-1.59830E-3	-47.0704E-12	1.15892E+0	-39.8475E-3	-45.2043E-12	1.12763E+0	-8.91887E-3
-1.60330E-3	-47.4247E-12	1.16224E+0	-42.9100E-3	-45.6182E-12	1.12738E+0	-16.7266E-3
-1.60830E-3	-47.1986E-12	1.16245E+0	-33.4561E-3	-46.1508E-12	1.10699E+0	-26.9586E-3
-1.61331E-3	-47.5362E-12	1.15488E+0	-23.1506E-3	-46.7831E-12	1.09106E+0	-30.2741E-3
-1.61831E-3	-47.9026E-12	1.13289E+0	-13.5492E-3	-47.3233E-12	1.08417E+0	-23.2356E-3
-1.62331E-3	-48.1482E-12	1.11653E+0	2.48078E-3	-47.7433E-12	1.09578E+0	-15.1917E-3
-1.62831E-3	-47.9681E-12	1.12182E+0	2.24394E-3	-48.5634E-12	1.09764E+0	-5.51679E-3
-1.63332E-3	-48.2890E-12	1.11161E+0	-18.3226E-3	-49.3739E-12	1.08720E+0	14.3647E-3
-1.63832E-3	-48.4227E-12	1.08072E+0	-34.9224E-3	-49.8153E-12	1.08703E+0	12.8419E-3
-1.64332E-3	-48.9249E-12	1.06983E+0	-29.8213E-3	-50.1016E-12	1.09066E+0	-13.9768E-3
-1.64832E-3	-49.4986E-12	1.08606E+0	-12.3975E-3	-50.4758E-12	1.07812E+0	-18.5091E-3
-1.65333E-3	-49.4240E-12	1.09580E+0	-11.3965E-3	-50.9683E-12	1.05455E+0	-13.9727E-3
-1.65833E-3	-49.9220E-12	1.08154E+0	-24.1715E-3	-51.2216E-12	1.04577E+0	-29.4553E-3
-1.66333E-3	-50.6186E-12	1.06515E+0	-27.3414E-3	-51.1927E-12	1.04830E+0	-33.9803E-3
-1.66833E-3	-51.5155E-12	1.05774E+0	-17.8291E-3	-51.2676E-12	1.05045E+0	-14.3698E-3
-1.67334E-3	-51.8022E-12	1.06038E+0	-14.3347E-3	-51.5560E-12	1.03868E+0	-2.29762E-3
-1.67834E-3	-52.1809E-12	1.07074E+0	-9.11151E-3	-51.9830E-12	1.01345E+0	-1.51231E-3
-1.68334E-3	-52.5740E-12	1.07125E+0	4.76896E-3	-52.1509E-12	1.00737E+0	1.21091E-3
-1.68834E-3	-53.1070E-12	1.05924E+0	-2.74956E-3	-52.3915E-12	1.02292E+0	-5.42889E-3
-1.69335E-3	-53.6598E-12	1.04684E+0	-25.9937E-3	-52.5895E-12	1.02885E+0	-20.2364E-3
-1.69835E-3	-53.6094E-12	1.03348E+0	-28.2658E-3	-52.9116E-12	1.02697E+0	-31.2347E-3
-1.70335E-3	-53.5250E-12	1.02592E+0	-8.70051E-3	-53.3591E-12	1.02492E+0	-32.5524E-3
-1.70835E-3	-53.9454E-12	1.03172E+0	-467.695E-6	-53.7703E-12	1.00423E+0	-26.9025E-3
-1.71336E-3	-54.1775E-12	1.02503E+0	-11.7044E-3	-54.3283E-12	993.087E-3	-24.8640E-3
-1.71836E-3	-54.3433E-12	1.00256E+0	-14.5743E-3	-54.7243E-12	1.01086E+0	-37.4662E-3
-1.72336E-3	-53.9790E-12	990.783E-3	-12.4772E-3	-54.9421E-12	1.02106E+0	-44.4069E-3
-1.72836E-3	-54.5997E-12	987.183E-3	-14.8593E-3	-55.5611E-12	1.00909E+0	-26.2320E-3
-1.73337E-3	-54.6665E-12	985.189E-3	-13.7789E-3	-56.2327E-12	984.837E-3	-14.2711E-3
-1.73837E-3	-55.1584E-12	987.232E-3	-18.9932E-3	-56.9793E-12	968.320E-3	-20.7412E-3
-1.74337E-3	-55.1156E-12	987.805E-3	-28.3994E-3	-57.0367E-12	974.128E-3	-25.3624E-3
-1.74837E-3	-55.7092E-12	979.948E-3	-33.8797E-3	-57.0306E-12	981.469E-3	-20.4498E-3
-1.75338E-3	-56.2023E-12	961.979E-3	-24.0744E-3	-57.4849E-12	967.025E-3	-13.2287E-3
-1.75838E-3	-56.7666E-12	951.233E-3	-12.5841E-3	-58.0402E-12	957.607E-3	-7.07263E-3
-1.76338E-3	-57.3732E-12	952.832E-3	-22.6673E-3	-57.8287E-12	967.446E-3	-8.63880E-3
-1.76838E-3	-57.2459E-12	962.051E-3	-25.3195E-3	-57.6494E-12	960.111E-3	-16.5776E-3
-1.77339E-3	-57.7659E-12	972.826E-3	-12.8340E-3	-57.8416E-12	947.216E-3	-9.05623E-3
-1.77839E-3	-58.3241E-12	969.604E-3	-18.8895E-3	-58.2240E-12	949.511E-3	6.76670E-3
-1.78339E-3	-58.7617E-12	961.782E-3	-38.9916E-3	-58.2960E-12	944.484E-3	2.78981E-3
-1.78839E-3	-58.5091E-12	950.258E-3	-47.5358E-3	-58.4029E-12	932.296E-3	-11.2903E-3
-1.79340E-3	-58.8220E-12	924.513E-3	-49.0659E-3	-58.4289E-12	935.991E-3	-15.7066E-3
-1.79840E-3	-59.0614E-12	907.538E-3	-39.4628E-3	-58.8254E-12	935.024E-3	-19.3855E-3
-1.80340E-3	-59.1813E-12	916.523E-3	-11.5063E-3	-59.3159E-12	910.148E-3	-16.2419E-3
-1.80840E-3	-59.5854E-12	932.680E-3	-2.38094E-3	-59.5412E-12	898.371E-3	920.881E-6
-1.81341E-3	-59.4319E-12	939.465E-3	-11.9409E-3	-59.6335E-12	896.179E-3	-310.704E-6
-1.81841E-3	-60.4645E-12	926.147E-3	-21.3744E-3	-59.9433E-12	879.473E-3	-10.6966E-3
-1.82341E-3	-60.9624E-12	906.673E-3	-34.3981E-3	-60.6736E-12	878.224E-3	1.29856E-3
-1.82841E-3	-61.6263E-12	910.745E-3	-33.7871E-3	-61.2100E-12	897.895E-3	2.10235E-3
-1.83342E-3	-61.8355E-12	914.496E-3	-24.5158E-3	-61.4365E-12	906.896E-3	-10.1044E-3
-1.83842E-3	-62.0810E-12	899.954E-3	-13.6321E-3	-61.3329E-12	907.273E-3	-4.93659E-3
-1.84342E-3	-62.8544E-12	890.652E-3	-9.85542E-3	-61.9857E-12	908.750E-3	-5.32238E-3
-1.84842E-3	-63.2164E-12	896.134E-3	-16.6812E-3	-62.5874E-12	906.817E-3	-8.99901E-3
-1.85343E-3	-63.7383E-12	903.418E-3	-18.2527E-3	-62.8840E-12	896.775E-3	2.26410E-3
-1.85843E-3	-63.5803E-12	911.207E-3	-16.1785E-3	-62.8987E-12	875.478E-3	6.11372E-3
-1.86343E-3	-63.9643E-12	913.642E-3	-13.4336E-3	-63.3856E-12	847.445E-3	-870.239E-6
-1.86843E-3	-63.9883E-12	902.429E-3	-15.6332E-3	-64.1510E-12	841.051E-3	-13.3616E-3
-1.87344E-3	-64.7913E-12	891.980E-3	-22.7282E-3	-64.2631E-12	863.780E-3	-26.4314E-3
-1.87844E-3	-64.7311E-12	894.295E-3	-19.0526E-3	-64.4319E-12	875.863E-3	-25.0069E-3
-1.88344E-3	-64.7013E-12	898.427E-3	-13.6731E-3	-64.6962E-12	880.224E-3	-10.8008E-3
-1.88844E-3	-65.0862E-12	888.857E-3	-22.1296E-3	-65.0601E-12	884.002E-3	-8.40444E-3
-1.89345E-3	-65.6267E-12	876.346E-3	-29.0288E-3	-65.2636E-12	868.259E-3	-23.8846E-3
-1.89845E-3	-66.0831E-12	878.843E-3	-28.5445E-3	-65.1982E-12	858.593E-3	-23.9850E-3
-1.90345E-3	-65.9822E-12	894.450E-3	-27.5222E-3	-65.1609E-12	853.396E-3	-2.53226E-3
-1.90845E-3	-66.3567E-12	900.461E-3	-18.3519E-3	-65.6649E-12	834.744E-3	3.06338E-3
-1.91346E-3	-66.9326E-12	886.710E-3	-11.8852E-3	-65.9250E-12	824.057E-3	-2.31131E-3
-1.91846E-3	-67.9570E-12	865.080E-3	-16.7369E-3	-65.9842E-12	829.285E-3	3.51209E-3
-1.92346E-3	-68.4549E-12	853.675E-3	-16.0868E-3	-65.9688E-12	832.730E-3	1.96300E-3
-1.92846E-3	-68.2069E-12	853.840E-3	-5.95024E-3	-66.5045E-12	826.670E-3	-9.55850E-3
-1.93347E-3	-68.1703E-12	852.144E-3	3.50312E-3	-67.1277E-12	835.783E-3	-17.4074E-3
-1.93847E-3	-68.7620E-12	856.850E-3	5.13787E-3	-67.8057E-12	857.219E-3	-22.9785E-3
-1.94347E-3	-69.3431E-12	860.420E-3	-1.20531E-3	-68.1516E-12	864.733E-3	-30.1630E-3
-1.94847E-3	-68.9660E-12	849.780E-3	-2.50401E-3	-68.7023E-12	863.523E-3	-35.5613E-3
-1.95348E-3	-68.4954E-12	845.409E-3	7.38613E-3	-69.3390E-12	857.077E-3	-35.5386E-3
-1.95848E-3	-68.9444E-12	842.277E-3	4.44899E-3	-69.9807E-12	847.655E-3	-28.4922E-3
-1.96348E-3	-69.4872E-12	828.223E-3	-17.8076E-3	-70.5188E-12	850.168E-3	-28.2023E-3
-1.96848E-3	-69.1700E-12	823.364E-3	-23.7737E-3	-70.9188E-12	858.608E-3	-29.8664E-3
-1.97349E-3	-68.5927E-12	821.882E-3	-8.81086E-3	-71.0060E-12	857.763E-3	-17.1177E-3
-1.97849E-3	-68.6849E-12	814.931E-3	5.51742E-3	-71.0693E-12	850.116E-3	-11.6412E-3
-1.98349E-3	-69.2716E-12	814.388E-3	15.9310E-3	-71.2845E-12	836.754E-3	-22.6458E-3
-1.98849E-3	-70.1131E-12	816.990E-3	-5.32547E-3	-71.5600E-12	822.619E-3	-26.4525E-3
-1.99350E-3	-70.0536E-12	815.973E-3	-39.8288E-3	-71.2283E-12	817.363E-3	-8.56037E-3
-1.99850E-3	-70.8562E-12	812.230E-3	-32.5200E-3	-70.9182E-12	813.804E-3	3.60795E-3
-2.00350E-3	-71.3670E-12	812.811E-3	-7.64661E-3	-70.9737E-12	810.937E-3	-7.07618E-3
-2.00850E-3	-72.7644E-12	822.141E-3	-9.30320E-3	-71.4118E-12	819.455E-3	-4.59975E-3
-2.01351E-3	-73.2380E-12	828.757E-3	-35.4599E-3	-71.4295E-12	820.252E-3	4.75276E-3
-2.01851E-3	-73.1653E-12	815.575E-3	-45.5049E-3	-71.6316E-12	809.839E-3	-4.64484E-3
-2.02351E-3	-73.0473E-12	802.284E-3	-28.6853E-3	-71.4967E-12	811.776E-3	-6.32570E-3
-2.02851E-3	-73.9112E-12	813.000E-3	-10.4274E-3	-72.2577E-12	816.742E-3	-48.6365E-6
-2.03352E-3	-74.3983E-12	829.839E-3	2.98658E-3	-72.7875E-12	814.023E-3	10.1536E-3
-2.03852E-3	-73.5489E-12	833.278E-3	3.50588E-3	-73.3252E-12	811.436E-3	17.2449E-3
-2.04352E-3	-73.4490E-12	821.455E-3	-15.9951E-3	-73.9803E-12	814.908E-3	7.08704E-3
-2.04852E-3	-73.6755E-12	799.673E-3	-31.2222E-3	-74.4404E-12	824.379E-3	-1.50278E-3
-2.05353E-3	-74.1635E-12	791.157E-3	-22.4595E-3	-75.3484E-12	827.969E-3	-8.36306E-3
-2.05853E-3	-73.7183E-12	804.011E-3	-15.4158E-3	-76.0710E-12	816.718E-3	-23.6672E-3
-2.06353E-3	-73.1144E-12	798.450E-3	-22.0852E-3	-76.4816E-12	797.742E-3	-23.1672E-3
-2.06853E-3	-73.2889E-12	779.794E-3	-36.5366E-3	-76.6537E-12	784.578E-3	-13.3112E-3
-2.07354E-3	-74.0209E-12	786.905E-3	-46.0878E-3	-76.9727E-12	789.963E-3	-11.1900E-3
-2.07854E-3	-75.0164E-12	804.791E-3	-20.1128E-3	-77.5226E-12	803.187E-3	-2.83939E-3
-2.08354E-3	-74.7522E-12	810.551E-3	9.31985E-3	-77.4159E-12	800.918E-3	406.163E-6
-2.08854E-3	-75.8489E-12	808.936E-3	7.94316E-3	-76.9338E-12	785.475E-3	-10.3920E-3
-2.09355E-3	-76.8935E-12	795.261E-3	-7.86122E-3	-77.0478E-12	772.721E-3	-21.1516E-3
-2.09855E-3	-78.1023E-12	775.600E-3	-20.7427E-3	-76.9836E-12	769.507E-3	-21.7495E-3
-2.10355E-3	-77.9335E-12	778.351E-3	-8.98621E-3	-76.8973E-12	772.946E-3	-23.6345E-3
-2.10855E-3	-78.3839E-12	797.738E-3	14.8562E-3	-76.4060E-12	781.871E-3	-22.4600E-3
-2.11356E-3	-78.7818E-12	802.378E-3	13.3440E-3	-76.6051E-12	783.710E-3	-5.07859E-3
-2.11856E-3	-79.8934E-12	801.260E-3	-12.4548E-3	-76.6651E-12	772.357E-3	-1.44318E-3
-2.12356E-3	-79.6744E-12	815.298E-3	-22.5327E-3	-77.0315E-12	767.710E-3	-19.0337E-3
-2.12856E-3	-78.8181E-12	806.499E-3	-18.3975E-3	-77.3027E-12	774.765E-3	-23.4384E-3
-2.13357E-3	-78.4533E-12	777.799E-3	-21.3102E-3	-77.9993E-12	783.513E-3	-15.4343E-3
-2.13857E-3	-78.9648E-12	779.540E-3	-21.2090E-3	-78.3020E-12	779.940E-3	-20.5600E-3
-2.14357E-3	-78.5918E-12	801.585E-3	-25.3260E-3	-78.7308E-12	771.832E-3	-32.9067E-3
-2.14857E-3	-78.2399E-12	813.397E-3	-34.6554E-3	-79.1728E-12	773.842E-3	-34.7734E-3
-2.15358E-3	-78.0820E-12	798.549E-3	-35.2006E-3	-79.8377E-12	775.934E-3	-26.9392E-3
-2.15858E-3	-78.7689E-12	771.087E-3	-27.3798E-3	-80.8620E-12	769.603E-3	-19.5187E-3
-2.16358E-3	-79.0421E-12	764.568E-3	-13.5176E-3	-80.7225E-12	758.295E-3	-24.8146E-3
-2.16858E-3	-79.4621E-12	771.379E-3	-8.97196E-3	-81.1921E-12	752.546E-3	-31.4032E-3
-2.17359E-3	-79.7255E-12	771.020E-3	-29.9255E-3	-81.4880E-12	748.358E-3	-25.8221E-3
-2.17859E-3	-80.3634E-12	767.971E-3	-39.3928E-3	-81.7204E-12	739.075E-3	-25.0448E-3
-2.18359E-3	-81.6169E-12	768.177E-3	-10.1730E-3	-81.5886E-12	738.294E-3	-30.8377E-3
-2.18859E-3	-81.7622E-12	769.537E-3	7.14201E-3	-81.4312E-12	744.511E-3	-34.1652E-3
-2.19360E-3	-81.8374E-12	770.939E-3	-18.9350E-3	-81.5390E-12	739.107E-3	-39.2788E-3
-2.19860E-3	-82.2807E-12	771.833E-3	-45.7537E-3	-81.0048E-12	736.149E-3	-37.6481E-3
-2.20360E-3	-83.1140E-12	772.041E-3	-41.5702E-3	-81.4285E-12	747.972E-3	-26.4048E-3
-2.20860E-3	-83.2318E-12	772.817E-3	-27.3956E-3	-81.3097E-12	750.382E-3	-21.1403E-3
-2.21361E-3	-83.3629E-12	777.934E-3	-19.8544E-3	-81.7667E-12	741.926E-3	-20.2793E-3
-2.21861E-3	-83.0695E-12	781.282E-3	-10.5039E-3	-81.6270E-12	733.739E-3	-18.4097E-3
-2.22361E-3	-83.3703E-12	773.581E-3	-15.6075E-3	-81.6202E-12	743.540E-3	-7.20198E-3
-2.22861E-3	-83.0949E-12	767.713E-3	-23.8966E-3	-82.3654E-12	773.572E-3	1.53218E-3
-2.23362E-3	-82.9196E-12	773.468E-3	-9.74553E-3	-82.9673E-12	785.848E-3	-12.3335E-3
-2.23862E-3	-82.7951E-12	778.702E-3	188.878E-6	-83.4631E-12	784.261E-3	-28.0270E-3
-2.24362E-3	-83.1219E-12	775.969E-3	-15.1103E-3	-83.4458E-12	777.512E-3	-25.9799E-3
-2.24862E-3	-83.6711E-12	756.130E-3	-34.0632E-3	-84.2839E-12	762.708E-3	-21.2405E-3
-2.25363E-3	-83.8141E-12	739.186E-3	-35.8440E-3	-84.7596E-12	757.165E-3	-40.0508E-3
-2.25863E-3	-84.2546E-12	741.471E-3	-28.6265E-3	-85.1260E-12	760.280E-3	-56.2933E-3
-2.26363E-3	-85.2133E-12	736.385E-3	-18.5381E-3	-85.1177E-12	758.421E-3	-46.1156E-3
-2.26863E-3	-85.8920E-12	723.052E-3	-21.8303E-3	-85.4916E-12	745.651E-3	-38.6305E-3
-2.27364E-3	-85.7594E-12	741.943E-3	-37.3455E-3	-86.0112E-12	727.141E-3	-43.0307E-3
-2.27864E-3	-86.0999E-12	763.068E-3	-32.7617E-3	-86.3677E-12	730.789E-3	-33.0970E-3
-2.28364E-3	-86.6500E-12	747.716E-3	-10.2249E-3	-86.4838E-12	755.546E-3	-18.5604E-3
-2.28864E-3	-86.9529E-12	745.266E-3	-1.65318E-3	-86.8943E-12	762.243E-3	-15.0157E-3
-2.29365E-3	-86.9335E-12	768.534E-3	-6.49387E-3	-87.1349E-12	749.270E-3	-17.7291E-3
-2.29865E-3	-86.9275E-12	768.587E-3	-1.68929E-3	-88.0624E-12	742.076E-3	-26.3723E-3
-2.30365E-3	-87.2226E-12	742.712E-3	-1.03312E-3	-88.1607E-12	744.656E-3	-27.8355E-3
-2.30865E-3	-87.3107E-12	729.439E-3	-16.0435E-3	-87.9961E-12	742.247E-3	-27.8101E-3
-2.31366E-3	-87.3452E-12	728.434E-3	-24.9994E-3	-88.4151E-12	739.544E-3	-22.4804E-3
-2.31866E-3	-87.0414E-12	730.243E-3	-29.9656E-3	-89.2645E-12	744.151E-3	-14.4839E-3
-2.32366E-3	-87.2731E-12	733.431E-3	-31.5393E-3	-89.0197E-12	748.393E-3	-15.0115E-3
-2.32866E-3	-87.5488E-12	733.557E-3	-19.3438E-3	-89.2534E-12	753.033E-3	-17.8789E-3
-2.33367E-3	-88.5294E-12	736.505E-3	-23.4468E-3	-88.8094E-12	747.329E-3	-38.3955E-3
-2.33867E-3	-89.1928E-12	746.147E-3	-30.8269E-3	-88.9164E-12	730.667E-3	-49.7237E-3
-2.34367E-3	-89.3998E-12	740.901E-3	-16.6742E-3	-89.0817E-12	720.110E-3	-36.9962E-3
-2.34867E-3	-90.0327E-12	729.211E-3	-27.4869E-3	-89.2722E-12	721.280E-3	-26.3232E-3
-2.35368E-3	-90.7338E-12	743.186E-3	-39.8415E-3	-89.2194E-12	732.832E-3	-8.17667E-3
-2.35868E-3	-91.0359E-12	753.488E-3	-19.4321E-3	-89.1775E-12	739.370E-3	-216.396E-6
-2.36368E-3	-91.2413E-12	740.616E-3	-11.8648E-3	-90.0658E-12	743.424E-3	-16.4940E-3
-2.36868E-3	-91.1530E-12	732.332E-3	-19.5537E-3	-90.3226E-12	751.881E-3	-19.8268E-3
-2.37369E-3	-91.3959E-12	727.272E-3	-25.1332E-3	-91.3063E-12	747.722E-3	-15.6484E-3
-2.37869E-3	-91.4395E-12	720.870E-3	-28.2137E-3	-91.1705E-12	736.631E-3	-18.4108E-3
-2.38369E-3	-91.0723E-12	730.914E-3	-21.3161E-3	-91.6141E-12	737.489E-3	-20.0381E-3
-2.38869E-3	-90.4575E-12	734.201E-3	-13.7557E-3	-91.7336E-12	734.412E-3	-21.4402E-3
-2.39370E-3	-90.4819E-12	723.942E-3	-24.2360E-3	-92.1261E-12	726.482E-3	-19.6914E-3
-2.39870E-3	-90.8751E-12	718.949E-3	-38.3660E-3	-92.0141E-12	719.678E-3	-22.7193E-3
-2.40370E-3	-90.8411E-12	705.825E-3	-26.3836E-3	-91.9804E-12	710.524E-3	-30.1737E-3
-2.40870E-3	-90.5725E-12	695.525E-3	-11.2435E-3	-92.6920E-12	713.265E-3	-24.8545E-3
-2.41371E-3	-91.3495E-12	710.824E-3	-24.4949E-3	-92.6688E-12	730.276E-3	-6.98319E-3
-2.41871E-3	-92.0765E-12	741.289E-3	-33.4909E-3	-92.6478E-12	741.758E-3	138.829E-6
-2.42371E-3	-92.4914E-12	752.288E-3	-26.7887E-3	-92.5138E-12	723.789E-3	-7.41827E-3
-2.42871E-3	-93.3691E-12	729.774E-3	-16.0617E-3	-92.6648E-12	697.987E-3	247.820E-6
-2.43372E-3	-93.9674E-12	712.941E-3	-4.88183E-3	-92.1706E-12	701.228E-3	15.8277E-3
-2.43872E-3	-94.6227E-12	710.262E-3	-8.71108E-3	-91.9368E-12	715.171E-3	2.58906E-3
-2.44372E-3	-95.6158E-12	721.422E-3	-20.8941E-3	-92.1792E-12	712.147E-3	-23.2719E-3
-2.44872E-3	-96.2681E-12	747.916E-3	-25.5435E-3	-92.3160E-12	701.241E-3	-36.0826E-3
-2.45373E-3	-96.3538E-12	748.771E-3	-27.2365E-3	-92.4966E-12	697.275E-3	-38.9073E-3
-2.45873E-3	-96.4825E-12	739.623E-3	-28.1638E-3	-93.2597E-12	703.834E-3	-43.3255E-3
-2.46373E-3	-96.3210E-12	747.807E-3	-24.8583E-3	-94.4174E-12	718.373E-3	-44.6347E-3
-2.46873E-3	-95.8816E-12	756.141E-3	-26.3574E-3	-94.2753E-12	740.416E-3	-35.6748E-3
-2.47374E-3	-95.9103E-12	757.719E-3	-41.8975E-3	-94.9423E-12	766.834E-3	-31.3201E-3
-2.47874E-3	-95.4573E-12	750.752E-3	-49.4858E-3	-96.0191E-12	769.170E-3	-23.7587E-3
-2.48374E-3	-95.1997E-12	745.546E-3	-40.7787E-3	-97.3761E-12	746.524E-3	-14.2950E-3
-2.48874E-3	-95.4348E-12	741.940E-3	-28.9159E-3	-97.8093E-12	730.164E-3	-25.3337E-3
-2.49375E-3	-95.5991E-12	736.180E-3	-12.9883E-3	-98.0757E-12	735.404E-3	-34.8309E-3
-2.49875E-3	-95.8308E-12	733.084E-3	-9.22762E-3	-98.4939E-12	753.058E-3	-26.2942E-3
-2.50375E-3	-96.3264E-12	728.238E-3	-16.5323E-3	-99.1272E-12	756.090E-3	-17.3659E-3
-2.50875E-3	-96.4466E-12	721.354E-3	-8.97744E-3	-99.3361E-12	738.533E-3	-14.5477E-3
-2.51376E-3	-97.4112E-12	709.541E-3	3.02763E-3	-98.6450E-12	728.635E-3	-17.2539E-3
-2.51876E-3	-98.2683E-12	709.386E-3	-5.09089E-3	-98.5079E-12	734.171E-3	-25.6442E-3
-2.52376E-3	-99.3974E-12	726.749E-3	-11.4705E-3	-97.6964E-12	726.698E-3	-31.9131E-3
-2.52876E-3	-99.4081E-12	729.384E-3	-3.40635E-3	-97.7764E-12	702.759E-3	-32.7384E-3
-2.53377E-3	-99.5951E-12	706.501E-3	-349.854E-6	-97.4109E-12	687.710E-3	-38.5542E-3
-2.53877E-3	-100.742E-12	698.909E-3	10.1686E-3	-97.4275E-12	693.836E-3	-42.2709E-3
-2.54377E-3	-101.515E-12	722.939E-3	13.9265E-3	-97.5036E-12	708.898E-3	-31.0491E-3
-2.54877E-3	-101.015E-12	740.385E-3	-28.3636E-3	-97.6515E-12	713.968E-3	-12.8094E-3
-2.55378E-3	-100.445E-12	741.879E-3	-64.7418E-3	-98.3807E-12	699.465E-3	-3.07775E-3
-2.55878E-3	-99.9965E-12	735.845E-3	-50.0793E-3	-98.7745E-12	692.611E-3	-1.01501E-3
-2.56378E-3	-100.054E-12	726.393E-3	-40.2810E-3	-99.3573E-12	714.996E-3	-4.41058E-3
-2.56878E-3	-100.138E-12	729.418E-3	-42.8148E-3	-100.225E-12	734.930E-3	-21.2878E-3
-2.57379E-3	-98.9954E-12	732.810E-3	-24.3867E-3	-100.723E-12	740.985E-3	-29.8670E-3
-2.57879E-3	-98.9038E-12	724.724E-3	-20.9748E-3	-101.545E-12	744.828E-3	-19.5109E-3
-2.58379E-3	-98.7371E-12	719.052E-3	-29.1676E-3	-102.561E-12	731.868E-3	-9.31403E-3
-2.58879E-3	-99.4725E-12	715.572E-3	-14.3060E-3	-103.052E-12	709.872E-3	-9.81758E-3
-2.59380E-3	-99.7084E-12	705.145E-3	-6.24724E-3	-102.732E-12	696.843E-3	-18.2882E-3
-2.59880E-3	-99.8063E-12	693.688E-3	-19.7120E-3	-103.194E-12	689.813E-3	-20.2299E-3
-2.60380E-3	-100.238E-12	687.303E-3	-21.7414E-3	-103.956E-12	695.235E-3	-8.98684E-3
-2.60880E-3	-100.932E-12	696.210E-3	-9.46563E-3	-103.809E-12	710.065E-3	-13.0597E-3
-2.61381E-3	-101.853E-12	714.503E-3	-16.9245E-3	-102.700E-12	716.280E-3	-28.2647E-3
-2.61881E-3	-102.371E-12	702.413E-3	-22.6214E-3	-102.389E-12	709.024E-3	-31.1776E-3
-2.62381E-3	-103.054E-12	673.522E-3	-11.9704E-3	-102.273E-12	702.708E-3	-30.1718E-3
-2.62881E-3	-103.284E-12	670.725E-3	-16.9934E-3	-102.083E-12	696.764E-3	-38.5584E-3
-2.63382E-3	-103.943E-12	683.792E-3	-16.7050E-3	-101.233E-12	684.803E-3	-46.9922E-3
-2.63882E-3	-104.423E-12	699.501E-3	-8.35574E-3	-101.402E-12	683.284E-3	-25.7011E-3
-2.64382E-3	-104.270E-12	720.983E-3	-18.0829E-3	-102.052E-12	686.445E-3	-8.07038E-3
-2.64882E-3	-103.965E-12	733.871E-3	-25.6193E-3	-102.242E-12	697.028E-3	-15.2432E-3
-2.65383E-3	-103.529E-12	733.516E-3	-16.3180E-3	-102.527E-12	719.527E-3	-3.46595E-3
-2.65883E-3	-103.549E-12	724.717E-3	-20.6498E-3	-103.357E-12	720.266E-3	-485.753E-6
-2.66383E-3	-103.670E-12	715.302E-3	-29.9970E-3	-104.407E-12	710.731E-3	-15.1073E-3
-2.66883E-3	-104.050E-12	710.360E-3	-26.4398E-3	-104.842E-12	722.289E-3	-13.6542E-3
-2.67384E-3	-103.764E-12	692.227E-3	-22.7510E-3	-105.505E-12	740.539E-3	-18.0423E-3
-2.67884E-3	-103.922E-12	670.333E-3	-15.2220E-3	-106.044E-12	732.619E-3	-20.6143E-3
-2.68384E-3	-104.540E-12	671.614E-3	-16.2928E-3	-106.158E-12	710.046E-3	-11.4608E-3
-2.68884E-3	-104.917E-12	687.365E-3	-13.4604E-3	-106.475E-12	710.907E-3	-15.2777E-3
-2.69385E-3	-105.261E-12	698.455E-3	8.68426E-3	-106.421E-12	718.331E-3	-21.6272E-3
-2.69885E-3	-105.558E-12	706.464E-3	30.1741E-3	-106.790E-12	714.885E-3	-16.1497E-3
-2.70385E-3	-106.341E-12	720.776E-3	21.4221E-3	-106.692E-12	709.051E-3	-22.8142E-3
-2.70885E-3	-106.843E-12	718.301E-3	-8.89709E-3	-107.074E-12	699.985E-3	-28.6524E-3
-2.71386E-3	-107.335E-12	693.324E-3	-18.5505E-3	-107.660E-12	704.587E-3	-20.4039E-3
-2.71886E-3	-107.597E-12	683.092E-3	-18.1886E-3	-107.719E-12	709.055E-3	-13.1586E-3
-2.72386E-3	-107.773E-12	698.377E-3	-24.5724E-3	-107.661E-12	687.539E-3	-3.50589E-3
-2.72886E-3	-108.160E-12	712.081E-3	-22.4329E-3	-106.940E-12	675.686E-3	3.16807E-3
-2.73387E-3	-108.149E-12	707.761E-3	-22.9756E-3	-107.530E-12	684.628E-3	3.53249E-3
-2.73887E-3	-107.945E-12	698.433E-3	-19.5832E-3	-107.625E-12	691.935E-3	-3.26374E-3
-2.74387E-3	-108.177E-12	692.540E-3	3.20907E-3	-108.069E-12	703.317E-3	-16.7775E-3
-2.74887E-3	-108.374E-12	697.742E-3	7.52624E-3	-107.932E-12	713.229E-3	-26.8705E-3
-2.75388E-3	-108.534E-12	712.848E-3	-6.23906E-3	-108.455E-12	700.151E-3	-24.9571E-3
-2.75888E-3	-108.650E-12	705.512E-3	-5.85309E-3	-109.249E-12	677.184E-3	-7.96837E-3
-2.76388E-3	-109.262E-12	676.038E-3	-7.62784E-3	-109.670E-12	678.909E-3	-1.89939E-3
-2.76888E-3	-109.379E-12	675.202E-3	-20.9394E-3	-110.445E-12	704.071E-3	-15.0638E-3
-2.77389E-3	-109.445E-12	701.876E-3	-35.9482E-3	-109.831E-12	716.424E-3	-21.5487E-3
-2.77889E-3	-110.761E-12	706.707E-3	-40.5161E-3	-110.490E-12	698.605E-3	-20.5929E-3
-2.78389E-3	-110.835E-12	698.990E-3	-32.4856E-3	-110.754E-12	678.216E-3	-34.1696E-3
-2.78889E-3	-110.569E-12	712.334E-3	-17.2180E-3	-112.030E-12	678.252E-3	-42.4852E-3
-2.79390E-3	-110.312E-12	712.323E-3	-11.1886E-3	-112.205E-12	692.970E-3	-25.8427E-3
-2.79890E-3	-110.802E-12	691.264E-3	-27.6128E-3	-111.721E-12	706.869E-3	-19.2920E-3
-2.80390E-3	-111.011E-12	681.820E-3	-28.3548E-3	-112.036E-12	705.346E-3	-22.7026E-3
-2.80890E-3	-110.711E-12	686.724E-3	-12.0526E-3	-112.522E-12	711.224E-3	-26.3486E-3
-2.81391E-3	-110.460E-12	704.691E-3	-14.2914E-3	-113.771E-12	710.331E-3	-38.3456E-3
-2.81891E-3	-110.382E-12	708.785E-3	-14.3801E-3	-113.819E-12	694.969E-3	-34.8033E-3
-2.82391E-3	-110.721E-12	689.603E-3	5.68829E-3	-113.047E-12	712.982E-3	-16.2436E-3
-2.82891E-3	-110.487E-12	683.480E-3	11.5775E-3	-113.203E-12	740.287E-3	-15.2346E-3
-2.83392E-3	-110.616E-12	690.160E-3	-7.23002E-3	-114.329E-12	737.343E-3	-33.3278E-3
-2.83892E-3	-111.183E-12	691.642E-3	-20.0091E-3	-114.616E-12	715.338E-3	-42.2461E-3
-2.84392E-3	-111.731E-12	686.592E-3	-24.6667E-3	-113.593E-12	697.846E-3	-38.0657E-3
-2.84892E-3	-112.350E-12	676.908E-3	-25.4271E-3	-112.693E-12	691.756E-3	-34.5602E-3
-2.85393E-3	-113.224E-12	672.643E-3	-18.8290E-3	-113.113E-12	685.876E-3	-28.0940E-3
-2.85893E-3	-113.916E-12	676.466E-3	-19.1089E-3	-113.407E-12	677.401E-3	-28.0381E-3
-2.86393E-3	-114.735E-12	689.049E-3	-19.8022E-3	-112.601E-12	660.768E-3	-37.3034E-3
-2.86893E-3	-115.805E-12	707.859E-3	-20.0642E-3	-112.002E-12	656.738E-3	-28.8037E-3
-2.87394E-3	-116.233E-12	713.290E-3	-21.8235E-3	-112.660E-12	674.754E-3	-19.9935E-3
-2.87894E-3	-116.272E-12	718.065E-3	-15.2204E-3	-113.444E-12	684.283E-3	-25.7135E-3
-2.88394E-3	-116.650E-12	724.894E-3	-11.7490E-3	-113.352E-12	692.647E-3	-25.3838E-3
-2.88894E-3	-116.302E-12	717.527E-3	-26.7693E-3	-113.842E-12	706.172E-3	-23.7766E-3
-2.89395E-3	-116.331E-12	716.817E-3	-37.9949E-3	-114.523E-12	703.680E-3	-24.2012E-3
-2.89895E-3	-116.355E-12	721.002E-3	-12.6742E-3	-115.920E-12	694.232E-3	-29.4462E-3
-2.90395E-3	-116.082E-12	727.378E-3	3.99146E-3	-116.126E-12	689.022E-3	-43.7828E-3
-2.90895E-3	-115.611E-12	729.879E-3	-5.38586E-3	-117.212E-12	691.138E-3	-46.8577E-3
-2.91396E-3	-115.640E-12	714.558E-3	-2.60137E-3	-117.724E-12	706.557E-3	-27.7671E-3
-2.91896E-3	-115.730E-12	697.890E-3	-6.32438E-3	-118.568E-12	711.916E-3	-17.4276E-3
-2.92396E-3	-115.426E-12	694.030E-3	-19.1024E-3	-118.719E-12	705.041E-3	-19.0676E-3
-2.92896E-3	-115.213E-12	690.654E-3	-19.4556E-3	-119.029E-12	702.545E-3	-17.4954E-3
-2.93397E-3	-115.672E-12	672.616E-3	-19.8218E-3	-119.014E-12	699.427E-3	-16.6115E-3
-2.93897E-3	-116.667E-12	661.852E-3	-35.4454E-3	-119.036E-12	689.909E-3	-12.0498E-3
-2.94397E-3	-117.177E-12	684.895E-3	-47.1396E-3	-117.613E-12	683.040E-3	-6.48164E-3
-2.94897E-3	-117.599E-12	707.905E-3	-35.8968E-3	-117.401E-12	695.685E-3	-10.8299E-3
-2.95398E-3	-118.246E-12	700.548E-3	-19.6580E-3	-117.346E-12	710.030E-3	-19.5045E-3
-2.95898E-3	-119.508E-12	684.445E-3	-13.9809E-3	-116.881E-12	702.977E-3	-12.3355E-3
-2.96398E-3	-120.877E-12	680.930E-3	-18.2106E-3	-115.907E-12	691.674E-3	-13.7458E-3
-2.96898E-3	-120.627E-12	689.838E-3	-16.7037E-3	-116.086E-12	691.142E-3	-32.2392E-3
-2.97399E-3	-120.691E-12	701.224E-3	-1.32291E-3	-116.193E-12	685.176E-3	-31.4792E-3
-2.97899E-3	-121.121E-12	706.384E-3	-905.003E-6	-116.318E-12	673.803E-3	-33.4104E-3
-2.98399E-3	-121.339E-12	704.875E-3	-26.2665E-3	-117.084E-12	661.752E-3	-45.3312E-3
-2.98899E-3	-120.275E-12	710.870E-3	-47.8292E-3	-117.799E-12	645.968E-3	-30.8008E-3
-2.99400E-3	-119.494E-12	710.760E-3	-39.8552E-3	-118.456E-12	651.146E-3	-14.4470E-3
-2.99900E-3	-118.834E-12	697.735E-3	-18.3312E-3	-119.490E-12	675.125E-3	-9.03687E-3
-3.00400E-3	-118.253E-12	689.163E-3	-12.3286E-3	-120.678E-12	697.273E-3	10.5279E-3
-3.00900E-3	-117.843E-12	657.288E-3	-18.8583E-3	-121.361E-12	719.818E-3	28.4124E-3
-3.01401E-3	-117.601E-12	626.598E-3	-22.7745E-3	-121.924E-12	720.128E-3	13.9847E-3
-3.01901E-3	-118.239E-12	646.245E-3	-17.4177E-3	-123.136E-12	690.894E-3	-5.48621E-3
-3.02401E-3	-118.048E-12	665.686E-3	-569.937E-6	-123.676E-12	676.755E-3	9.92744E-3
-3.02901E-3	-118.707E-12	659.758E-3	-4.52770E-3	-123.519E-12	685.943E-3	26.1643E-3
-3.03402E-3	-119.385E-12	666.990E-3	-32.5508E-3	-122.507E-12	681.577E-3	17.4398E-3
-3.03902E-3	-120.493E-12	670.119E-3	-37.8036E-3	-122.074E-12	670.449E-3	-422.677E-6
-3.04402E-3	-121.095E-12	646.933E-3	-31.6488E-3	-121.688E-12	662.867E-3	-18.6185E-3
-3.04902E-3	-121.538E-12	639.243E-3	-24.1594E-3	-120.967E-12	650.947E-3	-34.9241E-3
-3.05403E-3	-122.572E-12	655.442E-3	-15.3535E-3	-119.729E-12	658.763E-3	-30.4907E-3
-3.05903E-3	-123.728E-12	666.407E-3	-18.0448E-3	-119.750E-12	683.508E-3	-25.5876E-3
-3.06403E-3	-124.044E-12	682.493E-3	-17.3430E-3	-119.987E-12	688.880E-3	-30.1161E-3
-3.06903E-3	-124.020E-12	699.675E-3	-11.0974E-3	-120.430E-12	679.787E-3	-6.29506E-3
-3.07404E-3	-124.104E-12	694.550E-3	-10.7476E-3	-120.948E-12	689.866E-3	3.89151E-3
-3.07904E-3	-124.232E-12	688.774E-3	-7.74020E-3	-121.840E-12	702.731E-3	-25.7517E-3
-3.08404E-3	-124.070E-12	693.183E-3	-651.673E-6	-123.113E-12	696.378E-3	-40.2823E-3
-3.08904E-3	-123.541E-12	694.423E-3	-4.89933E-3	-124.607E-12	689.675E-3	-34.4279E-3
-3.09405E-3	-123.285E-12	700.875E-3	-11.6316E-3	-125.506E-12	686.381E-3	-45.2816E-3
-3.09905E-3	-123.165E-12	701.377E-3	-25.3439E-3	-125.577E-12	709.110E-3	-56.0207E-3
-3.10405E-3	-123.427E-12	681.623E-3	-41.0748E-3	-127.199E-12	749.317E-3	-47.6648E-3
-3.10905E-3	-124.321E-12	673.006E-3	-18.8373E-3	-127.953E-12	750.596E-3	-38.8711E-3
-3.11406E-3	-123.533E-12	700.583E-3	14.2451E-3	-128.457E-12	733.693E-3	-30.7469E-3
-3.11906E-3	-123.812E-12	723.288E-3	4.90899E-3	-127.642E-12	723.248E-3	-26.2104E-3
-3.12406E-3	-124.654E-12	705.187E-3	-38.3865E-3	-128.573E-12	701.693E-3	-29.5011E-3
-3.12906E-3	-126.830E-12	670.301E-3	-60.8139E-3	-128.410E-12	686.940E-3	-27.9105E-3
-3.13407E-3	-126.876E-12	660.583E-3	-35.3825E-3	-128.604E-12	695.248E-3	-18.3444E-3
-3.13907E-3	-126.516E-12	680.064E-3	-12.6450E-3	-127.286E-12	706.975E-3	-17.2662E-3
-3.14407E-3	-126.771E-12	700.581E-3	-16.2821E-3	-127.316E-12	698.592E-3	-18.0470E-3
-3.14907E-3	-128.747E-12	701.587E-3	-10.8656E-3	-127.126E-12	683.568E-3	3.37379E-3
-3.15408E-3	-129.724E-12	688.112E-3	7.27951E-3	-126.831E-12	675.391E-3	25.1777E-3
-3.15908E-3	-129.490E-12	694.110E-3	18.2910E-3	-127.240E-12	676.697E-3	23.7295E-3
-3.16408E-3	-129.062E-12	711.226E-3	16.4670E-3	-127.222E-12	689.315E-3	3.94557E-3
-3.16908E-3	-129.706E-12	701.968E-3	5.72934E-3	-127.810E-12	690.269E-3	-19.4487E-3
-3.17409E-3	-130.184E-12	683.634E-3	-5.81610E-3	-127.079E-12	690.470E-3	-21.6067E-3
-3.17909E-3	-129.837E-12	687.323E-3	-561.942E-6	-127.797E-12	700.170E-3	-15.9096E-3
-3.18409E-3	-129.178E-12	693.216E-3	5.51642E-3	-128.673E-12	692.864E-3	-16.8270E-3
-3.18909E-3	-128.478E-12	684.495E-3	551.845E-6	-127.971E-12	669.731E-3	-12.1046E-3
-3.19410E-3	-129.240E-12	671.408E-3	-4.22160E-3	-128.864E-12	667.887E-3	659.607E-6
-3.19910E-3	-129.699E-12	658.303E-3	-17.5675E-3	-129.651E-12	687.535E-3	-134.870E-6
-3.20410E-3	-129.226E-12	654.109E-3	-17.3321E-3	-130.164E-12	698.929E-3	-13.0632E-3
-3.20910E-3	-128.438E-12	661.399E-3	-784.790E-6	-129.120E-12	701.396E-3	-14.1330E-3
-3.21411E-3	-128.967E-12	688.678E-3	5.11421E-3	-129.341E-12	685.622E-3	-12.2053E-3
-3.21911E-3	-130.405E-12	714.105E-3	-2.43129E-3	-130.112E-12	664.686E-3	-11.7047E-3
-3.22411E-3	-130.521E-12	695.037E-3	-11.5996E-3	-130.523E-12	671.186E-3	-3.05515E-3
-3.22911E-3	-129.753E-12	671.081E-3	-3.89531E-3	-129.469E-12	692.370E-3	848.624E-6
-3.23412E-3	-129.751E-12	680.295E-3	10.6118E-3	-129.175E-12	691.994E-3	-9.27218E-3
-3.23912E-3	-131.144E-12	681.859E-3	11.5483E-3	-129.802E-12	666.692E-3	-13.9951E-3
-3.24412E-3	-131.877E-12	671.011E-3	-2.46987E-3	-129.702E-12	638.899E-3	-14.5651E-3
-3.24912E-3	-132.188E-12	677.239E-3	-25.5589E-3	-129.824E-12	616.811E-3	-29.5580E-3
-3.25413E-3	-131.225E-12	692.330E-3	-37.4526E-3	-130.205E-12	624.705E-3	-39.8216E-3
-3.25913E-3	-132.063E-12	704.725E-3	-46.0749E-3	-130.367E-12	650.791E-3	-29.3650E-3
-3.26413E-3	-132.849E-12	705.128E-3	-58.7597E-3	-130.594E-12	652.366E-3	-16.8197E-3
-3.26913E-3	-133.289E-12	689.647E-3	-54.1549E-3	-130.843E-12	643.373E-3	-8.86823E-3
-3.27414E-3	-133.216E-12	678.025E-3	-38.4864E-3	-131.245E-12	650.592E-3	-1.18789E-3
-3.27914E-3	-133.709E-12	683.776E-3	-27.9007E-3	-131.166E-12	681.327E-3	-8.98701E-3
-3.28414E-3	-134.148E-12	684.178E-3	-23.4674E-3	-131.255E-12	701.449E-3	-21.0088E-3
-3.28914E-3	-134.413E-12	681.958E-3	-23.9484E-3	-131.497E-12	681.768E-3	-19.6079E-3
-3.29415E-3	-134.742E-12	706.207E-3	-24.4303E-3	-132.132E-12	659.247E-3	-27.1311E-3
-3.29915E-3	-135.621E-12	713.836E-3	-21.7375E-3	-131.666E-12	657.189E-3	-31.1159E-3
-3.30415E-3	-135.649E-12	693.913E-3	-19.9533E-3	-131.512E-12	671.871E-3	-15.0242E-3
-3.30915E-3	-136.447E-12	691.425E-3	-18.3206E-3	-132.608E-12	677.270E-3	-28.8566E-3
-3.31416E-3	-136.130E-12	702.870E-3	-683.829E-6	-132.699E-12	675.333E-3	-45.3782E-3
-3.31916E-3	-135.504E-12	701.795E-3	12.3515E-3	-133.342E-12	700.818E-3	-25.2939E-3
-3.32416E-3	-135.206E-12	690.620E-3	-6.50865E-3	-133.587E-12	723.281E-3	-10.9241E-3
-3.32916E-3	-135.923E-12	690.289E-3	-15.2861E-3	-135.515E-12	713.055E-3	-7.46549E-3
-3.33417E-3	-135.814E-12	699.114E-3	-6.75230E-3	-135.982E-12	689.524E-3	4.69561E-3
-3.33917E-3	-134.982E-12	704.242E-3	-4.59711E-3	-136.384E-12	679.862E-3	10.4636E-3
-3.34417E-3	-134.764E-12	689.131E-3	1.88768E-3	-137.544E-12	672.236E-3	-12.2987E-3
-3.34917E-3	-135.243E-12	667.366E-3	-6.00877E-3	-138.656E-12	665.423E-3	-41.9307E-3
-3.35418E-3	-135.882E-12	667.427E-3	-11.7693E-3	-138.861E-12	687.936E-3	-54.7237E-3
-3.35918E-3	-135.914E-12	671.512E-3	15.4740E-3	-138.465E-12	699.965E-3	-49.1658E-3
-3.36418E-3	-136.627E-12	666.022E-3	20.3577E-3	-138.758E-12	673.040E-3	-22.1033E-3
-3.36918E-3	-136.703E-12	664.000E-3	-10.4573E-3	-138.731E-12	648.145E-3	-7.61556E-3
-3.37419E-3	-138.274E-12	664.699E-3	-25.8816E-3	-138.992E-12	644.341E-3	-32.9565E-3
-3.37919E-3	-138.919E-12	669.619E-3	-29.6747E-3	-137.533E-12	650.312E-3	-58.5182E-3
-3.38419E-3	-139.620E-12	684.979E-3	-38.6241E-3	-136.562E-12	661.362E-3	-60.2900E-3
-3.38919E-3	-139.341E-12	692.121E-3	-30.1004E-3	-137.070E-12	672.765E-3	-47.5147E-3
-3.39420E-3	-140.009E-12	684.079E-3	-7.71248E-3	-137.373E-12	686.120E-3	-19.9835E-3
-3.39920E-3	-141.137E-12	682.375E-3	-10.6033E-3	-137.488E-12	687.623E-3	-6.25221E-3
-3.40420E-3	-140.897E-12	689.824E-3	-25.6702E-3	-136.959E-12	675.243E-3	-22.8489E-3
-3.40920E-3	-139.698E-12	691.302E-3	-28.4396E-3	-137.139E-12	683.683E-3	-28.1393E-3
-3.41421E-3	-139.017E-12	678.503E-3	-34.8373E-3	-137.886E-12	713.049E-3	-11.9668E-3
-3.41921E-3	-139.294E-12	664.646E-3	-27.1826E-3	-139.324E-12	715.587E-3	-231.175E-6
-3.42421E-3	-138.882E-12	654.959E-3	8.35117E-3	-140.400E-12	708.322E-3	-5.92958E-3
-3.42921E-3	-137.776E-12	659.081E-3	15.4691E-3	-140.901E-12	724.939E-3	-24.0731E-3
-3.43422E-3	-137.445E-12	668.475E-3	-9.06123E-3	-141.558E-12	723.209E-3	-30.7084E-3
-3.43922E-3	-137.309E-12	664.491E-3	-19.0723E-3	-143.538E-12	704.926E-3	-18.0538E-3
-3.44422E-3	-137.621E-12	662.368E-3	-26.4054E-3	-144.557E-12	707.026E-3	-10.1871E-3
-3.44922E-3	-137.982E-12	666.612E-3	-30.2441E-3	-144.116E-12	710.504E-3	-25.8642E-3
-3.45423E-3	-139.282E-12	664.983E-3	-34.8752E-3	-143.565E-12	706.078E-3	-22.6106E-3
-3.45923E-3	-140.661E-12	668.773E-3	-63.8838E-3	-143.539E-12	711.542E-3	8.97353E-3
-3.46423E-3	-140.927E-12	679.858E-3	-75.1309E-3	-144.055E-12	712.691E-3	6.44150E-3
-3.46923E-3	-141.463E-12	684.085E-3	-53.2000E-3	-142.859E-12	705.618E-3	-4.77213E-3
-3.47424E-3	-142.775E-12	679.084E-3	-34.1560E-3	-141.049E-12	683.595E-3	-4.61075E-3
-3.47924E-3	-144.699E-12	670.506E-3	-8.96327E-3	-140.678E-12	640.159E-3	-23.4337E-3
-3.48424E-3	-145.013E-12	673.477E-3	14.4730E-3	-140.636E-12	618.112E-3	-29.2835E-3
-3.48924E-3	-145.252E-12	689.101E-3	6.42344E-3	-140.209E-12	636.594E-3	-15.8620E-3
-3.49425E-3	-145.476E-12	698.981E-3	-11.7761E-3	-139.286E-12	651.736E-3	-9.64603E-3
-3.49925E-3	-145.516E-12	698.099E-3	-22.0270E-3	-139.086E-12	633.867E-3	-6.39028E-3
-3.50425E-3	-145.363E-12	698.285E-3	-22.1663E-3	-139.769E-12	629.750E-3	-24.9034E-3
-3.50925E-3	-144.735E-12	702.067E-3	-1.36156E-3	-140.751E-12	672.244E-3	-54.7848E-3
-3.51426E-3	-144.368E-12	691.779E-3	9.04869E-3	-141.784E-12	711.586E-3	-53.2388E-3
-3.51926E-3	-143.339E-12	677.788E-3	-6.53699E-3	-142.545E-12	732.933E-3	-23.9402E-3
-3.52426E-3	-143.289E-12	678.716E-3	-19.3352E-3	-144.271E-12	732.157E-3	-1.79750E-3
-3.52926E-3	-143.282E-12	682.576E-3	-26.2925E-3	-144.692E-12	703.489E-3	-16.4382E-3
-3.53427E-3	-142.746E-12	675.014E-3	-41.4325E-3	-145.664E-12	691.984E-3	-33.5824E-3
-3.53927E-3	-142.151E-12	673.370E-3	-48.3413E-3	-146.585E-12	689.220E-3	-18.9848E-3
-3.54427E-3	-142.298E-12	683.278E-3	-33.2166E-3	-146.795E-12	673.452E-3	5.06324E-3
-3.54927E-3	-143.586E-12	682.449E-3	-29.0528E-3	-146.840E-12	656.097E-3	10.6015E-3
-3.55428E-3	-145.130E-12	678.628E-3	-34.9059E-3	-146.887E-12	648.177E-3	-9.68991E-3
-3.55928E-3	-145.006E-12	680.225E-3	-26.2581E-3	-147.442E-12	657.286E-3	-30.3538E-3
-3.56428E-3	-145.490E-12	689.529E-3	-25.2775E-3	-146.071E-12	680.267E-3	-8.58893E-3
-3.56928E-3	-146.166E-12	698.050E-3	-33.4140E-3	-145.227E-12	704.241E-3	37.0575E-3
-3.57429E-3	-147.665E-12	689.626E-3	-27.0995E-3	-144.449E-12	700.140E-3	50.1275E-3
-3.57929E-3	-148.347E-12	672.864E-3	-18.3889E-3	-145.546E-12	668.300E-3	30.4493E-3
-3.58429E-3	-148.149E-12	666.932E-3	-5.64105E-3	-145.135E-12	647.247E-3	1.09509E-3
-3.58929E-3	-148.653E-12	669.276E-3	10.0196E-3	-143.570E-12	653.769E-3	-12.3081E-3
-3.59430E-3	-148.810E-12	681.232E-3	-2.67746E-3	-143.470E-12	671.903E-3	-5.41098E-3
-3.59930E-3	-148.489E-12	700.454E-3	-20.8001E-3	-144.556E-12	681.718E-3	-205.540E-6
-3.60430E-3	-148.098E-12	692.370E-3	-7.62003E-3	-146.439E-12	681.437E-3	-4.88935E-3
-3.60930E-3	-147.346E-12	655.827E-3	2.41491E-3	-146.246E-12	679.361E-3	-16.9640E-3
-3.61431E-3	-147.291E-12	642.911E-3	-17.8715E-3	-146.506E-12	676.814E-3	-27.1959E-3
-3.61931E-3	-146.956E-12	660.679E-3	-29.9222E-3	-148.166E-12	681.382E-3	-30.6352E-3
-3.62431E-3	-146.761E-12	666.077E-3	-23.0348E-3	-149.114E-12	690.639E-3	-23.0466E-3
-3.62931E-3	-145.621E-12	657.310E-3	-26.1454E-3	-149.542E-12	691.949E-3	-10.6790E-3
-3.63432E-3	-146.493E-12	665.692E-3	-11.2147E-3	-149.434E-12	695.330E-3	-10.8938E-3
-3.63932E-3	-146.716E-12	681.372E-3	2.99759E-3	-149.932E-12	694.891E-3	-23.8549E-3
-3.64432E-3	-147.800E-12	680.579E-3	-28.9076E-3	-150.340E-12	680.525E-3	-40.5138E-3
-3.64932E-3	-146.540E-12	669.972E-3	-52.0246E-3	-151.282E-12	665.371E-3	-56.5000E-3
-3.65433E-3	-146.969E-12	663.623E-3	-43.0118E-3	-151.040E-12	667.919E-3	-45.0277E-3
-3.65933E-3	-148.019E-12	662.177E-3	-39.3247E-3	-150.873E-12	688.541E-3	-11.6365E-3
-3.66433E-3	-150.134E-12	643.313E-3	-38.3352E-3	-150.440E-12	696.943E-3	-3.13699E-3
-3.66933E-3	-149.630E-12	631.917E-3	-21.8229E-3	-151.093E-12	688.776E-3	-7.48885E-3
-3.67434E-3	-149.610E-12	652.751E-3	-10.4334E-3	-151.708E-12	671.550E-3	4.47313E-3
-3.67934E-3	-151.539E-12	662.862E-3	-4.42044E-3	-150.903E-12	639.937E-3	13.4731E-3
-3.68434E-3	-151.761E-12	665.627E-3	16.2557E-3	-149.901E-12	631.175E-3	-7.06205E-3
-3.68934E-3	-152.702E-12	664.738E-3	14.6378E-3	-151.261E-12	654.252E-3	-32.8764E-3
-3.69435E-3	-152.525E-12	658.881E-3	-8.66437E-3	-152.325E-12	673.057E-3	-36.5340E-3
-3.69935E-3	-154.726E-12	672.601E-3	-1.60323E-3	-151.836E-12	682.691E-3	-44.4656E-3
-3.70435E-3	-154.635E-12	685.751E-3	16.3581E-3	-150.679E-12	682.645E-3	-44.3843E-3
-3.70935E-3	-155.110E-12	690.543E-3	3.00101E-3	-152.151E-12	677.890E-3	-27.9095E-3
-3.71436E-3	-155.315E-12	689.967E-3	-25.2931E-3	-154.183E-12	678.396E-3	-26.3858E-3
-3.71936E-3	-154.789E-12	681.212E-3	-30.6431E-3	-154.267E-12	677.793E-3	-32.3819E-3
-3.72436E-3	-154.535E-12	676.233E-3	-18.3081E-3	-152.572E-12	682.370E-3	-34.4797E-3
-3.72936E-3	-154.223E-12	675.404E-3	3.06240E-3	-153.151E-12	678.080E-3	-26.5200E-3
-3.73437E-3	-154.777E-12	661.596E-3	2.80825E-3	-154.575E-12	655.589E-3	-25.3974E-3
-3.73937E-3	-153.896E-12	651.469E-3	-30.9280E-3	-155.822E-12	643.431E-3	-37.1007E-3
-3.74437E-3	-154.430E-12	676.643E-3	-40.3768E-3	-154.519E-12	654.140E-3	-24.0767E-3
-3.74937E-3	-153.907E-12	691.360E-3	-22.7351E-3	-154.816E-12	672.345E-3	18.1850E-3
-3.75438E-3	-153.567E-12	682.841E-3	-19.5756E-3	-156.668E-12	665.754E-3	27.1346E-3
-3.75938E-3	-154.242E-12	674.658E-3	-13.3899E-3	-157.021E-12	653.676E-3	-15.8485E-3
-3.76438E-3	-154.123E-12	658.277E-3	-3.59685E-3	-157.035E-12	663.300E-3	-38.4793E-3
-3.76938E-3	-154.514E-12	657.310E-3	-19.9509E-3	-156.005E-12	671.652E-3	-28.7794E-3
-3.77439E-3	-154.329E-12	666.262E-3	-25.6806E-3	-157.444E-12	670.930E-3	-24.5487E-3
-3.77939E-3	-156.032E-12	660.637E-3	-8.52992E-3	-157.764E-12	671.378E-3	-28.8187E-3
-3.78439E-3	-156.864E-12	661.883E-3	4.74567E-3	-158.029E-12	671.811E-3	-39.1552E-3
-3.78939E-3	-157.848E-12	669.520E-3	11.3894E-3	-156.876E-12	668.093E-3	-34.4803E-3
-3.79440E-3	-157.343E-12	668.037E-3	4.78306E-3	-156.348E-12	675.823E-3	-11.0820E-3
-3.79940E-3	-159.025E-12	670.596E-3	-1.77498E-3	-156.563E-12	689.036E-3	-8.14348E-3
-3.80440E-3	-160.578E-12	678.659E-3	10.5669E-3	-156.477E-12	692.371E-3	-1.00429E-3
-3.80940E-3	-159.817E-12	671.600E-3	12.8316E-3	-155.740E-12	679.995E-3	-1.52502E-3
-3.81441E-3	-159.538E-12	673.936E-3	-12.8537E-3	-154.727E-12	669.760E-3	-48.2068E-3
-3.81941E-3	-158.810E-12	698.649E-3	-32.2563E-3	-155.101E-12	661.110E-3	-65.3891E-3
-3.82441E-3	-160.372E-12	684.151E-3	-23.9278E-3	-154.928E-12	625.228E-3	-31.5488E-3
-3.82941E-3	-159.606E-12	650.609E-3	1.04054E-3	-154.889E-12	608.798E-3	3.33186E-3
-3.83442E-3	-157.179E-12	668.005E-3	12.2706E-3	-155.883E-12	635.454E-3	17.4966E-3
-3.83942E-3	-156.647E-12	691.079E-3	-3.05602E-3	-156.010E-12	669.841E-3	352.818E-6
-3.84442E-3	-157.265E-12	673.184E-3	-11.0378E-3	-156.128E-12	689.335E-3	-27.8506E-3
-3.84942E-3	-157.728E-12	662.596E-3	-7.44999E-3	-156.965E-12	677.990E-3	-42.8196E-3
-3.85443E-3	-155.322E-12	670.716E-3	-5.18452E-3	-159.045E-12	655.032E-3	-36.6484E-3
-3.85943E-3	-155.341E-12	667.973E-3	-4.57168E-3	-158.967E-12	649.854E-3	-23.8995E-3
-3.86443E-3	-156.604E-12	664.170E-3	-18.0760E-3	-159.900E-12	658.877E-3	-22.1034E-3
-3.86943E-3	-157.288E-12	651.694E-3	-26.3381E-3	-160.925E-12	685.340E-3	-2.33002E-3
-3.87444E-3	-156.914E-12	629.951E-3	-26.3198E-3	-162.986E-12	735.618E-3	19.0843E-3
-3.87944E-3	-157.880E-12	623.658E-3	-32.3853E-3	-163.230E-12	744.127E-3	13.5149E-3
-3.88444E-3	-159.022E-12	631.268E-3	-22.9002E-3	-162.686E-12	695.100E-3	-14.6688E-3
-3.88944E-3	-159.810E-12	658.544E-3	-7.46593E-3	-162.752E-12	657.887E-3	-48.6416E-3
-3.89445E-3	-160.950E-12	693.636E-3	-13.5642E-3	-162.454E-12	648.553E-3	-47.8678E-3
-3.89945E-3	-161.884E-12	685.348E-3	-23.9764E-3	-161.925E-12	671.069E-3	-8.59071E-3
-3.90445E-3	-162.825E-12	655.390E-3	-27.6853E-3	-160.583E-12	695.891E-3	28.7868E-3
-3.90945E-3	-163.070E-12	660.598E-3	-34.6039E-3	-160.391E-12	683.491E-3	27.2906E-3
-3.91446E-3	-163.542E-12	689.922E-3	-29.0677E-3	-159.280E-12	666.675E-3	-4.48449E-3
-3.91946E-3	-162.984E-12	704.775E-3	-15.1713E-3	-159.415E-12	661.304E-3	-23.0321E-3
-3.92446E-3	-163.474E-12	692.609E-3	-23.4807E-3	-159.768E-12	652.211E-3	-19.9684E-3
-3.92946E-3	-163.265E-12	678.622E-3	-44.2237E-3	-159.581E-12	640.930E-3	-7.67221E-3
-3.93447E-3	-163.749E-12	670.843E-3	-41.6627E-3	-161.038E-12	638.939E-3	-2.40026E-3
-3.93947E-3	-163.008E-12	659.179E-3	-29.3594E-3	-161.293E-12	655.108E-3	-27.0829E-3
-3.94447E-3	-162.750E-12	658.061E-3	-27.9513E-3	-163.442E-12	670.594E-3	-49.0130E-3
-3.94947E-3	-163.283E-12	650.943E-3	-30.2012E-3	-164.387E-12	689.259E-3	-44.2970E-3
-3.95448E-3	-162.735E-12	643.652E-3	-29.6594E-3	-165.404E-12	716.107E-3	-26.6733E-3
-3.95948E-3	-161.894E-12	657.360E-3	-6.74204E-3	-166.150E-12	719.644E-3	-3.68090E-3
-3.96448E-3	-161.869E-12	665.716E-3	7.24467E-3	-168.512E-12	700.994E-3	-661.621E-6
-3.96948E-3	-162.183E-12	668.569E-3	-14.6414E-3	-169.491E-12	687.826E-3	-26.0393E-3
-3.97449E-3	-162.400E-12	664.921E-3	-24.9891E-3	-169.026E-12	694.544E-3	-40.5901E-3
-3.97949E-3	-163.140E-12	642.587E-3	-18.4428E-3	-168.612E-12	691.789E-3	-39.9107E-3
-3.98449E-3	-162.824E-12	632.131E-3	-17.4122E-3	-169.543E-12	663.847E-3	-43.3137E-3
-3.98949E-3	-164.689E-12	653.702E-3	-17.1950E-3	-168.605E-12	659.792E-3	-56.0445E-3
-3.99450E-3	-164.913E-12	659.035E-3	-21.2415E-3	-166.900E-12	673.521E-3	-67.0509E-3
-3.99950E-3	-165.394E-12	637.205E-3	-19.9749E-3	-166.078E-12	693.489E-3	-49.4491E-3
-4.00450E-3	-166.021E-12	639.072E-3	-8.46654E-3	-166.087E-12	711.001E-3	-31.8494E-3
-4.00950E-3	-167.337E-12	664.459E-3	-11.4569E-3	-165.501E-12	677.954E-3	-29.2539E-3
-4.01451E-3	-167.195E-12	685.207E-3	-25.2778E-3	-163.677E-12	654.558E-3	-13.9297E-3
-4.01951E-3	-166.962E-12	688.370E-3	-35.2080E-3	-163.642E-12	659.978E-3	-19.0874E-3
-4.02451E-3	-167.556E-12	665.793E-3	-41.6117E-3	-164.177E-12	641.047E-3	-32.3503E-3
-4.02951E-3	-168.830E-12	641.160E-3	-34.0117E-3	-164.579E-12	629.514E-3	-15.8046E-3
-4.03452E-3	-168.863E-12	644.900E-3	-28.8268E-3	-164.602E-12	625.021E-3	-15.4242E-3
-4.03952E-3	-167.871E-12	662.120E-3	-31.6422E-3	-167.219E-12	628.890E-3	-32.2235E-3
-4.04452E-3	-167.789E-12	660.432E-3	-24.3367E-3	-167.975E-12	675.777E-3	-38.4623E-3
-4.04952E-3	-168.164E-12	628.399E-3	-29.9739E-3	-169.082E-12	710.382E-3	-33.0112E-3
-4.05453E-3	-167.093E-12	610.358E-3	-26.9085E-3	-170.263E-12	687.760E-3	104.344E-6
-4.05953E-3	-166.597E-12	637.109E-3	866.446E-6	-171.649E-12	655.512E-3	22.3788E-3
-4.06453E-3	-166.218E-12	663.560E-3	-10.7272E-3	-171.615E-12	640.388E-3	-11.8539E-3
-4.06953E-3	-165.962E-12	668.318E-3	-34.8813E-3	-172.151E-12	641.131E-3	-42.7710E-3
-4.07454E-3	-165.527E-12	665.377E-3	-22.2994E-3	-172.646E-12	668.516E-3	-25.7340E-3
-4.07954E-3	-165.573E-12	658.664E-3	-20.0700E-3	-172.402E-12	684.803E-3	-17.3394E-3
-4.08454E-3	-165.756E-12	656.587E-3	-25.0523E-3	-170.792E-12	666.875E-3	-39.4670E-3
-4.08954E-3	-166.690E-12	666.894E-3	-16.5019E-3	-170.739E-12	657.515E-3	-43.9384E-3
-4.09455E-3	-168.046E-12	678.740E-3	-20.9346E-3	-171.082E-12	664.037E-3	-38.1087E-3
-4.09955E-3	-168.499E-12	680.443E-3	-21.0698E-3	-170.312E-12	666.520E-3	-36.1367E-3
-4.10455E-3	-169.451E-12	670.593E-3	-1.00337E-3	-168.752E-12	671.276E-3	-1.94742E-3
-4.10955E-3	-170.125E-12	654.265E-3	12.0927E-3	-168.673E-12	654.623E-3	18.4512E-3
-4.11456E-3	-172.438E-12	644.078E-3	5.47560E-3	-169.360E-12	625.019E-3	-10.9934E-3
-4.11956E-3	-172.957E-12	654.219E-3	-3.55710E-3	-169.899E-12	642.164E-3	-30.0782E-3
-4.12456E-3	-172.039E-12	668.980E-3	-14.4627E-3	-169.814E-12	682.474E-3	-33.8396E-3
-4.12956E-3	-172.947E-12	667.661E-3	-11.4221E-3	-170.065E-12	688.020E-3	-29.2011E-3
-4.13457E-3	-174.120E-12	668.002E-3	20.6429E-3	-171.298E-12	678.070E-3	-11.9788E-3
-4.13957E-3	-174.339E-12	666.630E-3	25.5647E-3	-171.887E-12	687.549E-3	-6.54889E-3
-4.14457E-3	-173.491E-12	657.762E-3	-6.72696E-3	-173.242E-12	686.828E-3	-10.8496E-3
-4.14957E-3	-173.070E-12	646.849E-3	-28.5070E-3	-173.456E-12	659.329E-3	-15.2143E-3
-4.15458E-3	-173.267E-12	637.766E-3	-26.1558E-3	-174.016E-12	645.433E-3	-16.7490E-3
-4.15958E-3	-172.698E-12	643.218E-3	-21.1921E-3	-173.545E-12	650.262E-3	-15.7570E-3
-4.16458E-3	-171.477E-12	647.623E-3	-8.90071E-3	-174.632E-12	653.454E-3	-10.4621E-3
-4.16958E-3	-171.331E-12	630.324E-3	-1.45061E-3	-174.094E-12	674.814E-3	-21.9806E-3
-4.17459E-3	-172.019E-12	611.751E-3	-20.5902E-3	-174.721E-12	690.973E-3	-27.8764E-3
-4.17959E-3	-171.620E-12	624.138E-3	-28.1951E-3	-175.424E-12	669.081E-3	1.31039E-3
-4.18459E-3	-171.373E-12	636.389E-3	-18.7256E-3	-176.043E-12	651.639E-3	12.4037E-3
-4.18959E-3	-171.265E-12	637.951E-3	2.28628E-3	-174.819E-12	655.640E-3	-7.16908E-3
-4.19460E-3	-171.387E-12	677.048E-3	12.1993E-3	-174.172E-12	652.913E-3	-16.9773E-3
-4.19960E-3	-172.404E-12	707.672E-3	-14.5924E-3	-175.208E-12	647.330E-3	-24.0815E-3
-4.20460E-3	-173.653E-12	681.096E-3	-29.3943E-3	-175.385E-12	658.130E-3	-44.2154E-3
-4.20960E-3	-174.749E-12	664.205E-3	-8.70811E-3	-174.442E-12	661.749E-3	-56.6909E-3
-4.21461E-3	-176.312E-12	684.902E-3	12.9510E-3	-174.345E-12	655.992E-3	-50.1670E-3
-4.21961E-3	-176.194E-12	692.604E-3	1.17666E-3	-175.549E-12	659.581E-3	-28.7475E-3
-4.22461E-3	-177.265E-12	682.213E-3	-26.6274E-3	-176.435E-12	663.526E-3	-7.52241E-3
-4.22961E-3	-177.595E-12	677.679E-3	-27.2474E-3	-175.901E-12	672.459E-3	298.122E-6
-4.23462E-3	-178.334E-12	690.623E-3	-18.6723E-3	-175.602E-12	683.850E-3	-9.97655E-3
-4.23962E-3	-177.629E-12	726.202E-3	-13.4318E-3	-175.480E-12	673.850E-3	-17.7422E-3
-4.24462E-3	-177.088E-12	736.154E-3	3.01176E-3	-176.093E-12	655.387E-3	-11.3518E-3
-4.24962E-3	-176.122E-12	699.735E-3	5.77511E-3	-175.397E-12	646.145E-3	-22.9001E-3
-4.25463E-3	-176.318E-12	661.190E-3	-2.85942E-3	-174.576E-12	647.386E-3	-34.9056E-3
-4.25963E-3	-176.373E-12	639.906E-3	10.5260E-3	-174.777E-12	663.376E-3	-4.97943E-3
-4.26463E-3	-175.318E-12	638.027E-3	26.4009E-3	-175.821E-12	667.420E-3	21.4714E-3
-4.26963E-3	-174.445E-12	650.783E-3	11.3815E-3	-176.437E-12	654.572E-3	13.0935E-3
-4.27464E-3	-174.825E-12	639.921E-3	-20.2800E-3	-176.539E-12	663.502E-3	1.78796E-3
-4.27964E-3	-176.086E-12	620.885E-3	-27.5154E-3	-176.810E-12	686.266E-3	-11.8646E-3
-4.28464E-3	-175.644E-12	636.678E-3	-11.1208E-3	-177.737E-12	677.738E-3	-21.8787E-3
-4.28964E-3	-175.634E-12	665.744E-3	-2.20674E-3	-178.987E-12	660.091E-3	-11.3591E-3
-4.29465E-3	-176.949E-12	684.571E-3	766.959E-6	-179.425E-12	669.074E-3	-10.3733E-3
-4.29965E-3	-178.312E-12	674.030E-3	-144.261E-6	-180.094E-12	681.112E-3	-22.2715E-3
-4.30465E-3	-178.682E-12	653.302E-3	-5.63031E-3	-180.521E-12	670.577E-3	-30.3795E-3
-4.30965E-3	-179.702E-12	650.162E-3	3.72846E-3	-182.117E-12	647.053E-3	-39.7518E-3
-4.31466E-3	-180.875E-12	658.403E-3	15.8685E-3	-181.711E-12	634.276E-3	-27.9512E-3
-4.31966E-3	-181.163E-12	676.927E-3	16.9718E-3	-180.627E-12	646.019E-3	-7.33773E-3
-4.32466E-3	-181.539E-12	681.630E-3	16.4724E-3	-180.276E-12	673.357E-3	-4.26007E-3
-4.32966E-3	-181.462E-12	674.053E-3	6.16120E-3	-179.764E-12	673.284E-3	-8.94079E-3
-4.33467E-3	-182.391E-12	675.971E-3	-9.97385E-3	-180.576E-12	648.419E-3	-24.5705E-3
-4.33967E-3	-182.725E-12	674.880E-3	-14.7005E-3	-178.156E-12	645.443E-3	-29.6302E-3
-4.34467E-3	-183.175E-12	684.661E-3	-16.9209E-3	-177.924E-12	655.470E-3	-27.0492E-3
-4.34967E-3	-184.109E-12	697.391E-3	-27.7784E-3	-178.474E-12	670.660E-3	-37.3777E-3
-4.35468E-3	-184.839E-12	683.894E-3	-40.4231E-3	-178.340E-12	692.482E-3	-36.8802E-3
-4.35968E-3	-183.846E-12	671.622E-3	-45.3218E-3	-178.133E-12	695.122E-3	-36.4007E-3
-4.36468E-3	-183.567E-12	675.428E-3	-35.5001E-3	-178.579E-12	664.903E-3	-33.2358E-3
-4.36968E-3	-183.403E-12	684.576E-3	-11.8088E-3	-179.581E-12	639.074E-3	-27.2371E-3
-4.37469E-3	-183.849E-12	683.966E-3	1.12577E-3	-181.365E-12	636.766E-3	-44.7760E-3
-4.37969E-3	-183.583E-12	667.343E-3	-6.81275E-3	-182.341E-12	637.046E-3	-53.4601E-3
-4.38469E-3	-183.842E-12	649.353E-3	-14.9702E-3	-183.503E-12	665.022E-3	-38.7865E-3
-4.38969E-3	-184.016E-12	647.429E-3	-15.5468E-3	-185.269E-12	696.305E-3	-31.6129E-3
-4.39470E-3	-183.960E-12	657.210E-3	-4.56891E-3	-187.951E-12	691.351E-3	-27.7738E-3
-4.39970E-3	-183.430E-12	664.686E-3	1.11050E-3	-188.465E-12	691.335E-3	-16.0176E-3
-4.40470E-3	-183.496E-12	676.761E-3	3.34746E-3	-187.697E-12	681.643E-3	-12.7231E-3
-4.40970E-3	-183.627E-12	681.452E-3	21.4633E-3	-187.646E-12	663.110E-3	-8.72524E-3
-4.41471E-3	-184.716E-12	670.535E-3	17.4610E-3	-188.702E-12	668.410E-3	3.56397E-3
-4.41971E-3	-183.968E-12	677.742E-3	-27.2281E-3	-188.204E-12	665.872E-3	-2.12559E-3
-4.42471E-3	-183.603E-12	686.463E-3	-66.2583E-3	-185.549E-12	647.172E-3	-16.5389E-3
-4.42971E-3	-184.701E-12	663.070E-3	-69.7893E-3	-183.581E-12	637.913E-3	-2.92186E-3
-4.43472E-3	-185.751E-12	636.808E-3	-49.2083E-3	-182.669E-12	649.432E-3	13.8707E-3
-4.43972E-3	-186.006E-12	633.106E-3	-26.6251E-3	-183.027E-12	658.604E-3	16.7345E-3
-4.44472E-3	-186.357E-12	653.453E-3	-12.4598E-3	-181.994E-12	667.593E-3	12.4005E-3
-4.44972E-3	-186.276E-12	688.939E-3	-13.2785E-3	-180.484E-12	685.149E-3	-5.18057E-3
-4.45473E-3	-185.800E-12	702.987E-3	-17.7327E-3	-180.928E-12	701.304E-3	-21.2419E-3
-4.45973E-3	-185.818E-12	685.667E-3	-10.0467E-3	-183.009E-12	710.339E-3	-8.64791E-3
-4.46473E-3	-186.537E-12	659.243E-3	-8.58950E-3	-185.772E-12	716.831E-3	18.1999E-3
-4.46973E-3	-186.032E-12	661.089E-3	-18.6993E-3	-185.566E-12	710.079E-3	1.07544E-3
-4.47474E-3	-185.658E-12	681.986E-3	-19.1369E-3	-187.510E-12	689.134E-3	-25.8197E-3
-4.47974E-3	-184.669E-12	685.284E-3	-1.32138E-3	-189.582E-12	678.691E-3	-15.1017E-3
-4.48474E-3	-184.702E-12	669.530E-3	21.5740E-3	-192.567E-12	650.280E-3	-7.16071E-3
-4.48974E-3	-184.544E-12	638.582E-3	39.3881E-3	-193.491E-12	632.176E-3	-2.31761E-3
-4.49475E-3	-183.940E-12	645.020E-3	36.7953E-3	-193.525E-12	666.158E-3	-12.5093E-3
-4.49975E-3	-183.477E-12	690.457E-3	-12.0936E-6	-193.875E-12	690.160E-3	-35.7239E-3
-4.50475E-3	-182.914E-12	687.886E-3	-42.9218E-3	-193.478E-12	681.608E-3	-24.2802E-3
-4.50975E-3	-183.528E-12	654.084E-3	-46.1535E-3	-193.985E-12	675.765E-3	-16.2822E-3
-4.51476E-3	-183.767E-12	645.136E-3	-19.1806E-3	-192.744E-12	673.452E-3	-28.4029E-3
-4.51976E-3	-183.941E-12	653.001E-3	2.84106E-3	-191.079E-12	668.855E-3	-22.3537E-3
-4.52476E-3	-184.427E-12	662.486E-3	6.93134E-3	-188.121E-12	665.544E-3	-25.4968E-3
-4.52976E-3	-186.898E-12	657.501E-3	-9.11588E-3	-188.076E-12	659.868E-3	-40.8869E-3
-4.53477E-3	-188.439E-12	658.886E-3	-19.8700E-3	-187.814E-12	652.120E-3	-23.4266E-3
-4.53977E-3	-190.019E-12	668.409E-3	-23.7663E-3	-186.986E-12	641.655E-3	-4.11354E-3
-4.54477E-3	-189.219E-12	667.547E-3	-25.8718E-3	-185.967E-12	637.618E-3	-7.52095E-3
-4.54977E-3	-190.923E-12	670.496E-3	-12.6175E-3	-187.291E-12	633.903E-3	-23.0344E-3
-4.55478E-3	-192.682E-12	687.396E-3	-8.59290E-3	-188.090E-12	634.557E-3	-33.4592E-3
-4.55978E-3	-192.720E-12	693.536E-3	-19.3887E-3	-189.070E-12	662.953E-3	-9.06350E-3
-4.56478E-3	-191.880E-12	673.315E-3	-16.2436E-3	-189.748E-12	681.084E-3	4.34397E-3
-4.56978E-3	-192.083E-12	672.806E-3	-4.94212E-3	-191.325E-12	661.071E-3	-31.3944E-3
-4.57479E-3	-191.906E-12	683.139E-3	-14.9447E-3	-192.787E-12	650.277E-3	-70.5932E-3
-4.57979E-3	-192.140E-12	676.968E-3	-22.5219E-3	-194.269E-12	664.634E-3	-79.1431E-3
-4.58479E-3	-190.757E-12	669.419E-3	-12.4864E-3	-194.977E-12	679.312E-3	-64.0354E-3
-4.58979E-3	-190.052E-12	667.578E-3	-23.0985E-3	-195.475E-12	673.921E-3	-15.3737E-3
-4.59480E-3	-189.082E-12	681.462E-3	-26.7279E-3	-195.547E-12	667.403E-3	26.3201E-3
-4.59980E-3	-190.982E-12	684.849E-3	-19.4802E-3	-195.679E-12	683.253E-3	6.71916E-3
-4.60480E-3	-189.672E-12	671.525E-3	-33.1792E-3	-195.520E-12	695.889E-3	-22.7221E-3
-4.60980E-3	-190.792E-12	665.880E-3	-35.6658E-3	-193.893E-12	687.633E-3	-6.73037E-3
-4.61481E-3	-190.278E-12	655.791E-3	-11.1693E-3	-194.247E-12	665.460E-3	27.1288E-3
-4.61981E-3	-191.709E-12	652.516E-3	16.2605E-3	-193.670E-12	650.067E-3	32.5097E-3
-4.62481E-3	-193.782E-12	665.398E-3	22.9863E-3	-193.177E-12	635.827E-3	4.19800E-3
-4.62981E-3	-194.711E-12	655.734E-3	4.78859E-3	-192.166E-12	632.831E-3	-18.8968E-3
-4.63482E-3	-195.239E-12	633.839E-3	-24.4542E-3	-191.925E-12	641.963E-3	-12.3975E-3
-4.63982E-3	-196.779E-12	646.624E-3	-33.6121E-3	-191.833E-12	632.138E-3	-11.6103E-3
-4.64482E-3	-198.831E-12	672.073E-3	-11.0064E-3	-191.319E-12	619.232E-3	-17.0490E-3
-4.64982E-3	-198.299E-12	686.060E-3	9.20752E-3	-191.839E-12	629.773E-3	-16.5617E-3
-4.65483E-3	-197.720E-12	695.451E-3	5.41882E-3	-193.603E-12	645.226E-3	-21.0442E-3
-4.65983E-3	-198.185E-12	688.492E-3	-1.94446E-3	-193.917E-12	659.361E-3	-7.75716E-3
-4.66483E-3	-199.601E-12	674.733E-3	-7.46436E-3	-193.734E-12	671.165E-3	10.2049E-3
-4.66983E-3	-197.128E-12	682.239E-3	-1.30604E-3	-193.507E-12	659.532E-3	-15.1180E-3
-4.67484E-3	-195.056E-12	693.317E-3	14.4716E-3	-195.085E-12	638.015E-3	-42.3251E-3
-4.67984E-3	-194.992E-12	683.835E-3	7.90960E-3	-194.939E-12	634.211E-3	-31.4284E-3
-4.68484E-3	-195.330E-12	673.984E-3	-6.09669E-3	-194.467E-12	639.866E-3	-14.3774E-3
-4.68984E-3	-194.483E-12	657.810E-3	1.78782E-3	-194.221E-12	634.892E-3	5.17390E-3
-4.69485E-3	-193.007E-12	665.122E-3	19.9186E-3	-194.743E-12	645.563E-3	32.1314E-3
-4.69985E-3	-193.603E-12	689.360E-3	14.5891E-3	-195.414E-12	673.795E-3	26.7734E-3
-4.70485E-3	-194.892E-12	673.106E-3	-7.46836E-3	-195.950E-12	662.161E-3	-7.34092E-3
-4.70985E-3	-195.488E-12	655.644E-3	-30.0138E-3	-196.766E-12	636.634E-3	-30.1978E-3
-4.71486E-3	-196.872E-12	653.804E-3	-41.2195E-3	-197.864E-12	641.939E-3	-38.2791E-3
-4.71986E-3	-197.910E-12	647.828E-3	-30.0847E-3	-198.177E-12	649.106E-3	-28.9927E-3
-4.72486E-3	-199.533E-12	659.818E-3	-26.8007E-3	-199.433E-12	654.957E-3	-24.3429E-3
-4.72986E-3	-201.136E-12	675.883E-3	-33.4714E-3	-199.813E-12	667.008E-3	-48.4903E-3
-4.73487E-3	-202.298E-12	665.118E-3	-28.8301E-3	-200.176E-12	683.440E-3	-71.8914E-3
-4.73987E-3	-202.139E-12	648.759E-3	-21.6222E-3	-200.564E-12	692.320E-3	-59.8037E-3
-4.74487E-3	-202.042E-12	650.502E-3	-16.2696E-3	-201.110E-12	670.633E-3	-34.7006E-3
-4.74988E-3	-203.236E-12	674.136E-3	-30.2053E-3	-200.404E-12	655.365E-3	-10.4726E-3
-4.75488E-3	-202.922E-12	701.577E-3	-43.0275E-3	-200.337E-12	680.249E-3	5.09584E-3
-4.75988E-3	-203.200E-12	704.587E-3	-19.2050E-3	-199.093E-12	700.522E-3	7.15372E-3
-4.76488E-3	-202.042E-12	695.377E-3	-5.36085E-3	-197.982E-12	690.974E-3	10.2192E-3
-4.76988E-3	-201.250E-12	694.889E-3	-10.3289E-3	-197.517E-12	672.642E-3	-130.590E-6
-4.77489E-3	-200.717E-12	702.991E-3	-13.2925E-3	-196.846E-12	660.267E-3	-16.1911E-3
-4.77989E-3	-199.611E-12	718.704E-3	-17.7421E-3	-196.594E-12	667.877E-3	-23.9142E-3
-4.78489E-3	-199.148E-12	716.936E-3	-11.5769E-3	-197.713E-12	688.636E-3	-30.6054E-3
-4.78989E-3	-197.252E-12	690.030E-3	-9.21274E-3	-197.774E-12	689.204E-3	-19.5139E-3
-4.79490E-3	-198.406E-12	661.645E-3	-30.8961E-3	-198.666E-12	672.280E-3	-2.03913E-3
-4.79990E-3	-199.115E-12	648.901E-3	-49.6399E-3	-199.496E-12	669.272E-3	-15.7282E-3
-4.80490E-3	-199.898E-12	660.808E-3	-43.3314E-3	-201.321E-12	670.549E-3	-41.6850E-3
-4.80990E-3	-199.698E-12	666.242E-3	-40.6784E-3	-203.162E-12	670.898E-3	-48.8805E-3
-4.81491E-3	-200.328E-12	654.394E-3	-30.7181E-3	-204.161E-12	669.179E-3	-29.3449E-3
-4.81991E-3	-201.769E-12	674.087E-3	-12.2858E-3	-204.946E-12	666.668E-3	6.56534E-3
-4.82491E-3	-201.964E-12	697.970E-3	2.14678E-3	-206.660E-12	686.585E-3	3.10978E-3
-4.82991E-3	-203.081E-12	681.374E-3	32.4223E-3	-208.009E-12	693.596E-3	-32.4813E-3
-4.83492E-3	-202.682E-12	665.827E-3	40.3848E-3	-207.671E-12	698.814E-3	-63.4939E-3
-4.83992E-3	-204.271E-12	672.599E-3	27.0525E-3	-207.089E-12	709.213E-3	-67.9898E-3
-4.84492E-3	-204.829E-12	685.586E-3	13.9705E-3	-205.795E-12	681.758E-3	-33.4875E-3
-4.84992E-3	-204.758E-12	693.670E-3	-12.2425E-3	-205.601E-12	656.004E-3	-12.4062E-3
-4.85493E-3	-205.187E-12	709.727E-3	-35.8226E-3	-202.499E-12	663.437E-3	8.30773E-3
-4.85993E-3	-205.383E-12	719.513E-3	-33.8546E-3	-200.596E-12	683.338E-3	35.8938E-3
-4.86493E-3	-204.498E-12	702.848E-3	-5.25821E-3	-198.766E-12	677.524E-3	26.2933E-3
-4.86993E-3	-203.761E-12	695.214E-3	-5.25284E-3	-200.444E-12	640.459E-3	7.55974E-3
-4.87494E-3	-204.653E-12	702.083E-3	-31.1375E-3	-199.460E-12	624.813E-3	10.1983E-3
-4.87994E-3	-205.360E-12	683.842E-3	-44.3262E-3	-198.626E-12	639.183E-3	8.27529E-3
-4.88494E-3	-205.094E-12	660.564E-3	-54.3951E-3	-198.927E-12	657.603E-3	-12.1554E-3
-4.88995E-3	-204.596E-12	666.869E-3	-50.7538E-3	-201.696E-12	660.527E-3	-31.7693E-3
-4.89495E-3	-205.605E-12	680.854E-3	-37.5834E-3	-203.309E-12	662.903E-3	-27.6232E-3
-4.89995E-3	-205.127E-12	683.557E-3	-36.8296E-3	-204.392E-12	696.335E-3	-13.5766E-3
-4.90495E-3	-204.056E-12	657.292E-3	-43.2190E-3	-206.381E-12	716.368E-3	-16.4626E-3
-4.90995E-3	-203.634E-12	626.069E-3	-55.4741E-3	-208.924E-12	707.566E-3	-27.2729E-3
-4.91496E-3	-204.541E-12	627.404E-3	-63.5641E-3	-210.571E-12	698.684E-3	-33.6680E-3
-4.91996E-3	-204.822E-12	650.145E-3	-48.3703E-3	-211.340E-12	696.284E-3	-33.4680E-3
-4.92496E-3	-203.612E-12	662.469E-3	-24.9484E-3	-212.422E-12	676.148E-3	-32.4020E-3
-4.92996E-3	-203.515E-12	655.328E-3	-15.9178E-3	-213.485E-12	650.521E-3	-51.1921E-3
-4.93497E-3	-204.191E-12	661.924E-3	120.910E-6	-212.485E-12	657.366E-3	-43.0542E-3
-4.93997E-3	-205.402E-12	659.749E-3	14.5258E-3	-210.308E-12	660.879E-3	2.84720E-3
-4.94497E-3	-205.842E-12	642.784E-3	-5.18053E-3	-210.451E-12	648.450E-3	-3.65059E-3
-4.94997E-3	-207.609E-12	655.239E-3	-23.2356E-3	-209.875E-12	649.491E-3	-34.4598E-3
-4.95498E-3	-208.396E-12	677.561E-3	-27.2810E-3	-207.736E-12	658.097E-3	-21.8350E-3
-4.95998E-3	-211.302E-12	676.767E-3	-34.7347E-3	-205.121E-12	653.563E-3	6.56826E-3
-4.96498E-3	-211.563E-12	673.532E-3	-41.0224E-3	-204.371E-12	654.437E-3	24.3646E-3
-4.96998E-3	-211.825E-12	679.104E-3	-33.5991E-3	-205.145E-12	661.089E-3	20.9490E-3
-4.97499E-3	-212.534E-12	678.235E-3	-16.0624E-3	-204.436E-12	659.636E-3	3.85201E-3
-4.97999E-3	-213.936E-12	696.200E-3	-4.07741E-3	-203.878E-12	665.060E-3	-19.4540E-3
-4.98499E-3	-214.742E-12	735.867E-3	12.8934E-3	-205.414E-12	670.459E-3	-39.6930E-3
-4.98999E-3	-213.866E-12	740.489E-3	35.5986E-3	-208.096E-12	679.847E-3	-22.0127E-3
-4.99500E-3	-212.765E-12	706.517E-3	31.8482E-3	-209.530E-12	690.117E-3	4.15693E-3
-5.00000E-3	-210.813E-12	686.690E-3	3.75452E-3	-210.691E-12	688.882E-3	-956.787E-6
