Experiment	bias spectroscopy	
Date	19.01.2016 20:12:58	
User		
X (m)	50.5632E-9	
Y (m)	257.125E-9	
Z (m)	-132.592E-9	
Z offset (m)	0E+0	
Settling time (s)	200E-6	
Integration time (s)	5E-3	
Z-Ctrl hold	TRUE	
Final Z (m)	N/A	
Filter type	None	
Order		
Cutoff frq		
Comment01	MnPc/Pb(111)	
Comment02	dz =00pm	
Comment03	7 Sweeps	
Comment04	MagField =0.T	
Comment05	Divider 1:10	
Comment06	Setpoint:5mV,200 pA	
Comment07	Lockin: 50uVrms,5ms,5mV	
Comment08	Gain:9; 912Hz modulation	
Comment09	T=1.06K	
Bias>Bias (V)	5E-3	
Bias>Calibration (V/V)	81.475E-3	
Bias>Offset (V)	1.046E-3	
Bias Spectroscopy>Sweep Start (V)	5E-3	
Bias Spectroscopy>Sweep End (V)	-5E-3	
Bias Spectroscopy>Num Pixel	2000	
Bias Spectroscopy>Z Avg time (s)	500E-3	
Bias Spectroscopy>Z offset (m)	0E+0	
Bias Spectroscopy>1st Settling time (s)	500E-3	
Bias Spectroscopy>Settling time (s)	200E-6	
Bias Spectroscopy>Integration time (s)	5E-3	
Bias Spectroscopy>End Settling time (s)	500E-3	
Bias Spectroscopy>Z control time (s)	500E-3	
Bias Spectroscopy>Max Slew rate (V/s)	Inf	
Bias Spectroscopy>backward sweep	TRUE	
Bias Spectroscopy>Z-controller hold	TRUE	
Bias Spectroscopy>Number of sweeps	7	
Bias Spectroscopy>Channels	Current (A);X% LockIn (V);Y% LockIn (V)	
Bias Spectroscopy>Reset Bias	TRUE	
Bias Spectroscopy>Record final Z	FALSE	
Bias Spectroscopy>Lock-In run	FALSE	
Bias Spectroscopy>Sweep mode	Linear	
Bias Spectroscopy>MultiLine Settings : Segment Start (V), Segment End (V), Settling (s), Integration (s), Steps (xn)	100E-3,3.3E-3,100E-6,10E-3,2500;3.3E-3,-3.3E-3,100E-6,10E-3,10;-3.3E-3,-100E-3,100E-6,10E-3,2500	
Current>Current (A)	200.502E-12	
Current>Calibration (A/V)	999.99900E-12	
Current>Offset (A)	-455.429E-15	
Current>Gain	LN 10^9	
Z-Controller>Z (m)	-132.598E-9	
Z-Controller>Controller name	log Current	
Z-Controller>Controller status	ON	
Z-Controller>Setpoint	200E-12	
Z-Controller>Setpoint unit	A	
Z-Controller>P gain	2.96994E-12	
Z-Controller>I gain	67.0321E-9	
Z-Controller>Time const (s)	44.3062E-6	
Z-Controller>TipLift (m)	0E+0	
Z-Controller>Switch off delay (s)	50E-3	
Current (A)	201.545E-12	
Z (m)	-132.598E-9	

[DATA]
Bias calc (V)	Current (A)	X% LockIn (V)	Y% LockIn (V)	Current [bwd] (A)	X% LockIn [bwd] (V)	Y% LockIn [bwd] (V)
5.00000E-3	187.518E-12	530.964E-3	-49.2096E-3	185.253E-12	586.802E-3	9.73043E-3
4.99500E-3	185.093E-12	569.186E-3	5.58645E-3	185.417E-12	588.807E-3	-371.739E-6
4.98999E-3	183.223E-12	589.790E-3	52.8568E-3	185.138E-12	573.960E-3	-2.89344E-3
4.98499E-3	184.695E-12	568.243E-3	35.9342E-3	184.363E-12	558.134E-3	10.9202E-3
4.97999E-3	184.232E-12	533.022E-3	12.8100E-3	183.447E-12	539.961E-3	-2.19672E-3
4.97499E-3	185.362E-12	515.580E-3	-12.2387E-3	181.927E-12	520.901E-3	-24.3619E-3
4.96998E-3	183.648E-12	539.115E-3	-38.6019E-3	182.959E-12	532.365E-3	-2.05491E-3
4.96498E-3	186.314E-12	569.119E-3	-46.0842E-3	181.823E-12	549.108E-3	19.4206E-3
4.95998E-3	184.635E-12	585.086E-3	-40.0144E-3	181.305E-12	548.360E-3	11.6788E-3
4.95498E-3	186.775E-12	568.203E-3	-39.6179E-3	180.608E-12	545.237E-3	20.0423E-3
4.94997E-3	186.694E-12	528.469E-3	-42.1725E-3	181.401E-12	546.231E-3	21.1076E-3
4.94497E-3	186.213E-12	538.742E-3	-29.3472E-3	183.094E-12	552.515E-3	187.317E-6
4.93997E-3	186.225E-12	559.310E-3	-18.2637E-3	182.060E-12	555.791E-3	-24.7598E-3
4.93497E-3	185.880E-12	547.832E-3	-17.5215E-3	181.179E-12	551.047E-3	-45.6650E-3
4.92996E-3	187.456E-12	528.737E-3	-2.41189E-3	181.352E-12	542.487E-3	-58.3656E-3
4.92496E-3	184.382E-12	522.788E-3	4.46194E-3	182.233E-12	558.254E-3	-37.3098E-3
4.91996E-3	184.038E-12	527.322E-3	-10.0904E-3	182.706E-12	586.868E-3	14.8695E-3
4.91496E-3	182.697E-12	541.304E-3	-16.4695E-3	181.892E-12	599.748E-3	34.3470E-3
4.90995E-3	183.044E-12	538.699E-3	-19.5567E-3	181.616E-12	587.973E-3	2.72750E-3
4.90495E-3	182.560E-12	519.300E-3	-9.54306E-3	180.929E-12	579.425E-3	-46.3522E-3
4.89995E-3	179.384E-12	521.041E-3	1.41577E-3	182.877E-12	571.901E-3	-53.7024E-3
4.89495E-3	178.610E-12	538.062E-3	5.58853E-3	181.512E-12	528.343E-3	-34.1795E-3
4.88995E-3	176.614E-12	537.296E-3	8.23804E-3	181.296E-12	508.403E-3	-34.3974E-3
4.88494E-3	177.851E-12	519.416E-3	-4.54213E-3	180.697E-12	526.967E-3	-42.3562E-3
4.87994E-3	177.415E-12	519.382E-3	-21.6334E-3	181.013E-12	523.707E-3	-36.6924E-3
4.87494E-3	175.987E-12	532.466E-3	-24.6224E-3	181.404E-12	517.072E-3	-15.4765E-3
4.86993E-3	174.801E-12	554.755E-3	-4.95917E-3	178.764E-12	524.925E-3	-10.2564E-3
4.86493E-3	175.387E-12	574.431E-3	12.9929E-3	177.853E-12	526.703E-3	-17.8157E-3
4.85993E-3	177.194E-12	558.299E-3	-4.72039E-3	177.967E-12	532.432E-3	-4.95169E-3
4.85493E-3	176.847E-12	535.832E-3	-33.5192E-3	179.871E-12	552.990E-3	7.35780E-3
4.84992E-3	177.407E-12	546.293E-3	-28.6985E-3	179.329E-12	577.685E-3	4.22485E-3
4.84492E-3	176.581E-12	557.731E-3	-21.3951E-3	176.217E-12	592.863E-3	15.0995E-3
4.83992E-3	180.349E-12	558.647E-3	-27.0042E-3	176.072E-12	600.719E-3	32.5185E-3
4.83492E-3	178.910E-12	546.004E-3	-27.7985E-3	177.182E-12	582.020E-3	10.7508E-3
4.82991E-3	178.907E-12	518.230E-3	-16.2520E-3	178.442E-12	541.360E-3	-14.4273E-3
4.82491E-3	178.081E-12	510.716E-3	2.38735E-3	176.149E-12	520.463E-3	-4.61944E-3
4.81991E-3	179.319E-12	510.174E-3	7.06023E-3	175.323E-12	531.861E-3	-18.8669E-3
4.81491E-3	178.990E-12	531.292E-3	-7.55383E-3	176.314E-12	545.546E-3	-36.2293E-3
4.80990E-3	177.302E-12	554.690E-3	-20.7200E-3	177.771E-12	543.475E-3	-18.0632E-3
4.80490E-3	179.604E-12	538.875E-3	-22.2980E-3	176.816E-12	520.205E-3	-13.7199E-3
4.79990E-3	178.586E-12	531.427E-3	-9.18212E-3	174.771E-12	498.597E-3	-10.3483E-3
4.79490E-3	177.925E-12	533.094E-3	9.10280E-3	175.495E-12	517.863E-3	-15.2768E-3
4.78989E-3	176.180E-12	539.948E-3	-382.682E-6	177.878E-12	551.962E-3	-41.2580E-3
4.78489E-3	175.118E-12	576.203E-3	-7.12176E-3	176.489E-12	583.103E-3	-36.2803E-3
4.77989E-3	174.520E-12	589.008E-3	1.79843E-3	174.399E-12	587.583E-3	-26.4060E-3
4.77489E-3	173.474E-12	568.127E-3	-4.98668E-3	175.262E-12	552.598E-3	-39.3920E-3
4.76988E-3	174.627E-12	543.888E-3	-14.7221E-3	177.046E-12	528.120E-3	-30.7133E-3
4.76488E-3	175.229E-12	526.437E-3	-16.6547E-3	176.148E-12	543.324E-3	-20.4053E-3
4.75988E-3	176.521E-12	549.242E-3	-10.5215E-3	173.808E-12	548.503E-3	-26.3567E-3
4.75488E-3	175.198E-12	562.519E-3	-1.78864E-3	174.150E-12	534.593E-3	-8.75198E-3
4.74988E-3	174.698E-12	543.245E-3	-21.5078E-3	175.165E-12	544.781E-3	8.56352E-3
4.74487E-3	175.214E-12	539.764E-3	-34.4352E-3	174.583E-12	553.838E-3	14.3044E-3
4.73987E-3	176.674E-12	542.661E-3	-10.6098E-3	172.933E-12	533.516E-3	31.0635E-3
4.73487E-3	177.319E-12	550.689E-3	11.7075E-3	170.466E-12	520.312E-3	53.9254E-3
4.72986E-3	178.122E-12	560.043E-3	24.2521E-3	171.732E-12	545.902E-3	44.3294E-3
4.72486E-3	176.543E-12	558.127E-3	2.72613E-3	172.058E-12	583.192E-3	841.658E-6
4.71986E-3	176.712E-12	579.300E-3	-32.6141E-3	172.065E-12	596.413E-3	-17.5748E-3
4.71486E-3	177.302E-12	591.108E-3	-51.6082E-3	171.964E-12	580.930E-3	-25.9707E-3
4.70985E-3	177.117E-12	559.853E-3	-60.6698E-3	173.426E-12	553.696E-3	-37.6565E-3
4.70485E-3	174.692E-12	555.222E-3	-41.3704E-3	173.465E-12	552.208E-3	-28.1606E-3
4.69985E-3	175.019E-12	567.672E-3	6.47519E-3	173.166E-12	577.782E-3	-21.1541E-3
4.69485E-3	176.616E-12	555.701E-3	22.9518E-3	172.654E-12	589.213E-3	-12.2857E-3
4.68984E-3	175.288E-12	563.812E-3	18.6646E-3	173.916E-12	581.524E-3	-454.356E-6
4.68484E-3	173.570E-12	594.957E-3	30.1751E-3	177.179E-12	568.599E-3	11.8836E-3
4.67984E-3	171.589E-12	588.637E-3	19.0778E-3	177.187E-12	556.377E-3	8.87896E-3
4.67484E-3	171.739E-12	565.559E-3	15.6821E-3	175.902E-12	552.208E-3	-30.1556E-3
4.66983E-3	172.721E-12	562.373E-3	30.6257E-3	174.786E-12	543.130E-3	-56.6683E-3
4.66483E-3	171.569E-12	557.613E-3	33.2749E-3	175.575E-12	543.391E-3	-34.6824E-3
4.65983E-3	171.156E-12	536.835E-3	13.2557E-3	174.806E-12	557.428E-3	5.16731E-3
4.65483E-3	169.387E-12	513.745E-3	-23.4090E-3	173.515E-12	557.270E-3	-10.4344E-3
4.64982E-3	171.043E-12	518.822E-3	-40.6470E-3	172.176E-12	567.453E-3	-44.9286E-3
4.64482E-3	172.389E-12	538.083E-3	-30.9081E-3	170.926E-12	579.067E-3	-39.5107E-3
4.63982E-3	171.246E-12	537.154E-3	-22.6630E-3	170.419E-12	565.055E-3	-48.0175E-3
4.63482E-3	171.071E-12	522.777E-3	-28.2891E-3	169.388E-12	541.742E-3	-64.4410E-3
4.62981E-3	171.880E-12	525.552E-3	-32.9424E-3	171.491E-12	534.449E-3	-44.9586E-3
4.62481E-3	171.705E-12	549.912E-3	-12.4491E-3	170.465E-12	549.055E-3	-7.75462E-3
4.61981E-3	171.921E-12	568.485E-3	17.3115E-3	168.944E-12	563.004E-3	4.95469E-3
4.61481E-3	171.531E-12	559.272E-3	1.73172E-3	168.134E-12	552.042E-3	-7.39002E-3
4.60980E-3	171.912E-12	552.754E-3	-37.7707E-3	169.044E-12	551.643E-3	-3.40585E-3
4.60480E-3	171.333E-12	560.070E-3	-60.1980E-3	170.429E-12	557.357E-3	-4.58628E-3
4.59980E-3	170.093E-12	570.628E-3	-57.8735E-3	169.600E-12	536.872E-3	-28.0692E-3
4.59480E-3	169.205E-12	604.239E-3	-39.5563E-3	169.411E-12	527.449E-3	-46.4414E-3
4.58979E-3	168.149E-12	618.551E-3	-24.7407E-3	170.181E-12	513.411E-3	-62.8475E-3
4.58479E-3	167.404E-12	597.144E-3	-17.1780E-3	171.763E-12	495.410E-3	-40.5995E-3
4.57979E-3	166.566E-12	583.770E-3	-19.6950E-3	169.515E-12	523.280E-3	-4.93665E-3
4.57479E-3	165.887E-12	577.436E-3	-23.7322E-3	170.705E-12	543.254E-3	-10.4310E-3
4.56978E-3	165.323E-12	566.065E-3	-5.50803E-3	169.980E-12	536.454E-3	-18.7048E-3
4.56478E-3	164.109E-12	565.669E-3	9.58881E-3	169.636E-12	555.932E-3	-17.4163E-3
4.55978E-3	164.934E-12	562.619E-3	7.46295E-3	168.428E-12	570.883E-3	-25.7270E-3
4.55478E-3	163.803E-12	556.248E-3	4.01176E-3	168.154E-12	551.423E-3	-29.9134E-3
4.54977E-3	164.985E-12	561.004E-3	-12.3497E-3	167.879E-12	518.418E-3	-417.244E-6
4.54477E-3	163.986E-12	553.958E-3	-28.7786E-3	167.747E-12	518.289E-3	27.2290E-3
4.53977E-3	165.145E-12	545.053E-3	-21.3341E-3	166.207E-12	550.677E-3	2.16114E-3
4.53477E-3	165.497E-12	538.532E-3	-8.02115E-3	164.477E-12	562.950E-3	-22.1198E-3
4.52976E-3	166.537E-12	522.654E-3	-19.5937E-3	165.665E-12	557.392E-3	-11.1716E-3
4.52476E-3	166.479E-12	519.231E-3	-34.6022E-3	166.071E-12	553.085E-3	-22.7658E-3
4.51976E-3	166.284E-12	534.685E-3	-27.7406E-3	166.521E-12	548.793E-3	-20.1092E-3
4.51476E-3	166.973E-12	545.344E-3	265.606E-6	164.871E-12	561.722E-3	-7.41206E-3
4.50975E-3	168.600E-12	535.457E-3	12.5236E-3	165.033E-12	553.216E-3	-33.5268E-3
4.50475E-3	166.982E-12	513.574E-3	-5.06551E-3	167.480E-12	523.583E-3	-40.0952E-3
4.49975E-3	165.412E-12	518.755E-3	-13.9735E-3	169.499E-12	537.502E-3	-38.3110E-3
4.49475E-3	166.055E-12	544.804E-3	-8.55642E-3	169.622E-12	559.390E-3	-46.4837E-3
4.48974E-3	167.115E-12	546.502E-3	-7.52435E-3	167.719E-12	559.883E-3	-38.9632E-3
4.48474E-3	165.783E-12	535.358E-3	-291.592E-6	168.007E-12	561.860E-3	-28.5699E-3
4.47974E-3	162.907E-12	554.108E-3	38.5024E-3	169.160E-12	557.811E-3	-18.3238E-3
4.47474E-3	162.262E-12	570.156E-3	50.8909E-3	170.615E-12	544.618E-3	-1.32874E-3
4.46973E-3	163.811E-12	541.459E-3	14.4810E-3	167.006E-12	539.732E-3	9.09100E-3
4.46473E-3	162.922E-12	525.228E-3	-13.0717E-3	166.817E-12	533.260E-3	-151.480E-6
4.45973E-3	160.492E-12	531.223E-3	-14.7296E-3	166.691E-12	520.742E-3	-11.5066E-3
4.45473E-3	160.653E-12	541.363E-3	-12.0385E-3	166.787E-12	523.377E-3	-3.68734E-3
4.44972E-3	163.337E-12	539.612E-3	-23.7528E-3	165.401E-12	535.300E-3	6.59565E-3
4.44472E-3	165.008E-12	518.140E-3	-37.0580E-3	163.291E-12	545.039E-3	9.45950E-3
4.43972E-3	162.244E-12	508.854E-3	-60.8519E-3	162.529E-12	539.314E-3	14.0664E-3
4.43472E-3	160.295E-12	506.218E-3	-63.4558E-3	164.704E-12	523.992E-3	4.66837E-3
4.42971E-3	162.026E-12	505.216E-3	-29.0859E-3	163.819E-12	525.378E-3	-26.3044E-3
4.42471E-3	164.572E-12	514.574E-3	41.0071E-6	161.035E-12	542.240E-3	-58.6501E-3
4.41971E-3	164.871E-12	523.595E-3	-9.47089E-3	160.842E-12	560.620E-3	-83.9744E-3
4.41471E-3	163.766E-12	527.984E-3	-28.6497E-3	162.884E-12	555.590E-3	-73.5081E-3
4.40970E-3	162.855E-12	531.059E-3	-35.2172E-3	164.275E-12	543.451E-3	-28.2142E-3
4.40470E-3	163.974E-12	536.259E-3	-34.4618E-3	161.760E-12	549.555E-3	-26.3771E-3
4.39970E-3	166.431E-12	555.309E-3	-19.7993E-3	160.349E-12	540.515E-3	-51.8419E-3
4.39470E-3	165.884E-12	575.062E-3	-6.44276E-3	160.059E-12	517.389E-3	-40.6914E-3
4.38969E-3	164.736E-12	582.101E-3	6.23350E-3	161.381E-12	524.345E-3	-22.9860E-3
4.38469E-3	163.267E-12	576.470E-3	193.229E-6	161.666E-12	547.526E-3	-28.0839E-3
4.37969E-3	165.104E-12	584.526E-3	-3.20675E-3	160.318E-12	549.667E-3	-38.3260E-3
4.37469E-3	163.994E-12	601.496E-3	17.2438E-3	159.482E-12	527.506E-3	-26.7020E-3
4.36968E-3	161.354E-12	591.833E-3	29.9665E-3	159.299E-12	504.886E-3	-4.97529E-3
4.36468E-3	159.727E-12	553.765E-3	12.4655E-3	158.443E-12	507.015E-3	10.7344E-3
4.35968E-3	160.413E-12	514.279E-3	-9.03458E-3	158.226E-12	530.717E-3	9.99304E-3
4.35468E-3	162.472E-12	527.937E-3	-6.14279E-3	158.490E-12	549.369E-3	-15.2831E-3
4.34967E-3	160.293E-12	574.867E-3	7.45685E-3	158.369E-12	545.309E-3	-24.8090E-3
4.34467E-3	158.773E-12	586.189E-3	11.8715E-3	158.316E-12	549.099E-3	-9.26246E-3
4.33967E-3	158.090E-12	574.718E-3	886.003E-6	157.151E-12	554.718E-3	8.32051E-3
4.33467E-3	160.967E-12	570.697E-3	-11.2864E-3	157.987E-12	533.059E-3	17.7863E-3
4.32966E-3	158.878E-12	566.283E-3	-13.5107E-3	158.259E-12	524.612E-3	13.2292E-3
4.32466E-3	158.685E-12	579.018E-3	-15.5123E-3	156.156E-12	543.478E-3	1.66018E-3
4.31966E-3	157.998E-12	591.858E-3	-21.2950E-3	155.648E-12	546.668E-3	8.46408E-3
4.31466E-3	158.491E-12	576.592E-3	-18.8920E-3	155.570E-12	526.724E-3	11.3561E-3
4.30965E-3	160.457E-12	557.067E-3	-16.7550E-3	154.561E-12	519.294E-3	-27.3179E-3
4.30465E-3	159.301E-12	553.144E-3	-6.43288E-3	154.297E-12	535.668E-3	-47.7561E-3
4.29965E-3	158.290E-12	550.914E-3	1.25807E-3	152.677E-12	553.935E-3	-21.9952E-3
4.29465E-3	157.354E-12	542.618E-3	5.50719E-3	153.245E-12	561.062E-3	-7.04943E-3
4.28964E-3	158.839E-12	560.610E-3	8.06111E-3	153.998E-12	547.152E-3	-15.8738E-3
4.28464E-3	159.194E-12	592.268E-3	17.9982E-3	152.839E-12	538.425E-3	-28.6973E-3
4.27964E-3	158.154E-12	583.405E-3	42.6879E-3	153.567E-12	560.638E-3	-23.2031E-3
4.27464E-3	156.333E-12	558.410E-3	24.0910E-3	154.544E-12	569.900E-3	-20.8461E-3
4.26963E-3	155.613E-12	555.549E-3	-17.0018E-3	158.163E-12	552.470E-3	-31.3039E-3
4.26463E-3	156.798E-12	541.768E-3	-23.6628E-3	157.746E-12	553.966E-3	-8.80326E-3
4.25963E-3	155.895E-12	538.153E-3	-6.41643E-3	156.740E-12	570.379E-3	-450.833E-6
4.25463E-3	154.928E-12	547.439E-3	15.2606E-3	157.656E-12	564.366E-3	-9.94139E-3
4.24962E-3	152.770E-12	533.500E-3	14.7832E-3	159.992E-12	569.534E-3	19.4467E-3
4.24462E-3	154.496E-12	515.785E-3	-6.96552E-3	161.602E-12	581.659E-3	16.5346E-3
4.23962E-3	153.391E-12	515.681E-3	-18.0345E-3	158.934E-12	555.940E-3	-10.5753E-3
4.23462E-3	152.135E-12	536.660E-3	-13.3591E-3	155.921E-12	551.777E-3	-8.51916E-3
4.22961E-3	153.682E-12	562.633E-3	6.47308E-3	156.595E-12	584.876E-3	-13.9105E-3
4.22461E-3	153.286E-12	558.472E-3	-2.58335E-3	159.396E-12	584.056E-3	-13.1605E-3
4.21961E-3	154.642E-12	523.639E-3	-49.3269E-3	158.174E-12	552.657E-3	-2.06168E-3
4.21461E-3	153.756E-12	506.873E-3	-79.9263E-3	155.248E-12	538.212E-3	-1.79318E-3
4.20960E-3	154.402E-12	511.233E-3	-83.1496E-3	155.212E-12	555.118E-3	1.55008E-3
4.20460E-3	154.841E-12	530.264E-3	-58.0949E-3	155.784E-12	588.160E-3	-3.37113E-3
4.19960E-3	155.902E-12	546.881E-3	-34.5583E-3	156.545E-12	587.397E-3	-35.4608E-3
4.19460E-3	155.730E-12	549.663E-3	-31.1989E-3	155.132E-12	557.356E-3	-43.6450E-3
4.18959E-3	155.342E-12	567.619E-3	-25.8244E-3	154.515E-12	545.699E-3	-2.47060E-3
4.18459E-3	155.399E-12	579.325E-3	-1.31635E-3	156.135E-12	547.461E-3	24.8578E-3
4.17959E-3	155.333E-12	572.089E-3	20.6801E-3	155.434E-12	574.690E-3	14.5478E-3
4.17459E-3	154.982E-12	555.375E-3	5.62622E-3	157.318E-12	588.034E-3	-5.55732E-3
4.16958E-3	152.945E-12	533.352E-3	-20.6155E-3	157.277E-12	579.589E-3	681.720E-6
4.16458E-3	151.593E-12	531.571E-3	-22.3035E-3	159.076E-12	589.399E-3	19.5786E-3
4.15958E-3	151.437E-12	540.340E-3	-7.62755E-3	157.726E-12	588.773E-3	16.8821E-3
4.15458E-3	152.952E-12	541.196E-3	-12.7964E-3	157.866E-12	580.167E-3	2.24730E-3
4.14957E-3	151.606E-12	550.338E-3	-37.5396E-3	159.824E-12	573.559E-3	-15.8383E-3
4.14457E-3	150.509E-12	561.230E-3	-49.5817E-3	158.035E-12	574.783E-3	-36.0069E-3
4.13957E-3	150.201E-12	565.901E-3	-41.5853E-3	157.712E-12	589.773E-3	-35.0347E-3
4.13457E-3	150.570E-12	558.683E-3	-34.3318E-3	154.927E-12	601.640E-3	-18.8044E-3
4.12956E-3	150.210E-12	533.017E-3	-37.1317E-3	156.271E-12	591.087E-3	-16.8297E-3
4.12456E-3	150.474E-12	526.007E-3	-44.4309E-3	155.460E-12	571.926E-3	-14.5542E-3
4.11956E-3	149.664E-12	553.312E-3	-39.9754E-3	156.558E-12	562.368E-3	10.1541E-3
4.11456E-3	150.124E-12	570.815E-3	-28.2261E-3	153.723E-12	559.824E-3	12.9766E-3
4.10955E-3	151.057E-12	547.753E-3	-24.8940E-3	151.534E-12	566.359E-3	-20.4419E-3
4.10455E-3	152.172E-12	522.416E-3	-23.4019E-3	152.711E-12	559.530E-3	-40.7632E-3
4.09955E-3	152.332E-12	519.323E-3	-2.77140E-3	155.208E-12	544.570E-3	-49.6502E-3
4.09455E-3	151.217E-12	543.107E-3	4.42395E-3	151.969E-12	541.395E-3	-43.8235E-3
4.08954E-3	152.421E-12	568.528E-3	-21.1386E-3	149.002E-12	544.821E-3	-30.3106E-3
4.08454E-3	153.706E-12	571.900E-3	-22.1774E-3	149.013E-12	553.586E-3	-51.8340E-3
4.07954E-3	152.471E-12	571.095E-3	-18.3700E-3	151.310E-12	562.494E-3	-55.9653E-3
4.07454E-3	151.352E-12	577.779E-3	-23.6472E-3	151.588E-12	577.417E-3	-7.93242E-3
4.06953E-3	150.250E-12	580.726E-3	-20.4610E-3	149.945E-12	580.470E-3	8.54647E-3
4.06453E-3	150.753E-12	577.085E-3	-29.4697E-3	149.048E-12	575.975E-3	-12.6712E-3
4.05953E-3	149.561E-12	579.019E-3	-40.2803E-3	150.514E-12	576.953E-3	-17.5306E-3
4.05453E-3	148.465E-12	582.394E-3	-32.4233E-3	150.141E-12	557.484E-3	-21.4337E-3
4.04952E-3	147.419E-12	594.450E-3	-20.0684E-3	149.969E-12	532.064E-3	-38.5258E-3
4.04452E-3	146.479E-12	597.978E-3	274.693E-6	149.393E-12	537.524E-3	-40.1308E-3
4.03952E-3	146.920E-12	560.554E-3	2.29327E-3	149.137E-12	560.365E-3	-20.5025E-3
4.03452E-3	145.941E-12	513.173E-3	-10.8027E-3	148.275E-12	556.637E-3	-7.81757E-3
4.02951E-3	145.689E-12	522.822E-3	-1.24483E-3	147.666E-12	534.534E-3	-25.9990E-3
4.02451E-3	144.842E-12	550.788E-3	4.72505E-3	146.772E-12	522.117E-3	-31.5354E-3
4.01951E-3	144.586E-12	546.168E-3	4.47866E-3	146.501E-12	539.451E-3	9.93793E-3
4.01451E-3	145.274E-12	539.080E-3	-2.16521E-3	144.013E-12	576.921E-3	27.0091E-3
4.00950E-3	146.080E-12	549.888E-3	-8.26403E-3	142.980E-12	569.975E-3	6.95209E-3
4.00450E-3	146.381E-12	562.602E-3	-3.94554E-3	144.194E-12	536.186E-3	1.66996E-3
3.99950E-3	146.201E-12	566.511E-3	-3.79245E-3	145.071E-12	532.693E-3	-1.03742E-3
3.99450E-3	146.745E-12	558.011E-3	-6.25699E-3	143.288E-12	534.211E-3	-16.7328E-3
3.98949E-3	146.435E-12	537.391E-3	-12.1448E-3	141.807E-12	541.540E-3	-26.2210E-3
3.98449E-3	146.385E-12	555.634E-3	-30.0244E-3	143.587E-12	563.395E-3	-3.11598E-3
3.97949E-3	146.974E-12	580.849E-3	-19.8774E-3	143.647E-12	566.297E-3	14.3150E-3
3.97449E-3	147.304E-12	566.328E-3	22.0598E-3	144.318E-12	551.375E-3	-2.87312E-3
3.96948E-3	145.817E-12	560.198E-3	41.4991E-3	142.488E-12	537.932E-3	-7.62263E-3
3.96448E-3	145.219E-12	582.471E-3	23.9566E-3	143.686E-12	539.351E-3	-13.0539E-3
3.95948E-3	146.455E-12	598.216E-3	-16.5916E-3	143.969E-12	562.263E-3	-44.2104E-3
3.95448E-3	147.278E-12	568.547E-3	-48.2178E-3	143.594E-12	581.860E-3	-63.0123E-3
3.94947E-3	147.229E-12	531.951E-3	-48.2849E-3	143.854E-12	581.074E-3	-52.9879E-3
3.94447E-3	144.333E-12	532.570E-3	-15.4903E-3	145.433E-12	585.767E-3	-22.9029E-3
3.93947E-3	144.472E-12	547.768E-3	9.51460E-3	147.571E-12	592.698E-3	18.1470E-3
3.93447E-3	143.428E-12	576.417E-3	-2.12685E-3	146.513E-12	572.829E-3	29.8949E-3
3.92946E-3	143.954E-12	592.933E-3	-25.1247E-3	146.062E-12	556.847E-3	4.71313E-3
3.92446E-3	142.435E-12	567.042E-3	-44.9707E-3	146.339E-12	569.674E-3	-26.5908E-3
3.91946E-3	142.074E-12	562.848E-3	-58.7985E-3	146.860E-12	583.983E-3	-41.6216E-3
3.91446E-3	142.173E-12	578.912E-3	-43.5672E-3	145.724E-12	577.601E-3	-37.9624E-3
3.90945E-3	141.965E-12	569.385E-3	-9.84640E-3	146.245E-12	562.859E-3	-19.4002E-3
3.90445E-3	143.518E-12	561.273E-3	3.39329E-3	145.755E-12	563.382E-3	2.74709E-3
3.89945E-3	142.792E-12	563.067E-3	-3.89430E-3	144.102E-12	564.136E-3	-3.72449E-3
3.89445E-3	143.499E-12	555.511E-3	-15.7279E-3	144.643E-12	580.312E-3	-19.9748E-3
3.88944E-3	144.996E-12	554.586E-3	-16.1187E-3	143.864E-12	602.717E-3	-33.3750E-3
3.88444E-3	145.770E-12	575.903E-3	-5.78026E-3	144.626E-12	584.827E-3	-45.7075E-3
3.87944E-3	145.713E-12	596.295E-3	4.95574E-3	143.698E-12	556.474E-3	-31.2738E-3
3.87444E-3	144.216E-12	619.229E-3	-328.953E-6	143.724E-12	559.120E-3	-20.4793E-3
3.86943E-3	145.219E-12	640.792E-3	-9.46898E-3	144.225E-12	571.267E-3	-32.2505E-3
3.86443E-3	144.626E-12	624.256E-3	7.98236E-3	145.624E-12	568.136E-3	-19.5222E-3
3.85943E-3	144.896E-12	574.863E-3	5.19081E-3	144.449E-12	569.904E-3	-3.57960E-3
3.85443E-3	142.937E-12	548.328E-3	-12.1276E-3	144.284E-12	587.412E-3	-8.38790E-3
3.84942E-3	141.619E-12	557.255E-3	3.36649E-3	144.854E-12	590.773E-3	-15.6132E-3
3.84442E-3	140.667E-12	558.174E-3	25.5512E-3	145.236E-12	567.167E-3	-27.7671E-3
3.83942E-3	140.545E-12	545.860E-3	12.7311E-3	146.323E-12	561.068E-3	-27.3734E-3
3.83442E-3	140.386E-12	531.830E-3	-29.4759E-3	145.447E-12	582.138E-3	-6.07842E-3
3.82941E-3	138.976E-12	531.194E-3	-44.3459E-3	146.019E-12	585.039E-3	12.2489E-3
3.82441E-3	137.105E-12	560.275E-3	-14.8510E-3	145.490E-12	581.558E-3	15.9105E-3
3.81941E-3	137.029E-12	579.284E-3	12.0378E-3	144.318E-12	591.690E-3	3.39448E-3
3.81441E-3	138.814E-12	564.665E-3	9.00263E-3	143.262E-12	577.722E-3	-9.54742E-3
3.80940E-3	138.847E-12	559.108E-3	-12.6091E-3	143.031E-12	550.358E-3	956.055E-6
3.80440E-3	137.770E-12	552.424E-3	-17.2693E-3	142.169E-12	533.774E-3	9.48547E-3
3.79940E-3	137.450E-12	524.040E-3	-19.6794E-3	142.927E-12	514.577E-3	-4.77517E-3
3.79440E-3	139.965E-12	505.679E-3	-56.7631E-3	140.868E-12	516.079E-3	-12.0660E-3
3.78939E-3	141.254E-12	521.077E-3	-58.2646E-3	139.521E-12	527.708E-3	-16.0555E-3
3.78439E-3	140.912E-12	542.652E-3	-20.3984E-3	139.359E-12	530.783E-3	-31.8107E-3
3.77939E-3	140.483E-12	533.938E-3	-3.95692E-3	140.339E-12	560.247E-3	-36.3489E-3
3.77439E-3	140.731E-12	531.041E-3	-6.02336E-3	139.189E-12	600.811E-3	-33.3787E-3
3.76938E-3	142.692E-12	558.338E-3	-8.10587E-3	138.915E-12	598.440E-3	-34.8012E-3
3.76438E-3	141.742E-12	588.260E-3	-23.2893E-3	138.456E-12	575.589E-3	-37.4306E-3
3.75938E-3	139.908E-12	605.065E-3	-49.3452E-3	139.097E-12	584.585E-3	-29.0456E-3
3.75438E-3	139.990E-12	587.999E-3	-51.4131E-3	137.893E-12	581.753E-3	-5.58198E-3
3.74937E-3	140.067E-12	559.591E-3	-32.5854E-3	137.793E-12	554.750E-3	-5.85956E-3
3.74437E-3	139.492E-12	558.280E-3	-12.0816E-3	138.728E-12	540.483E-3	-25.7656E-3
3.73937E-3	137.747E-12	557.026E-3	-798.723E-6	138.116E-12	549.546E-3	-38.4622E-3
3.73437E-3	136.017E-12	552.005E-3	-14.5828E-3	137.931E-12	574.685E-3	-28.4281E-3
3.72936E-3	135.553E-12	546.495E-3	-29.9941E-3	137.189E-12	585.042E-3	-16.5556E-3
3.72436E-3	136.381E-12	533.711E-3	-15.1048E-3	135.952E-12	575.175E-3	-18.9952E-3
3.71936E-3	134.607E-12	529.686E-3	-9.57851E-3	135.083E-12	554.999E-3	2.19701E-3
3.71436E-3	134.276E-12	539.613E-3	-19.6173E-3	135.302E-12	534.735E-3	11.9611E-3
3.70935E-3	133.152E-12	545.565E-3	-35.9352E-3	134.645E-12	526.671E-3	-7.06214E-3
3.70435E-3	134.392E-12	528.247E-3	-61.8052E-3	132.156E-12	537.636E-3	-8.68814E-3
3.69935E-3	135.231E-12	513.749E-3	-57.0436E-3	132.826E-12	544.895E-3	-13.3987E-3
3.69435E-3	134.647E-12	528.906E-3	-28.4031E-3	133.095E-12	542.675E-3	-33.9446E-3
3.68934E-3	135.611E-12	574.123E-3	-4.01569E-3	132.744E-12	559.482E-3	-39.0818E-3
3.68434E-3	134.708E-12	602.823E-3	-621.809E-6	131.520E-12	588.280E-3	-35.7575E-3
3.67934E-3	136.602E-12	580.990E-3	-15.7794E-3	131.334E-12	582.039E-3	-22.3618E-3
3.67434E-3	136.742E-12	547.280E-3	-14.9351E-3	132.858E-12	555.603E-3	214.293E-6
3.66933E-3	138.079E-12	533.011E-3	315.177E-6	133.381E-12	552.685E-3	5.49346E-3
3.66433E-3	137.246E-12	530.266E-3	12.3575E-3	133.112E-12	550.098E-3	-12.3009E-3
3.65933E-3	137.208E-12	527.216E-3	11.5736E-3	131.590E-12	541.388E-3	-20.4149E-3
3.65433E-3	136.048E-12	530.192E-3	1.56022E-3	132.661E-12	534.102E-3	-18.0598E-3
3.64932E-3	135.297E-12	550.294E-3	3.88221E-3	133.583E-12	529.558E-3	-40.9899E-3
3.64432E-3	135.395E-12	570.578E-3	3.70190E-3	135.228E-12	552.466E-3	-60.8008E-3
3.63932E-3	133.191E-12	576.709E-3	-6.34046E-3	134.195E-12	588.714E-3	-48.4986E-3
3.63432E-3	134.049E-12	574.077E-3	-17.3299E-3	134.263E-12	593.484E-3	-26.9757E-3
3.62931E-3	132.217E-12	562.058E-3	-27.9410E-3	133.925E-12	564.651E-3	-15.6346E-3
3.62431E-3	131.129E-12	550.873E-3	-45.4287E-3	134.972E-12	561.921E-3	-16.2314E-3
3.61931E-3	129.846E-12	546.830E-3	-51.0733E-3	136.088E-12	589.058E-3	-44.4604E-3
3.61431E-3	129.657E-12	554.662E-3	-24.0448E-3	134.613E-12	592.562E-3	-64.7729E-3
3.60930E-3	131.294E-12	565.081E-3	-8.98611E-3	133.272E-12	569.891E-3	-47.5771E-3
3.60430E-3	130.088E-12	561.158E-3	-14.2099E-3	132.874E-12	540.474E-3	-33.6097E-3
3.59930E-3	129.337E-12	544.477E-3	-26.1768E-3	134.049E-12	519.429E-3	-20.5800E-3
3.59430E-3	130.156E-12	548.008E-3	-27.1200E-3	133.810E-12	522.419E-3	2.49101E-3
3.58929E-3	131.709E-12	584.712E-3	-9.69029E-3	132.400E-12	541.713E-3	1.80918E-3
3.58429E-3	132.132E-12	599.484E-3	-2.10977E-3	131.571E-12	554.230E-3	-20.9700E-3
3.57929E-3	132.155E-12	581.214E-3	-3.33411E-3	131.778E-12	556.584E-3	-22.4177E-3
3.57429E-3	132.379E-12	558.911E-3	-1.55925E-3	130.822E-12	556.044E-3	-20.4556E-3
3.56928E-3	131.574E-12	542.587E-3	-17.7478E-3	130.249E-12	553.904E-3	-27.7623E-3
3.56428E-3	131.464E-12	543.372E-3	-26.0596E-3	131.141E-12	546.968E-3	-20.7972E-3
3.55928E-3	131.664E-12	554.840E-3	2.89902E-3	129.691E-12	565.638E-3	-19.2895E-3
3.55428E-3	132.374E-12	558.706E-3	2.42812E-3	129.955E-12	588.886E-3	-26.8316E-3
3.54927E-3	131.111E-12	559.885E-3	-11.6802E-3	129.530E-12	580.007E-3	-13.2118E-3
3.54427E-3	130.801E-12	553.267E-3	-9.08165E-3	129.725E-12	575.787E-3	-12.2239E-3
3.53927E-3	131.100E-12	539.510E-3	-9.77667E-3	130.118E-12	576.747E-3	-35.8081E-3
3.53427E-3	131.003E-12	551.680E-3	-1.31368E-3	130.087E-12	564.675E-3	-31.6095E-3
3.52926E-3	130.215E-12	575.544E-3	-4.11633E-3	130.560E-12	547.732E-3	-11.7301E-3
3.52426E-3	128.635E-12	584.754E-3	-18.3854E-3	130.376E-12	536.563E-3	-2.54316E-3
3.51926E-3	128.585E-12	582.703E-3	-9.47060E-3	129.771E-12	540.726E-3	-12.6492E-3
3.51426E-3	127.874E-12	564.230E-3	14.6978E-3	129.182E-12	555.914E-3	-25.0638E-3
3.50925E-3	128.390E-12	538.885E-3	19.1546E-3	129.382E-12	565.894E-3	-7.59815E-3
3.50425E-3	127.611E-12	517.557E-3	6.52554E-3	129.098E-12	568.604E-3	8.34338E-3
3.49925E-3	129.410E-12	508.115E-3	-14.5466E-3	128.959E-12	568.010E-3	-14.3835E-3
3.49425E-3	128.815E-12	535.079E-3	-28.1177E-3	128.635E-12	560.157E-3	-44.4400E-3
3.48924E-3	127.833E-12	578.081E-3	-30.0513E-3	127.857E-12	566.452E-3	-43.7882E-3
3.48424E-3	126.590E-12	592.643E-3	-31.5334E-3	127.809E-12	583.440E-3	-36.8406E-3
3.47924E-3	127.505E-12	570.960E-3	-18.3150E-3	126.048E-12	560.575E-3	-34.0575E-3
3.47424E-3	128.551E-12	540.520E-3	-7.31954E-3	124.777E-12	523.566E-3	-28.7744E-3
3.46923E-3	128.031E-12	533.632E-3	-9.95766E-3	125.203E-12	519.602E-3	-30.3015E-3
3.46423E-3	127.806E-12	541.865E-3	-10.3113E-3	125.207E-12	530.801E-3	-31.7424E-3
3.45923E-3	127.926E-12	540.482E-3	-14.5790E-3	123.331E-12	530.821E-3	-34.9420E-3
3.45423E-3	128.981E-12	544.445E-3	-6.95000E-3	122.752E-12	507.814E-3	-28.4472E-3
3.44922E-3	130.157E-12	568.947E-3	16.7154E-3	123.902E-12	493.786E-3	-8.31602E-3
3.44422E-3	129.790E-12	578.424E-3	11.1207E-3	125.034E-12	536.866E-3	1.82572E-3
3.43922E-3	128.575E-12	557.193E-3	-12.5177E-3	124.343E-12	590.400E-3	858.451E-6
3.43422E-3	127.693E-12	530.787E-3	-26.9709E-3	123.199E-12	607.768E-3	-4.86370E-3
3.42921E-3	129.102E-12	532.562E-3	-34.3079E-3	124.323E-12	607.055E-3	-9.88851E-3
3.42421E-3	127.833E-12	559.992E-3	-22.5247E-3	126.346E-12	605.081E-3	-8.33317E-3
3.41921E-3	125.913E-12	580.636E-3	-1.35262E-3	127.679E-12	604.895E-3	-16.2987E-3
3.41421E-3	124.974E-12	577.899E-3	-2.99488E-3	125.428E-12	577.390E-3	-41.1431E-3
3.40920E-3	124.373E-12	570.104E-3	-11.5169E-3	124.522E-12	540.214E-3	-33.7323E-3
3.40420E-3	124.326E-12	584.457E-3	-7.95836E-3	125.235E-12	519.282E-3	-603.943E-6
3.39920E-3	123.622E-12	583.714E-3	-9.27724E-3	126.057E-12	529.139E-3	-6.75738E-3
3.39420E-3	123.574E-12	555.431E-3	-17.2308E-3	124.946E-12	564.960E-3	-45.0323E-3
3.38919E-3	122.665E-12	531.845E-3	-15.5531E-3	123.355E-12	582.317E-3	-59.5506E-3
3.38419E-3	122.305E-12	534.876E-3	486.163E-6	124.934E-12	568.885E-3	-35.6351E-3
3.37919E-3	123.026E-12	557.521E-3	14.0279E-3	125.368E-12	542.122E-3	-19.9065E-3
3.37419E-3	122.767E-12	559.799E-3	9.76325E-3	123.673E-12	533.306E-3	-16.6601E-3
3.36918E-3	123.523E-12	546.539E-3	-21.2995E-3	121.343E-12	551.712E-3	4.56969E-3
3.36418E-3	123.972E-12	549.623E-3	-47.6182E-3	121.388E-12	573.193E-3	22.1084E-3
3.35918E-3	125.673E-12	567.034E-3	-50.2596E-3	122.414E-12	581.330E-3	16.3921E-3
3.35418E-3	126.240E-12	580.010E-3	-46.3779E-3	121.860E-12	582.795E-3	10.8159E-3
3.34917E-3	125.497E-12	574.520E-3	-35.1194E-3	120.480E-12	579.239E-3	8.48110E-3
3.34417E-3	126.139E-12	553.253E-3	-14.8229E-3	121.768E-12	564.582E-3	-14.0481E-3
3.33917E-3	126.909E-12	537.020E-3	-9.10356E-3	123.587E-12	546.337E-3	-21.0880E-3
3.33417E-3	126.514E-12	534.354E-3	-18.7386E-3	123.717E-12	549.116E-3	-9.70183E-3
3.32916E-3	123.994E-12	545.213E-3	-17.0371E-3	122.036E-12	582.923E-3	-25.6417E-3
3.32416E-3	123.990E-12	555.084E-3	-11.2448E-3	122.036E-12	608.370E-3	-44.6061E-3
3.31916E-3	123.695E-12	565.479E-3	-9.64707E-3	124.014E-12	582.580E-3	-30.5586E-3
3.31416E-3	124.722E-12	586.170E-3	1.14157E-3	125.529E-12	557.328E-3	-12.1141E-3
3.30915E-3	122.641E-12	598.271E-3	6.34862E-3	124.024E-12	575.933E-3	-21.3449E-3
3.30415E-3	120.581E-12	597.114E-3	-23.5239E-3	121.585E-12	584.214E-3	-31.5345E-3
3.29915E-3	119.977E-12	588.486E-3	-36.2707E-3	121.582E-12	593.032E-3	-31.8186E-3
3.29415E-3	121.528E-12	574.345E-3	-4.71150E-3	122.652E-12	617.021E-3	-27.7017E-3
3.28914E-3	120.051E-12	567.817E-3	18.2115E-3	122.654E-12	597.250E-3	-16.0160E-3
3.28414E-3	118.085E-12	583.167E-3	28.1669E-3	119.824E-12	566.922E-3	2.37678E-3
3.27914E-3	118.058E-12	585.061E-3	19.8962E-3	119.669E-12	566.647E-3	10.1072E-3
3.27414E-3	119.639E-12	560.826E-3	-24.7515E-3	121.140E-12	562.322E-3	14.0453E-3
3.26913E-3	120.602E-12	547.838E-3	-54.0512E-3	120.974E-12	568.126E-3	27.0707E-3
3.26413E-3	119.100E-12	561.330E-3	-39.5552E-3	118.056E-12	575.777E-3	16.9839E-3
3.25913E-3	118.731E-12	580.151E-3	-18.8544E-3	117.583E-12	566.244E-3	-8.70001E-3
3.25413E-3	119.726E-12	588.200E-3	-8.43625E-3	117.981E-12	550.597E-3	-31.4410E-3
3.24912E-3	121.070E-12	594.191E-3	-10.7604E-3	119.373E-12	542.874E-3	-43.1371E-3
3.24412E-3	120.388E-12	579.939E-3	-25.7815E-3	117.769E-12	558.409E-3	-37.3998E-3
3.23912E-3	119.393E-12	557.262E-3	-35.3159E-3	118.253E-12	579.536E-3	-28.9757E-3
3.23412E-3	118.477E-12	576.171E-3	-16.7289E-3	119.671E-12	597.919E-3	-25.4847E-3
3.22911E-3	117.845E-12	604.082E-3	-412.327E-6	120.802E-12	604.553E-3	-20.7288E-3
3.22411E-3	116.705E-12	592.569E-3	-6.59011E-3	120.440E-12	592.772E-3	-4.46831E-3
3.21911E-3	116.382E-12	558.079E-3	-14.7247E-3	119.162E-12	590.049E-3	-7.86442E-3
3.21411E-3	115.836E-12	545.851E-3	-23.7419E-3	119.071E-12	592.134E-3	-29.2567E-3
3.20910E-3	114.422E-12	575.640E-3	-23.5757E-3	120.780E-12	574.748E-3	-22.2137E-3
3.20410E-3	113.467E-12	597.136E-3	-18.2265E-3	121.081E-12	568.446E-3	-11.9985E-3
3.19910E-3	114.298E-12	585.276E-3	-15.1503E-3	119.276E-12	575.140E-3	-10.7786E-3
3.19410E-3	114.243E-12	562.371E-3	-5.42283E-3	118.130E-12	571.855E-3	2.52520E-3
3.18909E-3	112.921E-12	559.918E-3	-5.75806E-3	119.137E-12	569.257E-3	515.851E-6
3.18409E-3	113.039E-12	563.861E-3	-29.7031E-3	119.891E-12	562.744E-3	-7.41123E-3
3.17909E-3	114.060E-12	555.820E-3	-35.7496E-3	118.245E-12	557.123E-3	-12.1962E-3
3.17409E-3	114.654E-12	558.540E-3	-26.0397E-3	115.785E-12	561.694E-3	-44.4686E-3
3.16908E-3	114.007E-12	578.315E-3	-33.3930E-3	117.315E-12	550.322E-3	-68.4111E-3
3.16408E-3	114.447E-12	608.495E-3	-25.5850E-3	117.283E-12	528.989E-3	-46.8359E-3
3.15908E-3	115.682E-12	610.950E-3	-4.23308E-3	116.108E-12	530.091E-3	-7.31845E-3
3.15408E-3	115.797E-12	586.585E-3	-4.00530E-3	114.821E-12	523.705E-3	6.41245E-3
3.14907E-3	114.686E-12	580.182E-3	-13.0697E-3	114.812E-12	510.881E-3	959.385E-6
3.14407E-3	114.751E-12	583.838E-3	-24.7572E-3	113.362E-12	534.094E-3	228.455E-6
3.13907E-3	115.630E-12	571.544E-3	-30.4336E-3	112.537E-12	556.561E-3	-17.1163E-3
3.13407E-3	115.491E-12	571.328E-3	-24.5670E-3	112.663E-12	562.320E-3	-29.2917E-3
3.12906E-3	114.714E-12	598.202E-3	-9.68351E-3	113.060E-12	579.453E-3	-15.2490E-3
3.12406E-3	113.800E-12	596.731E-3	1.27801E-3	112.506E-12	592.118E-3	-12.7338E-3
3.11906E-3	115.306E-12	560.703E-3	-15.0869E-3	111.709E-12	569.129E-3	-24.7990E-3
3.11406E-3	115.944E-12	550.811E-3	-33.6790E-3	113.004E-12	553.218E-3	-35.5970E-3
3.10905E-3	113.557E-12	574.173E-3	-41.0031E-3	112.928E-12	573.391E-3	-49.9893E-3
3.10405E-3	111.903E-12	610.659E-3	-43.8054E-3	112.819E-12	579.562E-3	-41.7673E-3
3.09905E-3	112.974E-12	623.762E-3	-34.3306E-3	112.893E-12	565.202E-3	-11.1012E-3
3.09405E-3	113.432E-12	588.540E-3	-20.8331E-3	113.903E-12	569.199E-3	-1.97559E-3
3.08904E-3	112.843E-12	567.408E-3	-26.2883E-3	114.023E-12	580.981E-3	-16.4921E-3
3.08404E-3	111.149E-12	586.835E-3	-37.3880E-3	112.703E-12	575.014E-3	-29.1470E-3
3.07904E-3	111.934E-12	590.579E-3	-25.3586E-3	113.027E-12	572.230E-3	-23.2422E-3
3.07404E-3	111.896E-12	566.850E-3	-23.4345E-3	114.246E-12	564.439E-3	-22.5889E-3
3.06903E-3	111.516E-12	566.166E-3	-39.9291E-3	113.929E-12	547.474E-3	-30.1314E-3
3.06403E-3	111.097E-12	578.472E-3	-53.0292E-3	111.437E-12	554.604E-3	-28.3273E-3
3.05903E-3	111.563E-12	570.738E-3	-62.7014E-3	110.867E-12	564.847E-3	-27.1574E-3
3.05403E-3	112.257E-12	579.518E-3	-32.1283E-3	110.841E-12	561.343E-3	-13.7623E-3
3.04902E-3	112.592E-12	597.614E-3	8.62410E-3	110.101E-12	568.263E-3	-4.12837E-3
3.04402E-3	113.077E-12	593.494E-3	1.51070E-3	109.949E-12	572.831E-3	-22.6900E-3
3.03902E-3	112.671E-12	589.599E-3	-15.8391E-3	108.305E-12	558.541E-3	-34.7511E-3
3.03402E-3	112.681E-12	591.088E-3	-24.0524E-3	108.342E-12	557.687E-3	-36.3605E-3
3.02901E-3	113.146E-12	582.820E-3	-29.6756E-3	108.456E-12	568.242E-3	-37.4973E-3
3.02401E-3	114.204E-12	577.049E-3	-29.0136E-3	109.337E-12	557.034E-3	-26.5726E-3
3.01901E-3	114.210E-12	579.929E-3	-16.2224E-3	108.253E-12	554.896E-3	-24.1532E-3
3.01401E-3	112.341E-12	585.457E-3	-2.91769E-3	107.838E-12	562.080E-3	-38.7421E-3
3.00900E-3	112.340E-12	581.104E-3	-10.1943E-3	109.055E-12	551.461E-3	-44.6237E-3
3.00400E-3	111.974E-12	572.185E-3	-19.4244E-3	110.507E-12	563.546E-3	-24.2619E-3
2.99900E-3	110.981E-12	569.927E-3	-17.4585E-3	110.936E-12	581.357E-3	-3.29440E-3
2.99400E-3	109.392E-12	570.823E-3	-7.58353E-3	108.939E-12	570.458E-3	-13.5476E-3
2.98899E-3	109.152E-12	591.557E-3	8.50112E-3	109.312E-12	561.752E-3	-28.1431E-3
2.98399E-3	109.781E-12	592.973E-3	12.3676E-3	110.179E-12	566.772E-3	-35.3788E-3
2.97899E-3	109.214E-12	550.892E-3	5.91222E-3	110.226E-12	565.191E-3	-39.0722E-3
2.97399E-3	106.973E-12	541.361E-3	6.61387E-3	108.885E-12	556.947E-3	-24.8929E-3
2.96898E-3	106.298E-12	555.759E-3	-17.7793E-3	108.432E-12	569.672E-3	-16.4643E-3
2.96398E-3	107.395E-12	557.777E-3	-44.6094E-3	108.663E-12	589.830E-3	-26.1756E-3
2.95898E-3	107.591E-12	575.627E-3	-36.9581E-3	108.111E-12	589.793E-3	-20.9624E-3
2.95398E-3	106.325E-12	586.769E-3	-38.1588E-3	107.539E-12	580.782E-3	4.01713E-3
2.94897E-3	106.966E-12	573.860E-3	-38.0291E-3	105.901E-12	575.355E-3	4.82288E-3
2.94397E-3	107.932E-12	570.623E-3	-20.1448E-3	105.148E-12	578.600E-3	-6.97190E-3
2.93897E-3	109.531E-12	580.343E-3	-5.23877E-3	104.709E-12	574.988E-3	-747.933E-6
2.93397E-3	107.641E-12	579.201E-3	-16.8627E-3	105.291E-12	561.590E-3	-14.0246E-3
2.92896E-3	106.554E-12	579.640E-3	-35.5962E-3	104.523E-12	565.613E-3	-32.7016E-3
2.92396E-3	109.284E-12	587.153E-3	-19.7442E-3	105.191E-12	590.740E-3	-25.6803E-3
2.91896E-3	111.655E-12	582.661E-3	98.9288E-6	105.307E-12	596.583E-3	-5.25035E-3
2.91396E-3	109.320E-12	578.345E-3	5.99513E-3	105.777E-12	582.405E-3	8.95617E-3
2.90895E-3	107.009E-12	582.533E-3	-859.471E-6	106.605E-12	594.440E-3	-2.02798E-3
2.90395E-3	107.013E-12	596.769E-3	-21.1502E-3	106.579E-12	611.795E-3	-6.46984E-3
2.89895E-3	109.021E-12	623.348E-3	-34.7605E-3	108.018E-12	609.017E-3	12.4911E-3
2.89395E-3	107.439E-12	640.172E-3	-27.8083E-3	107.407E-12	605.431E-3	17.1996E-3
2.88894E-3	104.969E-12	629.420E-3	-18.6545E-3	107.418E-12	591.424E-3	-891.298E-6
2.88394E-3	104.064E-12	606.719E-3	-17.3506E-3	106.922E-12	569.397E-3	-22.3909E-3
2.87894E-3	104.852E-12	596.915E-3	-6.30891E-3	107.909E-12	570.320E-3	-34.7484E-3
2.87394E-3	106.167E-12	595.696E-3	-6.69291E-3	107.129E-12	581.610E-3	-25.3544E-3
2.86893E-3	103.798E-12	586.810E-3	-16.3660E-3	105.528E-12	585.081E-3	-4.66296E-3
2.86393E-3	102.171E-12	571.153E-3	-2.72846E-3	104.826E-12	587.335E-3	874.085E-6
2.85893E-3	102.824E-12	547.046E-3	-2.13370E-3	104.884E-12	584.838E-3	-12.9946E-3
2.85393E-3	105.115E-12	534.295E-3	-11.1157E-3	105.497E-12	574.900E-3	-28.1298E-3
2.84892E-3	105.777E-12	559.579E-3	4.47806E-3	103.266E-12	573.208E-3	-26.4405E-3
2.84392E-3	103.294E-12	588.494E-3	5.57333E-3	102.484E-12	568.949E-3	-19.3679E-3
2.83892E-3	103.050E-12	584.602E-3	-4.51097E-3	101.791E-12	553.609E-3	-16.6442E-3
2.83392E-3	103.798E-12	568.935E-3	-3.51879E-3	101.793E-12	557.493E-3	-20.5937E-3
2.82891E-3	105.956E-12	567.849E-3	-101.266E-6	101.170E-12	586.636E-3	-32.4147E-3
2.82391E-3	105.698E-12	586.617E-3	2.63474E-3	100.720E-12	610.390E-3	-26.8371E-3
2.81891E-3	103.555E-12	613.353E-3	15.4876E-3	101.567E-12	612.701E-3	-19.1198E-3
2.81391E-3	104.587E-12	624.614E-3	27.3433E-3	103.444E-12	599.459E-3	-22.0977E-3
2.80890E-3	105.209E-12	619.547E-3	15.7914E-3	103.530E-12	588.702E-3	-15.7417E-3
2.80390E-3	105.561E-12	618.719E-3	-6.81167E-3	101.713E-12	587.445E-3	-9.47909E-3
2.79890E-3	102.383E-12	607.474E-3	-25.5536E-3	102.690E-12	601.321E-3	-873.099E-6
2.79390E-3	101.451E-12	584.288E-3	-18.9824E-3	104.668E-12	627.108E-3	12.0594E-3
2.78889E-3	102.155E-12	566.410E-3	1.30729E-3	105.150E-12	627.486E-3	18.0177E-3
2.78389E-3	102.359E-12	543.834E-3	1.01144E-3	102.766E-12	608.428E-3	18.1329E-3
2.77889E-3	100.604E-12	547.273E-3	-7.30880E-3	100.974E-12	585.586E-3	13.4233E-3
2.77389E-3	98.7428E-12	594.359E-3	-3.93682E-3	102.156E-12	573.296E-3	6.15824E-3
2.76888E-3	98.8196E-12	613.157E-3	-8.09339E-3	103.563E-12	568.634E-3	-18.8208E-3
2.76388E-3	100.627E-12	582.278E-3	-18.4846E-3	102.808E-12	555.933E-3	-35.0338E-3
2.75888E-3	101.497E-12	570.177E-3	-15.8129E-3	99.6318E-12	567.437E-3	-19.4264E-3
2.75388E-3	99.3799E-12	583.764E-3	-7.11122E-3	99.6505E-12	582.100E-3	-10.0916E-3
2.74887E-3	98.7530E-12	596.541E-3	-18.3250E-3	100.337E-12	575.926E-3	-5.29285E-3
2.74387E-3	100.375E-12	606.331E-3	-34.1942E-3	100.264E-12	576.376E-3	-971.863E-6
2.73887E-3	103.173E-12	599.172E-3	-21.1327E-3	97.5915E-12	575.282E-3	-6.12568E-3
2.73387E-3	102.155E-12	581.606E-3	-1.88752E-3	97.1074E-12	582.467E-3	-13.8346E-3
2.72886E-3	100.368E-12	575.297E-3	84.3768E-6	97.8860E-12	608.437E-3	-18.2320E-3
2.72386E-3	101.424E-12	579.537E-3	-8.34939E-3	96.3289E-12	610.179E-3	-37.4370E-3
2.71886E-3	104.156E-12	603.689E-3	-9.07924E-3	96.3686E-12	580.674E-3	-61.5097E-3
2.71386E-3	103.495E-12	627.299E-3	-5.46806E-3	95.7600E-12	567.486E-3	-52.1748E-3
2.70885E-3	99.9076E-12	622.087E-3	-2.25206E-3	96.5109E-12	577.037E-3	-25.0667E-3
2.70385E-3	98.1390E-12	610.112E-3	-4.11237E-3	96.5156E-12	571.550E-3	-17.3990E-3
2.69885E-3	98.7330E-12	600.958E-3	-17.8244E-3	96.0244E-12	564.014E-3	-28.2451E-3
2.69385E-3	100.655E-12	600.524E-3	-35.8511E-3	96.0201E-12	569.201E-3	-22.7552E-3
2.68884E-3	99.2397E-12	596.206E-3	-49.4793E-3	97.0885E-12	558.130E-3	-15.7258E-3
2.68384E-3	96.2216E-12	581.669E-3	-44.1847E-3	98.2199E-12	554.922E-3	-18.8465E-3
2.67884E-3	95.4562E-12	575.723E-3	-19.5329E-3	96.6199E-12	574.815E-3	-12.4305E-3
2.67384E-3	97.6239E-12	577.466E-3	-8.13691E-3	96.1548E-12	584.636E-3	-11.4642E-3
2.66883E-3	97.2834E-12	588.162E-3	-15.3701E-3	96.8184E-12	580.600E-3	-5.58685E-3
2.66383E-3	94.5878E-12	593.065E-3	-16.4724E-3	97.9082E-12	574.199E-3	6.48362E-3
2.65883E-3	93.5027E-12	584.307E-3	-28.0455E-3	96.1876E-12	573.589E-3	6.23480E-3
2.65383E-3	94.5587E-12	572.317E-3	-45.1564E-3	95.1647E-12	577.100E-3	-7.34770E-3
2.64882E-3	96.1951E-12	569.957E-3	-40.7246E-3	95.5739E-12	585.109E-3	-19.8569E-3
2.64382E-3	95.0798E-12	580.824E-3	-33.1775E-3	95.9650E-12	584.573E-3	-27.3271E-3
2.63882E-3	93.2790E-12	586.668E-3	-30.4949E-3	95.6054E-12	560.374E-3	-33.0092E-3
2.63382E-3	93.3203E-12	580.671E-3	-25.5202E-3	93.3489E-12	556.228E-3	-12.9416E-3
2.62881E-3	94.5152E-12	575.474E-3	-22.0462E-3	92.9397E-12	570.995E-3	8.08627E-3
2.62381E-3	95.9137E-12	586.714E-3	-19.9104E-3	93.4525E-12	564.749E-3	12.4812E-3
2.61881E-3	94.4423E-12	608.064E-3	-13.7945E-3	93.0035E-12	566.865E-3	19.3915E-3
2.61381E-3	93.4149E-12	606.409E-3	-5.86608E-3	91.4342E-12	590.617E-3	120.753E-6
2.60880E-3	93.3449E-12	593.103E-3	-5.05223E-3	91.1379E-12	595.616E-3	-15.3044E-3
2.60380E-3	95.0168E-12	594.947E-3	-8.23585E-3	91.6551E-12	584.343E-3	12.0537E-3
2.59880E-3	94.3439E-12	594.725E-3	-8.94128E-3	92.6751E-12	585.082E-3	15.3510E-3
2.59380E-3	94.0123E-12	601.050E-3	-17.6888E-3	91.7567E-12	586.837E-3	-15.5652E-3
2.58879E-3	92.3541E-12	623.694E-3	-11.7381E-3	91.3915E-12	590.567E-3	-22.1438E-3
2.58379E-3	93.6061E-12	629.513E-3	11.3212E-3	92.0089E-12	597.135E-3	-12.5961E-3
2.57879E-3	94.3399E-12	620.413E-3	7.65648E-3	94.0262E-12	579.960E-3	-11.0937E-3
2.57379E-3	91.8238E-12	612.431E-3	-2.38661E-3	93.2254E-12	554.674E-3	-19.8964E-3
2.56878E-3	90.6338E-12	593.567E-3	15.5611E-3	92.6064E-12	556.660E-3	-32.8549E-3
2.56378E-3	90.4236E-12	576.524E-3	19.0016E-3	92.9051E-12	563.280E-3	-31.8279E-3
2.55878E-3	91.4410E-12	574.143E-3	-7.07473E-3	92.4448E-12	561.479E-3	-25.6931E-3
2.55378E-3	90.6184E-12	566.150E-3	-22.6945E-3	92.1468E-12	580.121E-3	-18.9391E-3
2.54877E-3	88.7466E-12	553.819E-3	-34.7865E-3	92.3407E-12	600.736E-3	-9.04529E-3
2.54377E-3	88.9797E-12	560.763E-3	-43.1918E-3	91.3956E-12	601.997E-3	-14.7915E-3
2.53877E-3	89.7740E-12	576.379E-3	-45.6704E-3	90.2150E-12	598.152E-3	-25.7752E-3
2.53377E-3	90.2062E-12	582.294E-3	-54.9945E-3	90.3666E-12	578.034E-3	-19.5706E-3
2.52876E-3	89.3984E-12	601.621E-3	-44.6184E-3	90.4487E-12	555.922E-3	2.06259E-3
2.52376E-3	88.4261E-12	617.289E-3	-17.6697E-3	88.9756E-12	563.069E-3	20.4738E-3
2.51876E-3	89.8422E-12	603.011E-3	-24.4253E-3	87.8482E-12	582.409E-3	7.04835E-3
2.51376E-3	91.2175E-12	600.016E-3	-60.1325E-3	87.8750E-12	581.756E-3	874.363E-6
2.50875E-3	91.1573E-12	601.341E-3	-63.9552E-3	88.3780E-12	581.112E-3	16.5479E-3
2.50375E-3	89.9534E-12	592.066E-3	-28.0154E-3	88.2137E-12	600.003E-3	-4.11428E-3
2.49875E-3	90.5875E-12	597.626E-3	-4.85670E-3	87.5414E-12	597.421E-3	-32.5472E-3
2.49375E-3	90.8473E-12	606.274E-3	-8.15678E-3	87.7019E-12	581.385E-3	-27.0212E-3
2.48874E-3	92.4191E-12	618.072E-3	-20.6729E-3	88.3585E-12	586.159E-3	-19.9804E-3
2.48374E-3	91.1320E-12	635.994E-3	-37.9040E-3	88.8938E-12	584.630E-3	-25.2338E-3
2.47874E-3	90.7339E-12	636.640E-3	-46.0172E-3	88.5084E-12	577.420E-3	-18.8536E-3
2.47374E-3	90.2959E-12	614.420E-3	-33.9667E-3	88.8437E-12	601.285E-3	-18.9401E-3
2.46873E-3	91.1176E-12	605.640E-3	-20.3521E-3	90.0023E-12	617.109E-3	-32.5328E-3
2.46373E-3	90.0360E-12	620.486E-3	-21.1871E-3	89.1423E-12	598.684E-3	-31.3932E-3
2.45873E-3	88.7233E-12	615.428E-3	-30.5798E-3	88.9437E-12	604.445E-3	-37.4392E-3
2.45373E-3	87.8060E-12	606.138E-3	-39.3931E-3	87.8045E-12	617.123E-3	-49.5012E-3
2.44872E-3	87.4739E-12	615.523E-3	-30.8159E-3	88.3361E-12	607.132E-3	-29.9747E-3
2.44372E-3	88.5025E-12	623.950E-3	-14.1665E-3	87.9225E-12	606.215E-3	-13.5429E-3
2.43872E-3	87.7139E-12	632.702E-3	-5.48838E-3	87.3158E-12	606.522E-3	-19.6765E-3
2.43372E-3	87.1003E-12	630.690E-3	4.60007E-3	87.7477E-12	605.116E-3	-11.2129E-3
2.42871E-3	86.6693E-12	608.633E-3	2.53346E-3	86.4562E-12	621.047E-3	-4.83440E-3
2.42371E-3	87.1910E-12	594.664E-3	-8.62687E-3	84.8803E-12	627.110E-3	-19.2656E-3
2.41871E-3	87.0389E-12	591.928E-3	-8.23012E-3	85.0767E-12	617.232E-3	-21.4226E-3
2.41371E-3	86.4742E-12	601.374E-3	-12.5228E-3	86.3013E-12	613.607E-3	-13.6913E-3
2.40870E-3	86.1106E-12	615.868E-3	-21.4963E-3	85.4284E-12	600.338E-3	-20.2519E-3
2.40370E-3	86.0755E-12	600.344E-3	-24.3523E-3	84.3166E-12	577.993E-3	-13.5174E-3
2.39870E-3	87.5500E-12	578.920E-3	-20.8712E-3	84.4353E-12	576.061E-3	-7.48271E-3
2.39370E-3	86.7179E-12	587.503E-3	-11.8576E-3	85.4840E-12	588.109E-3	-27.9400E-3
2.38869E-3	86.9823E-12	612.242E-3	-21.1647E-3	85.4145E-12	591.202E-3	-33.1560E-3
2.38369E-3	85.8144E-12	630.419E-3	-24.3727E-3	84.6730E-12	599.534E-3	-19.1845E-3
2.37869E-3	85.6207E-12	632.543E-3	-11.4916E-3	84.0646E-12	596.823E-3	-15.1343E-3
2.37369E-3	85.9038E-12	626.072E-3	-13.6429E-3	84.0044E-12	580.584E-3	-17.4782E-3
2.36868E-3	85.4131E-12	629.488E-3	-13.4372E-3	84.5633E-12	600.552E-3	-14.7237E-3
2.36368E-3	85.8382E-12	620.638E-3	-18.4318E-3	84.4460E-12	628.287E-3	-21.6699E-3
2.35868E-3	83.3284E-12	601.362E-3	-35.8050E-3	84.6285E-12	617.106E-3	-25.0068E-3
2.35368E-3	82.3228E-12	598.442E-3	-29.5357E-3	84.3206E-12	600.533E-3	-12.2585E-3
2.34867E-3	81.9050E-12	601.782E-3	-7.23713E-3	83.9433E-12	596.280E-3	-6.50835E-3
2.34367E-3	82.8141E-12	604.026E-3	-1.70614E-3	84.1347E-12	594.013E-3	7.84932E-3
2.33867E-3	82.0594E-12	593.195E-3	-2.72124E-3	84.5006E-12	607.375E-3	12.3509E-3
2.33367E-3	80.9752E-12	574.128E-3	-9.62267E-3	83.5876E-12	614.418E-3	-18.1251E-3
2.32866E-3	80.8795E-12	584.752E-3	-12.5637E-3	82.9195E-12	590.159E-3	-35.5123E-3
2.32366E-3	81.8869E-12	603.206E-3	-4.68940E-3	82.8947E-12	569.600E-3	-25.9341E-3
2.31866E-3	82.5849E-12	591.402E-3	-16.5754E-3	82.3871E-12	574.692E-3	-20.4157E-3
2.31366E-3	82.0468E-12	585.347E-3	-24.6363E-3	81.7921E-12	589.480E-3	-17.9563E-3
2.30865E-3	82.0208E-12	589.996E-3	-12.8004E-3	81.2405E-12	591.102E-3	-9.45632E-3
2.30365E-3	82.3656E-12	587.287E-3	-17.7979E-3	81.1266E-12	587.434E-3	-19.1062E-3
2.29865E-3	82.7126E-12	584.214E-3	-31.9167E-3	81.0545E-12	574.629E-3	-35.0407E-3
2.29365E-3	82.5694E-12	581.796E-3	-27.8369E-3	80.7968E-12	567.630E-3	-20.3077E-3
2.28864E-3	81.6605E-12	592.449E-3	-5.75249E-3	79.9221E-12	596.727E-3	-6.96440E-3
2.28364E-3	81.4277E-12	610.323E-3	10.9021E-3	80.0180E-12	628.280E-3	-18.1705E-3
2.27864E-3	81.0606E-12	611.578E-3	-2.51450E-3	80.9197E-12	629.077E-3	-15.0108E-3
2.27364E-3	81.4231E-12	601.423E-3	-29.2055E-3	81.0086E-12	617.308E-3	-16.0302E-3
2.26863E-3	80.9683E-12	599.769E-3	-38.5380E-3	79.8678E-12	609.171E-3	-41.2013E-3
2.26363E-3	80.5114E-12	617.215E-3	-23.1699E-3	79.4915E-12	601.319E-3	-41.6243E-3
2.25863E-3	79.4370E-12	639.208E-3	-15.6179E-3	79.2771E-12	608.334E-3	-26.2933E-3
2.25363E-3	79.0376E-12	635.384E-3	-33.2248E-3	80.1956E-12	620.865E-3	-35.4633E-3
2.24862E-3	78.9039E-12	617.298E-3	-40.4969E-3	80.0218E-12	624.625E-3	-37.5677E-3
2.24362E-3	77.6655E-12	613.289E-3	-22.6441E-3	79.0345E-12	626.007E-3	-12.7422E-3
2.23862E-3	77.6812E-12	611.902E-3	-6.92026E-3	78.2762E-12	618.612E-3	-1.80038E-3
2.23362E-3	77.2311E-12	615.544E-3	-15.1870E-3	78.2045E-12	604.494E-3	-8.71452E-3
2.22861E-3	78.2989E-12	618.491E-3	-31.8591E-3	79.4497E-12	609.369E-3	-13.4979E-3
2.22361E-3	77.6299E-12	610.463E-3	-34.8043E-3	78.6454E-12	629.581E-3	-35.7934E-3
2.21861E-3	77.6137E-12	594.138E-3	-13.4370E-3	77.9564E-12	621.490E-3	-57.7673E-3
2.21361E-3	77.2194E-12	569.991E-3	9.62536E-3	76.7805E-12	593.630E-3	-45.3518E-3
2.20860E-3	77.4472E-12	575.988E-3	73.7742E-6	77.5259E-12	592.513E-3	-30.0189E-3
2.20360E-3	77.1703E-12	623.146E-3	-13.5663E-3	77.5115E-12	601.012E-3	-30.8838E-3
2.19860E-3	76.9106E-12	641.468E-3	-5.53231E-3	76.4559E-12	612.526E-3	-29.1259E-3
2.19360E-3	77.4580E-12	620.699E-3	-12.1272E-3	76.9386E-12	635.522E-3	-36.8541E-3
2.18859E-3	77.2692E-12	625.178E-3	-31.3254E-3	76.4874E-12	626.205E-3	-45.8102E-3
2.18359E-3	77.2468E-12	636.561E-3	-34.7255E-3	76.5599E-12	596.594E-3	-25.4006E-3
2.17859E-3	76.4265E-12	614.749E-3	-32.7247E-3	75.9311E-12	595.735E-3	-6.06149E-3
2.17359E-3	76.9504E-12	608.560E-3	-33.4847E-3	75.8322E-12	612.227E-3	-8.20115E-3
2.16858E-3	77.1936E-12	618.586E-3	-28.2491E-3	75.8132E-12	621.953E-3	-7.63934E-3
2.16358E-3	76.8334E-12	609.705E-3	-19.0799E-3	76.5846E-12	629.560E-3	-10.9137E-3
2.15858E-3	76.5784E-12	616.734E-3	-12.4270E-3	76.7522E-12	629.253E-3	-24.2703E-3
2.15358E-3	76.0892E-12	631.795E-3	-2.04148E-3	75.6054E-12	619.107E-3	-32.9073E-3
2.14857E-3	75.3586E-12	618.579E-3	-14.2151E-3	77.1061E-12	621.423E-3	-34.7579E-3
2.14357E-3	75.9732E-12	608.829E-3	-42.8005E-3	76.0114E-12	631.148E-3	-23.5273E-3
2.13857E-3	76.0934E-12	624.335E-3	-32.9303E-3	75.4192E-12	636.935E-3	1.01120E-3
2.13357E-3	74.6751E-12	633.153E-3	-13.1140E-3	75.2575E-12	638.727E-3	3.45992E-3
2.12856E-3	74.9293E-12	630.621E-3	-8.08335E-3	75.0745E-12	623.896E-3	-16.4729E-3
2.12356E-3	75.3702E-12	619.133E-3	10.5696E-3	75.4770E-12	609.330E-3	-11.7899E-3
2.11856E-3	75.1067E-12	612.019E-3	17.4806E-3	74.2516E-12	626.247E-3	-8.28072E-3
2.11356E-3	74.8332E-12	624.005E-3	2.80918E-3	73.2609E-12	637.143E-3	-40.3147E-3
2.10855E-3	73.6834E-12	627.824E-3	-6.69700E-3	73.0316E-12	614.613E-3	-44.6889E-3
2.10355E-3	73.7433E-12	622.058E-3	-22.2982E-3	74.7810E-12	602.614E-3	-14.4689E-3
2.09855E-3	74.5624E-12	623.839E-3	-37.2431E-3	74.5356E-12	609.894E-3	-13.0818E-3
2.09355E-3	73.9177E-12	638.000E-3	-22.4941E-3	72.7028E-12	621.370E-3	-23.8111E-3
2.08854E-3	72.7869E-12	656.312E-3	-8.34766E-3	71.8703E-12	630.571E-3	-13.4718E-3
2.08354E-3	72.5978E-12	665.350E-3	-29.5968E-3	72.0391E-12	617.601E-3	-4.22490E-3
2.07854E-3	73.8361E-12	668.159E-3	-43.3316E-3	74.6160E-12	595.267E-3	-4.75199E-3
2.07354E-3	74.4702E-12	656.853E-3	-27.9661E-3	73.1745E-12	599.910E-3	-4.13636E-3
2.06853E-3	72.8150E-12	627.274E-3	-13.0106E-3	71.5912E-12	623.147E-3	-18.1835E-3
2.06353E-3	70.9756E-12	607.445E-3	-5.12295E-3	70.8269E-12	628.522E-3	-33.6614E-3
2.05853E-3	72.4834E-12	607.735E-3	-2.70856E-3	73.1502E-12	628.267E-3	-24.3953E-3
2.05353E-3	72.9175E-12	612.418E-3	-10.3794E-3	73.7140E-12	639.976E-3	-20.1192E-3
2.04852E-3	71.2720E-12	615.966E-3	-17.7104E-3	71.9580E-12	644.885E-3	-24.2884E-3
2.04352E-3	70.2565E-12	626.810E-3	-13.2751E-3	70.9755E-12	648.116E-3	-33.8146E-3
2.03852E-3	70.2781E-12	637.279E-3	-8.12540E-3	71.4260E-12	646.175E-3	-39.4880E-3
2.03352E-3	70.7703E-12	630.642E-3	-11.1437E-3	72.8257E-12	622.586E-3	-12.3351E-3
2.02851E-3	70.2545E-12	623.841E-3	-16.3409E-3	72.1957E-12	618.794E-3	5.86533E-3
2.02351E-3	69.5771E-12	635.435E-3	-19.1617E-3	70.0304E-12	641.707E-3	-10.6238E-3
2.01851E-3	69.1273E-12	656.016E-3	-20.7168E-3	69.2172E-12	644.232E-3	-29.0498E-3
2.01351E-3	70.1823E-12	653.052E-3	-19.1416E-3	70.5141E-12	622.926E-3	-32.7211E-3
2.00850E-3	69.9348E-12	627.835E-3	-26.3811E-3	71.2820E-12	595.166E-3	-15.2092E-3
2.00350E-3	68.1676E-12	630.714E-3	-28.6444E-3	69.4389E-12	597.042E-3	5.33210E-3
1.99850E-3	67.5827E-12	639.522E-3	-9.21366E-3	67.8226E-12	640.875E-3	3.39552E-3
1.99350E-3	68.6482E-12	619.090E-3	6.03608E-3	67.6982E-12	662.188E-3	-4.02141E-3
1.98849E-3	69.5887E-12	610.597E-3	6.19724E-3	69.1340E-12	638.207E-3	-7.30563E-3
1.98349E-3	68.6207E-12	621.272E-3	12.2376E-3	69.0097E-12	620.997E-3	-6.60673E-3
1.97849E-3	67.8269E-12	633.205E-3	16.2758E-3	67.0777E-12	628.200E-3	-4.42612E-3
1.97349E-3	67.8913E-12	649.445E-3	2.30920E-3	66.3794E-12	632.027E-3	-5.47054E-3
1.96848E-3	68.1133E-12	655.294E-3	-17.4630E-3	68.3976E-12	635.221E-3	-3.40923E-3
1.96348E-3	67.9894E-12	638.997E-3	-30.4527E-3	68.7940E-12	641.283E-3	-17.4759E-3
1.95848E-3	67.1778E-12	625.487E-3	-28.4914E-3	67.4788E-12	635.878E-3	-44.6048E-3
1.95348E-3	66.3388E-12	626.534E-3	-26.1752E-3	66.4416E-12	640.555E-3	-43.7136E-3
1.94847E-3	66.2223E-12	627.235E-3	-32.8384E-3	65.9261E-12	656.913E-3	-18.6694E-3
1.94347E-3	66.4145E-12	619.464E-3	-27.6743E-3	67.6691E-12	661.689E-3	1.30073E-3
1.93847E-3	66.2085E-12	603.761E-3	-11.6448E-3	67.6654E-12	654.007E-3	10.3555E-3
1.93347E-3	64.9601E-12	602.827E-3	-7.22764E-3	66.4168E-12	647.059E-3	5.95680E-3
1.92846E-3	64.5288E-12	615.381E-3	-21.7257E-3	65.2396E-12	648.883E-3	-9.82805E-3
1.92346E-3	64.6923E-12	619.777E-3	-28.6577E-3	65.8063E-12	661.283E-3	-13.4518E-3
1.91846E-3	64.8634E-12	623.503E-3	-24.0066E-3	66.8228E-12	667.203E-3	-14.6800E-3
1.91346E-3	63.9936E-12	635.276E-3	-32.8794E-3	65.2840E-12	656.251E-3	-28.8006E-3
1.90845E-3	63.4994E-12	657.155E-3	-37.0525E-3	64.1619E-12	646.687E-3	-28.5507E-3
1.90345E-3	63.7093E-12	669.356E-3	-32.6444E-3	63.9137E-12	650.946E-3	-21.9584E-3
1.89845E-3	64.9933E-12	672.615E-3	-43.4688E-3	64.7733E-12	660.387E-3	-33.3215E-3
1.89345E-3	64.3607E-12	684.615E-3	-40.7332E-3	63.8633E-12	643.397E-3	-38.3913E-3
1.88844E-3	64.1689E-12	675.562E-3	-21.6989E-3	62.7582E-12	625.226E-3	-24.5507E-3
1.88344E-3	64.1782E-12	663.203E-3	-17.8045E-3	62.7330E-12	635.579E-3	-16.6310E-3
1.87844E-3	64.9592E-12	667.048E-3	-6.31602E-3	62.8701E-12	635.598E-3	-21.0587E-3
1.87344E-3	64.9982E-12	656.345E-3	-620.265E-6	63.0321E-12	634.295E-3	-26.9320E-3
1.86843E-3	64.5544E-12	656.973E-3	-11.7848E-3	62.0515E-12	649.115E-3	-30.1748E-3
1.86343E-3	63.7084E-12	674.810E-3	-9.53692E-3	61.9855E-12	657.403E-3	-32.3134E-3
1.85843E-3	63.3930E-12	670.087E-3	-1.82765E-3	62.4729E-12	664.843E-3	-24.9242E-3
1.85343E-3	63.2168E-12	663.602E-3	-3.21592E-3	62.6282E-12	671.903E-3	-10.1855E-3
1.84842E-3	62.9311E-12	679.144E-3	-6.72215E-3	62.1769E-12	660.945E-3	-9.77775E-3
1.84342E-3	62.9488E-12	690.836E-3	118.024E-6	62.0052E-12	649.723E-3	-11.5025E-3
1.83842E-3	62.7477E-12	679.176E-3	-12.3768E-3	61.5577E-12	660.177E-3	1.11391E-3
1.83342E-3	61.9339E-12	660.995E-3	-32.3535E-3	62.2232E-12	668.550E-3	6.56092E-3
1.82841E-3	61.5344E-12	655.865E-3	-15.8519E-3	62.3413E-12	664.144E-3	-6.04957E-3
1.82341E-3	61.2323E-12	661.008E-3	-7.76934E-3	61.5240E-12	671.068E-3	-17.0178E-3
1.81841E-3	60.6330E-12	672.309E-3	-19.8788E-3	60.5728E-12	681.492E-3	-2.60928E-3
1.81341E-3	59.9270E-12	674.429E-3	-21.0797E-3	60.6699E-12	692.147E-3	20.8871E-3
1.80840E-3	60.3472E-12	666.982E-3	-22.5741E-3	61.3041E-12	710.126E-3	3.64037E-3
1.80340E-3	60.4128E-12	674.128E-3	-18.8551E-3	60.8684E-12	694.440E-3	-31.6445E-3
1.79840E-3	59.9533E-12	675.332E-3	-16.6433E-3	59.7904E-12	658.321E-3	-26.1437E-3
1.79340E-3	59.8261E-12	665.972E-3	-28.8472E-3	59.8477E-12	657.479E-3	-8.06723E-3
1.78839E-3	59.8655E-12	679.506E-3	-31.1496E-3	60.1396E-12	676.263E-3	-19.9984E-3
1.78339E-3	60.5802E-12	680.439E-3	-20.9210E-3	59.8773E-12	694.933E-3	-28.5422E-3
1.77839E-3	60.2828E-12	651.074E-3	-10.2306E-3	59.0092E-12	709.977E-3	-18.6936E-3
1.77339E-3	59.7439E-12	655.072E-3	-10.4062E-3	59.3501E-12	700.185E-3	-25.4842E-3
1.76838E-3	59.6191E-12	692.560E-3	-15.3469E-3	59.4293E-12	690.379E-3	-34.7735E-3
1.76338E-3	60.0814E-12	711.143E-3	-13.3773E-3	60.0322E-12	706.012E-3	-24.2588E-3
1.75838E-3	59.4730E-12	710.737E-3	-21.9207E-3	59.1671E-12	709.487E-3	-26.2201E-3
1.75338E-3	58.4017E-12	711.344E-3	-28.2055E-3	58.7442E-12	702.699E-3	-24.6594E-3
1.74837E-3	57.6057E-12	712.573E-3	-17.9291E-3	58.7574E-12	718.313E-3	-7.08012E-3
1.74337E-3	57.1740E-12	708.262E-3	-18.8288E-3	59.6979E-12	727.295E-3	-14.3543E-3
1.73837E-3	56.5930E-12	703.243E-3	-30.6594E-3	58.4376E-12	707.338E-3	-19.3665E-3
1.73337E-3	56.5047E-12	696.335E-3	-33.6302E-3	57.6278E-12	695.607E-3	-8.73466E-3
1.72836E-3	56.7538E-12	691.141E-3	-18.6788E-3	57.1889E-12	694.179E-3	-9.95788E-3
1.72336E-3	55.7521E-12	692.164E-3	-3.13757E-3	56.4836E-12	688.229E-3	-7.54226E-3
1.71836E-3	55.4874E-12	691.390E-3	-5.56535E-3	56.5054E-12	702.352E-3	982.361E-6
1.71336E-3	55.7905E-12	704.011E-3	-23.1063E-3	56.3876E-12	714.622E-3	-6.67829E-3
1.70835E-3	56.0208E-12	721.626E-3	-32.1385E-3	55.6164E-12	701.814E-3	-16.5274E-3
1.70335E-3	55.0669E-12	716.228E-3	-15.6324E-3	55.0601E-12	707.759E-3	-7.46891E-3
1.69835E-3	54.0896E-12	706.745E-3	-8.08704E-3	54.8406E-12	722.370E-3	3.93550E-3
1.69335E-3	54.8660E-12	703.250E-3	-16.5575E-3	54.3256E-12	712.590E-3	-4.43991E-3
1.68834E-3	56.0660E-12	702.221E-3	-18.6815E-3	54.0998E-12	709.700E-3	-12.3294E-3
1.68334E-3	56.0334E-12	715.301E-3	-20.5415E-3	54.0937E-12	719.515E-3	-12.0620E-3
1.67834E-3	54.3667E-12	743.657E-3	-20.8499E-3	53.8759E-12	716.715E-3	-10.0319E-3
1.67334E-3	54.2589E-12	756.650E-3	-17.8539E-3	53.5620E-12	723.016E-3	3.90246E-3
1.66833E-3	54.4193E-12	743.837E-3	-26.6945E-3	53.0682E-12	744.527E-3	-2.84537E-3
1.66333E-3	54.8671E-12	735.710E-3	-33.3647E-3	52.8812E-12	740.423E-3	-32.1114E-3
1.65833E-3	53.2726E-12	734.854E-3	-17.9547E-3	53.0355E-12	724.760E-3	-33.6301E-3
1.65333E-3	52.7339E-12	730.421E-3	-12.6174E-3	53.2883E-12	728.247E-3	-20.4219E-3
1.64832E-3	52.5984E-12	734.395E-3	-25.7255E-3	52.4878E-12	735.745E-3	-21.4392E-3
1.64332E-3	52.6686E-12	741.844E-3	-29.9057E-3	52.0731E-12	755.171E-3	-12.8118E-3
1.63832E-3	52.0089E-12	745.628E-3	-33.0236E-3	51.9701E-12	781.922E-3	-4.80852E-3
1.63332E-3	51.7132E-12	754.576E-3	-32.2160E-3	52.5786E-12	764.447E-3	-7.39404E-3
1.62831E-3	51.5110E-12	754.204E-3	-25.1118E-3	52.5090E-12	737.499E-3	3.35567E-3
1.62331E-3	51.0024E-12	747.149E-3	-24.5271E-3	51.5227E-12	744.118E-3	4.81386E-3
1.61831E-3	50.6541E-12	747.490E-3	-15.4684E-3	51.3262E-12	743.546E-3	-10.7563E-3
1.61331E-3	50.1841E-12	744.651E-3	-3.06955E-3	51.9739E-12	741.221E-3	-18.9132E-3
1.60830E-3	50.1004E-12	734.001E-3	-7.41922E-3	51.8669E-12	753.299E-3	-30.9091E-3
1.60330E-3	50.2078E-12	732.379E-3	-17.8892E-3	50.5323E-12	760.652E-3	-44.2447E-3
1.59830E-3	49.5483E-12	738.233E-3	-19.8130E-3	49.7501E-12	772.095E-3	-32.0754E-3
1.59330E-3	49.1962E-12	743.203E-3	-25.1369E-3	50.2889E-12	794.292E-3	-19.3515E-3
1.58829E-3	49.0552E-12	752.998E-3	-35.8796E-3	50.7056E-12	796.302E-3	-26.3489E-3
1.58329E-3	49.3495E-12	758.722E-3	-38.6914E-3	50.1788E-12	769.534E-3	-15.8471E-3
1.57829E-3	48.9814E-12	754.239E-3	-42.0093E-3	48.7591E-12	757.578E-3	742.563E-6
1.57329E-3	48.8936E-12	749.627E-3	-39.8085E-3	48.2467E-12	759.414E-3	-14.1621E-3
1.56828E-3	48.5675E-12	758.444E-3	-26.7210E-3	48.2053E-12	745.148E-3	-19.5281E-3
1.56328E-3	48.9413E-12	768.739E-3	-23.0387E-3	48.0115E-12	746.035E-3	6.60803E-3
1.55828E-3	48.6427E-12	773.997E-3	-20.6625E-3	47.5297E-12	768.598E-3	12.3158E-3
1.55328E-3	47.5127E-12	776.810E-3	4.12206E-3	46.6800E-12	775.561E-3	-1.24075E-3
1.54827E-3	47.6807E-12	770.879E-3	18.9703E-3	46.8153E-12	783.717E-3	-4.33650E-3
1.54327E-3	47.5350E-12	766.710E-3	-9.63253E-3	47.0812E-12	796.823E-3	-9.13115E-3
1.53827E-3	47.2877E-12	773.692E-3	-33.8884E-3	46.8209E-12	780.048E-3	-9.30685E-3
1.53327E-3	47.2095E-12	782.515E-3	-22.6506E-3	46.5434E-12	768.116E-3	-6.16697E-3
1.52826E-3	46.7540E-12	787.013E-3	-16.4792E-3	46.4871E-12	787.901E-3	-26.5952E-3
1.52326E-3	46.5784E-12	783.530E-3	-19.0079E-3	46.9306E-12	797.465E-3	-45.2570E-3
1.51826E-3	46.1326E-12	775.584E-3	-17.3045E-3	46.9234E-12	795.747E-3	-34.1561E-3
1.51326E-3	46.2130E-12	776.197E-3	-27.7019E-3	46.2354E-12	793.971E-3	-18.5594E-3
1.50825E-3	46.0219E-12	780.723E-3	-28.7663E-3	46.0198E-12	789.779E-3	-11.2696E-3
1.50325E-3	45.4810E-12	777.654E-3	-9.21168E-3	45.9398E-12	791.170E-3	-663.417E-6
1.49825E-3	45.0113E-12	775.331E-3	-4.04467E-3	46.3972E-12	797.200E-3	-4.04898E-3
1.49325E-3	44.5700E-12	784.257E-3	-25.0220E-3	45.8726E-12	797.340E-3	-25.4487E-3
1.48824E-3	44.6706E-12	790.105E-3	-36.9197E-3	45.4787E-12	779.169E-3	-21.4892E-3
1.48324E-3	44.0634E-12	784.675E-3	-25.2587E-3	45.7053E-12	773.489E-3	-6.46973E-3
1.47824E-3	44.4167E-12	782.932E-3	-13.0019E-3	45.5061E-12	782.965E-3	-18.2904E-3
1.47324E-3	44.0410E-12	777.205E-3	100.159E-6	44.3061E-12	776.414E-3	-25.0567E-3
1.46823E-3	43.5630E-12	765.689E-3	-3.86388E-3	44.6082E-12	781.321E-3	-9.55835E-3
1.46323E-3	43.3198E-12	768.651E-3	-26.5852E-3	44.6135E-12	795.788E-3	-6.05395E-3
1.45823E-3	44.3245E-12	773.066E-3	-25.0275E-3	44.3760E-12	781.928E-3	-10.7898E-3
1.45323E-3	44.9839E-12	771.444E-3	-14.2103E-3	43.6867E-12	763.906E-3	-6.61732E-3
1.44822E-3	43.9612E-12	787.988E-3	-18.2193E-3	43.3766E-12	768.512E-3	-8.95595E-3
1.44322E-3	42.8186E-12	806.084E-3	-14.0968E-3	43.4272E-12	765.196E-3	-6.35308E-3
1.43822E-3	43.5314E-12	797.315E-3	-7.33039E-3	44.0649E-12	759.925E-3	971.601E-6
1.43322E-3	44.3283E-12	786.285E-3	-21.0983E-3	43.6584E-12	767.345E-3	-5.86087E-3
1.42821E-3	43.1694E-12	785.389E-3	-34.2071E-3	42.5482E-12	767.932E-3	-7.82383E-3
1.42321E-3	41.0168E-12	785.510E-3	-28.6653E-3	42.5617E-12	775.895E-3	-3.27813E-3
1.41821E-3	41.7586E-12	788.198E-3	-23.3597E-3	42.2980E-12	787.927E-3	-29.2851E-3
1.41321E-3	42.8884E-12	779.265E-3	-16.9230E-3	42.8644E-12	764.869E-3	-52.8694E-3
1.40820E-3	41.7924E-12	754.878E-3	-13.1787E-3	42.2938E-12	730.975E-3	-25.2946E-3
1.40320E-3	40.0218E-12	739.773E-3	-22.0020E-3	41.5761E-12	734.361E-3	-8.80730E-3
1.39820E-3	39.5473E-12	736.834E-3	-15.9699E-3	40.8657E-12	744.528E-3	-27.9811E-3
1.39320E-3	40.0093E-12	731.779E-3	-1.77601E-3	40.5144E-12	724.747E-3	-28.1513E-3
1.38819E-3	40.0550E-12	734.133E-3	-11.9234E-3	41.0913E-12	702.374E-3	-19.9077E-3
1.38319E-3	39.0290E-12	742.917E-3	-26.6035E-3	40.5845E-12	704.561E-3	-22.7217E-3
1.37819E-3	38.6251E-12	732.646E-3	-16.5313E-3	39.5950E-12	714.814E-3	-14.8473E-3
1.37319E-3	38.7554E-12	728.260E-3	-2.23443E-3	38.5547E-12	714.678E-3	-14.0317E-3
1.36818E-3	39.6860E-12	743.216E-3	-2.21976E-3	39.6480E-12	704.780E-3	-26.1193E-3
1.36318E-3	39.0739E-12	739.012E-3	-17.8817E-3	38.7826E-12	689.376E-3	-29.4107E-3
1.35818E-3	38.3159E-12	738.176E-3	-42.0870E-3	37.7502E-12	677.770E-3	-34.0676E-3
1.35318E-3	38.1229E-12	747.759E-3	-37.8201E-3	36.9514E-12	672.585E-3	-41.4157E-3
1.34817E-3	38.0700E-12	730.314E-3	-16.4131E-3	37.9196E-12	672.844E-3	-33.1011E-3
1.34317E-3	38.8466E-12	710.698E-3	-16.8632E-3	39.0931E-12	684.306E-3	-21.3430E-3
1.33817E-3	37.7879E-12	708.164E-3	-11.2121E-3	38.1150E-12	681.092E-3	-17.9608E-3
1.33317E-3	37.3419E-12	693.809E-3	3.24396E-3	37.3545E-12	663.437E-3	-18.6074E-3
1.32816E-3	37.4248E-12	675.944E-3	-8.77792E-3	36.7535E-12	654.996E-3	-21.3186E-3
1.32316E-3	38.4190E-12	675.813E-3	-13.7828E-3	37.7476E-12	646.146E-3	-25.1900E-3
1.31816E-3	37.0957E-12	676.729E-3	-4.40609E-3	37.6408E-12	636.793E-3	-31.6318E-3
1.31316E-3	36.2488E-12	664.869E-3	-13.9092E-3	36.2555E-12	627.359E-3	-37.1922E-3
1.30815E-3	36.1675E-12	657.434E-3	-18.4060E-3	35.3615E-12	612.821E-3	-27.1329E-3
1.30315E-3	36.2858E-12	648.316E-3	2.66480E-3	35.9422E-12	592.961E-3	-14.7133E-3
1.29815E-3	36.6072E-12	628.432E-3	14.9869E-3	36.1275E-12	571.218E-3	-27.5521E-3
1.29315E-3	35.2369E-12	632.992E-3	2.27440E-3	34.8176E-12	555.874E-3	-32.0545E-3
1.28814E-3	35.2127E-12	642.057E-3	-720.808E-6	33.9552E-12	545.420E-3	-7.49045E-3
1.28314E-3	35.2733E-12	621.980E-3	1.30485E-3	34.4608E-12	535.627E-3	9.42378E-3
1.27814E-3	35.8960E-12	606.350E-3	-5.06028E-3	35.1557E-12	522.392E-3	-5.00847E-3
1.27314E-3	35.2655E-12	588.713E-3	-12.0068E-3	33.9431E-12	515.620E-3	-15.6463E-3
1.26813E-3	34.9675E-12	561.145E-3	-27.9239E-3	33.0650E-12	521.193E-3	1.10089E-3
1.26313E-3	34.9697E-12	564.326E-3	-33.2329E-3	32.7614E-12	524.247E-3	7.02977E-3
1.25813E-3	35.8516E-12	567.834E-3	-19.8037E-3	33.1069E-12	509.383E-3	-5.01712E-3
1.25313E-3	35.8206E-12	547.351E-3	-21.2233E-3	32.9657E-12	483.488E-3	-9.82066E-3
1.24812E-3	34.7112E-12	550.901E-3	-26.1817E-3	32.4909E-12	479.531E-3	-7.98445E-3
1.24312E-3	34.2051E-12	560.483E-3	-5.97125E-3	32.6959E-12	483.765E-3	-9.28093E-3
1.23812E-3	34.1607E-12	539.865E-3	7.35461E-3	32.6497E-12	466.133E-3	-19.8014E-3
1.23312E-3	34.7709E-12	525.244E-3	-6.70579E-3	32.6375E-12	443.415E-3	-32.4043E-3
1.22811E-3	34.3955E-12	521.466E-3	-11.9937E-3	32.5538E-12	420.648E-3	-37.2844E-3
1.22311E-3	33.6544E-12	503.532E-3	-6.88891E-3	32.3629E-12	401.898E-3	-25.5580E-3
1.21811E-3	33.6696E-12	492.321E-3	-15.6687E-3	32.1418E-12	404.670E-3	-13.7267E-3
1.21311E-3	34.0947E-12	494.054E-3	-15.2588E-3	32.2887E-12	408.698E-3	-21.2855E-3
1.20810E-3	33.2077E-12	474.707E-3	-8.17051E-3	32.5599E-12	405.038E-3	-27.3206E-3
1.20310E-3	31.6252E-12	445.192E-3	-20.3160E-3	32.4862E-12	400.275E-3	-30.0479E-3
1.19810E-3	32.5676E-12	429.139E-3	-14.1615E-3	32.4783E-12	388.491E-3	-38.2875E-3
1.19310E-3	33.2128E-12	410.831E-3	9.95314E-3	32.8145E-12	383.409E-3	-34.4664E-3
1.18809E-3	33.3200E-12	401.451E-3	-2.91133E-3	32.2811E-12	389.551E-3	-18.6085E-3
1.18309E-3	31.5359E-12	413.886E-3	-14.9884E-3	31.6092E-12	388.234E-3	-15.0640E-3
1.17809E-3	31.7314E-12	408.214E-3	3.61995E-3	31.4519E-12	365.120E-3	-11.4973E-3
1.17309E-3	32.9273E-12	383.036E-3	-5.05819E-3	32.5003E-12	335.467E-3	-2.12238E-3
1.16808E-3	32.3248E-12	376.359E-3	-26.6923E-3	32.6959E-12	324.688E-3	-16.0201E-3
1.16308E-3	31.3785E-12	366.224E-3	-21.0496E-3	31.2879E-12	315.773E-3	-31.1791E-3
1.15808E-3	30.7056E-12	352.037E-3	-21.5952E-3	30.9239E-12	309.757E-3	-20.2039E-3
1.15308E-3	31.1726E-12	355.011E-3	-19.9631E-3	31.4761E-12	308.931E-3	-17.0122E-3
1.14807E-3	31.3839E-12	341.605E-3	-1.42543E-3	31.6857E-12	293.947E-3	-24.1667E-3
1.14307E-3	30.8750E-12	316.122E-3	-8.48573E-3	31.2334E-12	286.979E-3	-22.8360E-3
1.13807E-3	30.5871E-12	309.892E-3	-32.5628E-3	30.6621E-12	286.989E-3	-25.6740E-3
1.13307E-3	30.3417E-12	304.810E-3	-32.0610E-3	30.3178E-12	270.212E-3	-26.0008E-3
1.12806E-3	31.0575E-12	288.123E-3	-20.1071E-3	30.9146E-12	253.092E-3	-12.6235E-3
1.12306E-3	30.8694E-12	276.434E-3	-419.529E-6	30.7796E-12	243.647E-3	-7.98044E-3
1.11806E-3	30.7785E-12	274.407E-3	19.2070E-3	30.7650E-12	234.072E-3	-13.7507E-3
1.11306E-3	30.6888E-12	275.596E-3	10.3783E-3	30.3655E-12	246.866E-3	-11.9382E-3
1.10805E-3	30.5898E-12	282.165E-3	-7.97132E-3	29.9993E-12	266.932E-3	-20.4225E-3
1.10305E-3	30.5610E-12	281.238E-3	-4.47966E-3	30.2076E-12	254.297E-3	-37.5988E-3
1.09805E-3	30.2502E-12	253.679E-3	2.63524E-3	30.1111E-12	229.671E-3	-31.8627E-3
1.09305E-3	30.5193E-12	235.176E-3	-4.22792E-3	30.0779E-12	218.827E-3	-14.2669E-3
1.08804E-3	30.0101E-12	240.001E-3	-8.78979E-3	29.6139E-12	218.355E-3	-2.42492E-3
1.08304E-3	29.6620E-12	228.797E-3	-21.2561E-3	29.9369E-12	220.813E-3	2.78751E-3
1.07804E-3	29.6885E-12	210.995E-3	-30.2960E-3	30.0792E-12	218.309E-3	-635.916E-6
1.07304E-3	29.9658E-12	207.195E-3	-17.9034E-3	29.7006E-12	211.507E-3	-6.44568E-3
1.06803E-3	29.6763E-12	206.513E-3	-15.1379E-3	29.1900E-12	208.141E-3	-4.82303E-3
1.06303E-3	29.2597E-12	218.917E-3	-28.3355E-3	28.9678E-12	209.190E-3	-6.80518E-3
1.05803E-3	29.2564E-12	232.388E-3	-19.1738E-3	29.4054E-12	201.160E-3	-22.0676E-3
1.05303E-3	29.2899E-12	221.577E-3	-3.45983E-3	29.3840E-12	187.214E-3	-28.4238E-3
1.04802E-3	29.3019E-12	213.329E-3	-5.61064E-3	29.0730E-12	190.591E-3	-22.1822E-3
1.04302E-3	29.2619E-12	214.252E-3	4.21399E-3	28.6193E-12	198.939E-3	-18.7966E-3
1.03802E-3	28.6767E-12	205.900E-3	7.71946E-3	29.2972E-12	204.333E-3	-17.8058E-3
1.03302E-3	28.7490E-12	206.533E-3	-14.5654E-3	29.2758E-12	211.943E-3	-28.0072E-3
1.02801E-3	28.8067E-12	210.992E-3	-22.4768E-3	29.0669E-12	205.230E-3	-43.5263E-3
1.02301E-3	29.1464E-12	195.528E-3	-8.18368E-3	28.6773E-12	191.235E-3	-37.3701E-3
1.01801E-3	28.8435E-12	191.678E-3	719.099E-6	29.1867E-12	184.843E-3	-16.2106E-3
1.01301E-3	28.4540E-12	213.465E-3	8.18080E-3	29.2046E-12	186.836E-3	-8.27300E-3
1.00800E-3	28.7873E-12	210.436E-3	11.7456E-3	28.7024E-12	197.602E-3	-11.8777E-3
1.00300E-3	29.1187E-12	190.717E-3	-10.6389E-3	28.6903E-12	208.991E-3	-10.2022E-3
997.999E-6	29.0215E-12	196.624E-3	-30.5835E-3	28.2696E-12	210.625E-3	-9.19820E-3
992.997E-6	27.6175E-12	208.096E-3	-25.3809E-3	28.8877E-12	196.159E-3	-7.07146E-3
987.994E-6	27.7207E-12	211.480E-3	-26.4402E-3	28.7804E-12	187.058E-3	1.90913E-3
982.991E-6	27.7839E-12	210.699E-3	-27.6778E-3	28.4697E-12	207.410E-3	3.72439E-3
977.989E-6	27.7163E-12	194.058E-3	-13.2320E-3	27.5879E-12	224.485E-3	-11.9106E-3
972.986E-6	27.1611E-12	186.995E-3	-19.6196E-3	27.4911E-12	219.187E-3	-28.1828E-3
967.984E-6	27.5778E-12	208.658E-3	-36.3826E-3	28.2587E-12	211.512E-3	-28.8248E-3
962.981E-6	27.4448E-12	218.928E-3	-24.1432E-3	27.9402E-12	214.988E-3	-17.8857E-3
957.979E-6	26.9706E-12	210.003E-3	-10.6404E-3	27.7449E-12	227.884E-3	-10.1522E-3
952.976E-6	26.9446E-12	206.606E-3	-13.6510E-3	26.5809E-12	227.089E-3	-12.8557E-3
947.974E-6	27.0666E-12	207.209E-3	-14.1337E-3	27.2500E-12	220.233E-3	-17.2416E-3
942.971E-6	27.1308E-12	203.453E-3	-23.8820E-3	27.7072E-12	221.574E-3	-12.6531E-3
937.969E-6	27.1583E-12	208.564E-3	-40.4371E-3	27.5922E-12	225.797E-3	-871.565E-6
932.966E-6	26.6306E-12	225.080E-3	-30.9191E-3	27.1130E-12	248.592E-3	1.10956E-3
927.964E-6	26.7186E-12	232.895E-3	-14.2628E-3	26.5327E-12	274.734E-3	-11.8560E-3
922.961E-6	26.9172E-12	235.808E-3	-16.2770E-3	27.7061E-12	273.473E-3	-21.2725E-3
917.959E-6	26.6207E-12	238.368E-3	-11.0730E-3	27.6849E-12	275.078E-3	-19.3495E-3
912.956E-6	26.4368E-12	236.959E-3	-6.67516E-3	27.0584E-12	292.616E-3	-8.42882E-3
907.954E-6	26.2610E-12	244.645E-3	-28.2721E-3	26.2080E-12	296.505E-3	8.00698E-3
902.951E-6	26.5528E-12	252.033E-3	-32.3388E-3	26.9042E-12	291.010E-3	20.5189E-3
897.949E-6	26.5591E-12	243.909E-3	-14.3833E-3	27.8214E-12	292.803E-3	16.1177E-3
892.946E-6	26.4550E-12	256.404E-3	-12.2377E-3	27.3468E-12	307.296E-3	1.42866E-3
887.944E-6	26.0625E-12	286.103E-3	-12.4930E-3	26.6076E-12	333.645E-3	-3.91481E-3
882.941E-6	25.9856E-12	289.045E-3	-22.0300E-3	25.7688E-12	348.771E-3	-4.07788E-3
877.939E-6	26.1878E-12	285.505E-3	-51.2926E-3	26.6781E-12	343.818E-3	-10.9724E-3
872.936E-6	26.4318E-12	298.224E-3	-58.0750E-3	26.7979E-12	340.774E-3	-18.7527E-3
867.934E-6	25.7531E-12	306.357E-3	-36.2753E-3	26.7172E-12	358.988E-3	-23.8987E-3
862.931E-6	25.4223E-12	314.986E-3	-24.9840E-3	25.6159E-12	389.526E-3	-31.2055E-3
857.929E-6	25.8469E-12	340.991E-3	-21.7071E-3	26.1130E-12	397.380E-3	-23.9516E-3
852.926E-6	26.0978E-12	356.940E-3	-19.4473E-3	27.3219E-12	388.554E-3	-11.5929E-3
847.924E-6	25.7315E-12	354.136E-3	-25.9669E-3	26.2505E-12	397.130E-3	-19.6645E-3
842.921E-6	25.5522E-12	367.513E-3	-9.52340E-3	25.5986E-12	419.858E-3	-35.4636E-3
837.919E-6	25.3460E-12	387.644E-3	15.0335E-3	25.4570E-12	435.270E-3	-29.2587E-3
832.916E-6	25.2501E-12	399.624E-3	8.45197E-3	26.4358E-12	440.004E-3	-9.87247E-3
827.914E-6	24.8675E-12	420.575E-3	3.10788E-3	26.5442E-12	449.430E-3	-9.25199E-3
822.911E-6	24.9391E-12	422.357E-3	6.71862E-3	25.7541E-12	461.497E-3	-11.7930E-3
817.909E-6	24.9910E-12	403.729E-3	-9.17477E-3	25.5241E-12	480.393E-3	-3.34475E-3
812.906E-6	24.4966E-12	417.416E-3	-23.0424E-3	25.7493E-12	506.511E-3	-5.01945E-3
807.904E-6	24.0685E-12	449.935E-3	-10.3111E-3	26.2077E-12	521.284E-3	-5.14595E-3
802.901E-6	24.0031E-12	458.272E-3	-9.71966E-3	25.8194E-12	534.992E-3	-891.846E-6
797.899E-6	24.1436E-12	470.834E-3	-22.5100E-3	26.1960E-12	552.437E-3	-21.4510E-3
792.896E-6	23.7590E-12	500.961E-3	-13.5347E-3	25.2452E-12	563.860E-3	-39.2162E-3
787.894E-6	23.2811E-12	515.019E-3	-21.1076E-3	25.1869E-12	570.367E-3	-31.0177E-3
782.891E-6	23.2270E-12	528.063E-3	-47.8530E-3	24.7676E-12	578.702E-3	-28.4082E-3
777.889E-6	23.5590E-12	529.038E-3	-42.3610E-3	24.8867E-12	592.830E-3	-22.9765E-3
772.886E-6	23.9539E-12	518.521E-3	-25.4775E-3	24.0405E-12	610.143E-3	-10.7029E-3
767.884E-6	22.7758E-12	537.409E-3	-20.4404E-3	23.7828E-12	623.140E-3	-18.6757E-3
762.881E-6	22.5076E-12	557.306E-3	-11.4547E-3	23.8430E-12	628.385E-3	-25.0531E-3
757.879E-6	22.6994E-12	555.116E-3	-15.1814E-3	23.7852E-12	637.910E-3	-14.8643E-3
752.876E-6	23.1174E-12	573.534E-3	-20.7749E-3	23.5856E-12	648.783E-3	-3.80369E-3
747.874E-6	22.4633E-12	595.821E-3	3.02625E-3	23.0015E-12	648.202E-3	-22.4525E-6
742.871E-6	22.0839E-12	584.001E-3	4.56441E-3	22.9199E-12	649.392E-3	-4.42073E-3
737.869E-6	22.1600E-12	586.652E-3	-27.1596E-3	22.3031E-12	661.998E-3	-9.87461E-3
732.866E-6	21.5623E-12	614.039E-3	-23.3280E-3	22.6633E-12	678.528E-3	-8.29143E-3
727.864E-6	21.5922E-12	617.295E-3	-11.4594E-3	21.7586E-12	690.689E-3	-8.88857E-3
722.861E-6	21.8849E-12	627.000E-3	-20.6457E-3	21.2897E-12	699.512E-3	-16.1887E-3
717.859E-6	21.2822E-12	668.735E-3	-14.2896E-3	21.3378E-12	711.847E-3	-14.0306E-3
712.856E-6	20.3280E-12	686.429E-3	-15.6901E-3	21.2944E-12	717.639E-3	-7.09819E-3
707.854E-6	20.3011E-12	685.543E-3	-40.6286E-3	20.8369E-12	715.982E-3	-2.14940E-3
702.851E-6	21.0318E-12	692.203E-3	-32.6780E-3	20.5780E-12	725.633E-3	1.12686E-3
697.849E-6	20.4195E-12	699.108E-3	-10.9860E-3	19.9010E-12	748.159E-3	-5.05517E-3
692.846E-6	19.4474E-12	724.051E-3	-28.0027E-3	20.2882E-12	762.738E-3	-10.5978E-3
687.844E-6	19.0142E-12	743.574E-3	-36.2239E-3	20.5412E-12	757.216E-3	-12.8815E-3
682.841E-6	19.1196E-12	726.088E-3	-20.1000E-3	19.8364E-12	753.634E-3	-16.2608E-3
677.839E-6	18.7039E-12	710.292E-3	-21.7768E-3	19.1339E-12	769.142E-3	-13.4859E-3
672.836E-6	17.9802E-12	729.568E-3	-29.8629E-3	18.5036E-12	785.420E-3	-9.20935E-3
667.834E-6	17.7002E-12	734.804E-3	-25.5350E-3	19.0177E-12	782.720E-3	-6.66166E-3
662.831E-6	17.7540E-12	718.064E-3	-39.2694E-3	18.9275E-12	781.737E-3	-2.09764E-3
657.829E-6	17.8700E-12	731.917E-3	-47.4809E-3	18.1846E-12	801.965E-3	-5.97230E-3
652.826E-6	17.1130E-12	748.594E-3	-15.8789E-3	17.5231E-12	814.169E-3	-18.4607E-3
647.824E-6	16.8085E-12	745.417E-3	1.05681E-3	17.6250E-12	798.095E-3	-27.1214E-3
642.821E-6	16.7100E-12	754.411E-3	-3.67041E-3	18.3769E-12	771.118E-3	-28.0022E-3
637.819E-6	16.9867E-12	758.807E-3	2.90669E-3	17.2172E-12	765.482E-3	-21.1357E-3
632.816E-6	16.3480E-12	753.834E-3	-3.55656E-3	16.6564E-12	788.563E-3	-16.8184E-3
627.814E-6	16.2024E-12	778.189E-3	-19.3094E-3	15.9681E-12	810.403E-3	-17.0939E-3
622.811E-6	15.9057E-12	796.093E-3	-21.4809E-3	16.8575E-12	818.699E-3	-19.0435E-3
617.809E-6	15.7691E-12	776.692E-3	-31.4310E-3	16.2880E-12	826.503E-3	-28.1749E-3
612.806E-6	15.4165E-12	772.571E-3	-40.0668E-3	15.4458E-12	842.556E-3	-31.8086E-3
607.804E-6	15.0285E-12	790.702E-3	-20.1545E-3	15.0043E-12	847.143E-3	-21.9230E-3
602.801E-6	15.0871E-12	789.273E-3	-12.8277E-3	15.3297E-12	840.361E-3	-13.5986E-3
597.799E-6	14.6299E-12	788.313E-3	-30.9428E-3	15.7878E-12	848.790E-3	-11.4196E-3
592.796E-6	14.5426E-12	811.952E-3	-23.4154E-3	14.9965E-12	861.237E-3	-12.5450E-3
587.794E-6	13.9519E-12	826.441E-3	-8.80068E-3	14.4787E-12	856.169E-3	-15.0422E-3
582.791E-6	14.2521E-12	824.119E-3	-12.0688E-3	14.2060E-12	844.858E-3	-16.4377E-3
577.789E-6	13.7255E-12	820.830E-3	-13.1286E-3	14.4198E-12	831.390E-3	-20.3700E-3
572.786E-6	13.2197E-12	813.950E-3	-23.7904E-3	14.1744E-12	818.794E-3	-22.7376E-3
567.784E-6	13.1613E-12	813.449E-3	-31.6373E-3	13.5455E-12	831.646E-3	-22.2808E-3
562.781E-6	12.9574E-12	821.036E-3	-9.75327E-3	12.9591E-12	842.958E-3	-31.7819E-3
557.779E-6	13.0342E-12	821.172E-3	6.27927E-3	12.9099E-12	823.229E-3	-39.0493E-3
552.776E-6	12.1566E-12	830.836E-3	-16.1222E-3	12.9553E-12	802.286E-3	-26.8570E-3
547.774E-6	12.2162E-12	845.604E-3	-27.5835E-3	12.3429E-12	794.032E-3	-15.6669E-3
542.771E-6	11.9681E-12	831.373E-3	-8.00739E-3	11.5747E-12	798.123E-3	-13.1417E-3
537.769E-6	11.8187E-12	817.365E-3	-7.66069E-3	11.4064E-12	801.094E-3	-12.2313E-3
532.766E-6	11.2349E-12	818.466E-3	-16.4680E-3	11.3171E-12	790.243E-3	-13.9217E-3
527.764E-6	11.3214E-12	798.373E-3	-8.71889E-3	11.4676E-12	775.069E-3	-13.2451E-3
522.761E-6	11.0280E-12	775.439E-3	-14.7326E-3	10.9087E-12	765.601E-3	-12.3442E-3
517.759E-6	10.5430E-12	791.152E-3	-23.4378E-3	10.5393E-12	772.198E-3	-13.8223E-3
512.756E-6	10.4025E-12	807.750E-3	-7.25159E-3	10.2644E-12	774.674E-3	-9.58881E-3
507.754E-6	10.4688E-12	804.090E-3	-1.34863E-3	10.1846E-12	760.196E-3	-2.32784E-3
502.751E-6	10.4836E-12	806.562E-3	-6.88256E-3	10.0173E-12	757.330E-3	-7.21836E-3
497.749E-6	9.60583E-12	805.871E-3	-5.97642E-3	9.64586E-12	761.818E-3	-13.0195E-3
492.746E-6	9.37787E-12	790.627E-3	-16.5583E-3	9.35429E-12	751.830E-3	-11.0350E-3
487.744E-6	9.23901E-12	778.711E-3	-22.1402E-3	9.07674E-12	740.879E-3	-8.90163E-3
482.741E-6	9.15510E-12	769.538E-3	-14.1533E-3	8.98127E-12	738.757E-3	-6.32341E-3
477.739E-6	8.91064E-12	758.179E-3	-20.8033E-3	8.95779E-12	742.700E-3	-3.31968E-3
472.736E-6	8.59979E-12	763.061E-3	-21.8526E-3	8.62209E-12	744.870E-3	-1.14764E-3
467.734E-6	8.40632E-12	762.811E-3	-2.52616E-3	8.36821E-12	735.129E-3	-11.0968E-3
462.731E-6	8.10003E-12	740.099E-3	-13.5630E-3	8.04429E-12	710.700E-3	-24.2093E-3
457.729E-6	7.77585E-12	728.913E-3	-30.8074E-3	8.24448E-12	686.899E-3	-20.7221E-3
452.726E-6	7.50833E-12	720.338E-3	-12.4090E-3	7.80559E-12	685.210E-3	-16.2993E-3
447.724E-6	7.40619E-12	693.987E-3	-9.95634E-3	7.35017E-12	694.479E-3	-21.1032E-3
442.721E-6	7.36061E-12	693.729E-3	-20.7076E-3	7.21347E-12	684.896E-3	-15.8902E-3
437.719E-6	7.03421E-12	706.625E-3	-12.0770E-3	7.37185E-12	660.502E-3	-9.43067E-3
432.716E-6	6.74774E-12	689.883E-3	-13.8847E-3	7.14421E-12	649.091E-3	-15.5760E-3
427.714E-6	6.69896E-12	676.240E-3	-22.5870E-3	6.49901E-12	657.069E-3	-13.8730E-3
422.711E-6	6.50410E-12	672.212E-3	-17.6870E-3	6.42727E-12	656.472E-3	-7.25090E-3
417.709E-6	6.20122E-12	648.481E-3	-15.6168E-3	6.28520E-12	624.156E-3	-13.8291E-3
412.706E-6	6.13553E-12	630.914E-3	-14.3397E-3	6.33156E-12	581.782E-3	-19.3633E-3
407.704E-6	5.77871E-12	634.878E-3	-5.68644E-3	5.77739E-12	554.414E-3	-17.6287E-3
402.701E-6	5.50050E-12	617.864E-3	-5.46033E-3	5.50072E-12	538.870E-3	-17.7964E-3
397.699E-6	5.37321E-12	588.063E-3	-21.3649E-3	5.31000E-12	521.747E-3	-11.5147E-3
392.696E-6	5.25008E-12	573.364E-3	-15.3378E-3	5.11561E-12	502.780E-3	-1.56181E-3
387.694E-6	4.82597E-12	558.452E-3	7.62690E-3	4.96765E-12	493.847E-3	-4.57200E-3
382.691E-6	4.48833E-12	549.356E-3	2.69850E-3	4.76378E-12	498.503E-3	-11.6967E-3
377.689E-6	4.42808E-12	540.696E-3	-5.47284E-3	4.50343E-12	494.355E-3	-4.05274E-3
372.686E-6	4.53250E-12	512.102E-3	-5.82697E-3	4.39142E-12	468.212E-3	1.40932E-3
367.684E-6	4.15988E-12	497.102E-3	-24.0714E-3	4.45426E-12	443.759E-3	-2.86323E-3
362.681E-6	3.83199E-12	495.589E-3	-34.1940E-3	4.36431E-12	436.574E-3	-5.88109E-3
357.679E-6	3.75117E-12	470.356E-3	-19.1599E-3	4.05067E-12	435.969E-3	-11.8301E-3
352.676E-6	3.78168E-12	451.087E-3	-13.7201E-3	3.74648E-12	430.602E-3	-15.3980E-3
347.674E-6	3.56154E-12	453.815E-3	-6.72379E-3	3.76253E-12	411.293E-3	-11.3549E-3
342.671E-6	3.21081E-12	440.446E-3	6.97369E-3	3.76323E-12	381.393E-3	-12.4417E-3
337.669E-6	3.18261E-12	415.603E-3	-3.88480E-3	3.46536E-12	364.372E-3	-19.6836E-3
332.666E-6	3.20953E-12	401.285E-3	-12.2902E-3	3.08114E-12	356.722E-3	-25.6155E-3
327.664E-6	3.08798E-12	383.970E-3	-5.17159E-3	2.98628E-12	341.102E-3	-27.9966E-3
322.661E-6	2.85621E-12	373.458E-3	-15.6872E-3	3.22878E-12	324.081E-3	-22.4417E-3
317.659E-6	2.72724E-12	381.420E-3	-30.6180E-3	3.02745E-12	320.887E-3	-18.1429E-3
312.656E-6	2.60064E-12	374.688E-3	-26.3200E-3	2.61969E-12	319.401E-3	-19.6082E-3
307.654E-6	2.63070E-12	346.554E-3	-21.8676E-3	2.45059E-12	297.258E-3	-17.3315E-3
302.651E-6	2.33085E-12	336.833E-3	-19.1584E-3	2.51644E-12	273.252E-3	-11.6235E-3
297.649E-6	2.30362E-12	331.070E-3	-1.65792E-3	2.42947E-12	273.348E-3	-12.3954E-3
292.646E-6	2.19238E-12	305.758E-3	9.30494E-3	2.24994E-12	274.250E-3	-13.6187E-3
287.644E-6	2.11391E-12	290.399E-3	6.37415E-3	2.03592E-12	252.579E-3	-6.07214E-3
282.641E-6	2.07157E-12	277.537E-3	6.04303E-3	2.08109E-12	235.475E-3	-2.38882E-3
277.639E-6	1.94629E-12	261.428E-3	-7.32908E-3	2.01259E-12	233.177E-3	-4.40444E-3
272.636E-6	1.75154E-12	270.174E-3	-25.5071E-3	1.85895E-12	230.693E-3	-2.79622E-3
267.634E-6	1.79795E-12	275.932E-3	-15.6814E-3	1.78331E-12	228.922E-3	-6.90364E-3
262.631E-6	1.74138E-12	249.649E-3	-2.17017E-3	1.72617E-12	219.187E-3	-12.9832E-3
257.629E-6	1.64079E-12	231.377E-3	-6.67326E-3	1.65810E-12	206.186E-3	-6.21688E-3
252.626E-6	1.45316E-12	232.958E-3	-7.06948E-3	1.52582E-12	205.466E-3	5.49798E-3
247.624E-6	1.43684E-12	220.631E-3	-11.1991E-3	1.43231E-12	203.710E-3	6.06843E-3
242.621E-6	1.52766E-12	205.355E-3	-18.4623E-3	1.43886E-12	185.583E-3	-10.2096E-3
237.619E-6	1.47600E-12	202.078E-3	-5.46483E-3	1.35682E-12	165.652E-3	-24.0840E-3
232.616E-6	1.27153E-12	194.295E-3	1.86323E-3	1.28154E-12	163.786E-3	-30.1268E-3
227.614E-6	1.14185E-12	195.318E-3	-7.30728E-3	1.26097E-12	171.611E-3	-30.3161E-3
222.611E-6	1.16051E-12	197.555E-3	-6.98629E-3	1.13356E-12	174.720E-3	-16.5652E-3
217.609E-6	1.21213E-12	175.282E-3	-5.80087E-3	1.09787E-12	162.743E-3	-7.91595E-3
212.606E-6	1.04073E-12	158.139E-3	-19.1579E-3	993.607E-15	142.869E-3	-17.2695E-3
207.604E-6	928.316E-15	162.689E-3	-15.1537E-3	1.04630E-12	134.837E-3	-26.2268E-3
202.601E-6	954.483E-15	166.440E-3	5.14588E-3	973.544E-15	133.085E-3	-29.1015E-3
197.599E-6	933.382E-15	162.693E-3	-3.02189E-3	927.410E-15	130.139E-3	-32.5373E-3
192.596E-6	868.955E-15	153.361E-3	-11.7226E-3	805.767E-15	132.684E-3	-30.9040E-3
187.594E-6	781.483E-15	139.975E-3	-1.91068E-3	823.066E-15	132.224E-3	-34.8856E-3
182.591E-6	711.598E-15	134.800E-3	-10.2428E-3	816.317E-15	116.423E-3	-41.7339E-3
177.589E-6	732.237E-15	132.984E-3	-22.2652E-3	724.755E-15	103.806E-3	-30.5934E-3
172.586E-6	630.822E-15	110.415E-3	-21.1931E-3	664.566E-15	111.383E-3	-18.3219E-3
167.584E-6	645.759E-15	90.3387E-3	-18.6104E-3	618.528E-15	116.042E-3	-18.9422E-3
162.581E-6	608.161E-15	102.808E-3	-3.83746E-3	660.721E-15	103.785E-3	-12.2836E-3
157.579E-6	467.981E-15	107.067E-3	8.36539E-3	587.679E-15	93.5734E-3	-9.96941E-3
152.576E-6	457.509E-15	89.1388E-3	-10.3181E-3	556.237E-15	89.3266E-3	-25.1476E-3
147.574E-6	555.862E-15	85.7406E-3	-24.4205E-3	524.177E-15	81.3291E-3	-20.9137E-3
142.571E-6	508.473E-15	91.6935E-3	-8.91491E-3	455.198E-15	81.4682E-3	-9.58214E-3
137.569E-6	325.376E-15	94.4244E-3	-5.80990E-3	468.155E-15	79.4333E-3	-10.6434E-3
132.566E-6	355.850E-15	99.6585E-3	-21.2199E-3	464.066E-15	66.9836E-3	-9.28084E-3
127.564E-6	425.474E-15	99.5505E-3	-21.6386E-3	417.696E-15	75.7995E-3	-10.7819E-3
122.561E-6	398.148E-15	94.3603E-3	-20.2863E-3	349.677E-15	90.9918E-3	-14.3757E-3
117.559E-6	257.095E-15	98.4680E-3	-24.3644E-3	308.182E-15	84.7190E-3	-15.6624E-3
112.556E-6	247.391E-15	97.2847E-3	-14.8984E-3	350.418E-15	77.3251E-3	-21.1993E-3
107.554E-6	328.524E-15	78.9853E-3	-17.5731E-3	322.264E-15	78.4684E-3	-24.9428E-3
102.551E-6	310.510E-15	67.7536E-3	-31.7773E-3	241.732E-15	80.1009E-3	-14.2388E-3
97.5488E-6	157.503E-15	61.8990E-3	-16.2102E-3	187.184E-15	85.9100E-3	-612.836E-6
92.5463E-6	136.507E-15	55.1328E-3	-3.71417E-3	205.067E-15	83.2010E-3	462.123E-6
87.5438E-6	205.913E-15	59.0965E-3	-17.3774E-3	278.466E-15	67.6600E-3	-7.36620E-3
82.5413E-6	219.489E-15	55.4650E-3	-16.8214E-3	174.253E-15	68.5931E-3	-18.0937E-3
77.5388E-6	109.617E-15	40.9693E-3	-15.1281E-3	75.4897E-15	79.2107E-3	-29.1937E-3
72.5363E-6	59.9083E-15	48.8307E-3	-31.1456E-3	132.139E-15	74.9460E-3	-24.5201E-3
67.5338E-6	96.6950E-15	64.9224E-3	-29.2528E-3	135.749E-15	62.7472E-3	-6.31485E-3
62.5313E-6	75.2542E-15	64.8515E-3	-9.99846E-3	67.7382E-15	53.6588E-3	-912.249E-6
57.5288E-6	78.2450E-15	61.5272E-3	-14.6551E-3	5.38643E-15	55.9825E-3	-9.06015E-3
52.5263E-6	-2.02498E-15	61.4795E-3	-25.1371E-3	5.28180E-15	69.0732E-3	-16.0090E-3
47.5238E-6	-9.34048E-15	54.5816E-3	-18.4954E-3	43.2718E-15	78.8811E-3	-20.4434E-3
42.5213E-6	22.6855E-15	41.3078E-3	-17.1970E-3	-30.4586E-15	75.9773E-3	-30.9781E-3
37.5188E-6	-95.3303E-15	34.1421E-3	-7.45648E-3	-38.6984E-15	67.4794E-3	-38.5473E-3
32.5163E-6	-11.4244E-15	30.9519E-3	6.54790E-3	-15.5399E-15	66.0511E-3	-28.0556E-3
27.5138E-6	-52.5795E-15	37.9962E-3	-7.50201E-3	-105.253E-15	67.5899E-3	-10.2797E-3
22.5113E-6	-118.733E-15	54.5666E-3	-27.0520E-3	-123.154E-15	63.7449E-3	2.72553E-3
17.5088E-6	-146.792E-15	49.5262E-3	-27.0353E-3	-122.657E-15	61.3411E-3	-2.50444E-3
12.5063E-6	-76.6187E-15	39.1166E-3	-31.2566E-3	-105.244E-15	62.1497E-3	-23.9593E-3
7.50375E-6	-94.6502E-15	50.8597E-3	-37.2071E-3	-192.359E-15	62.5522E-3	-26.3953E-3
2.50125E-6	-236.696E-15	51.5764E-3	-29.7840E-3	-188.278E-15	61.6907E-3	-10.1121E-3
-2.50125E-6	-196.326E-15	47.1408E-3	-31.8173E-3	-151.858E-15	60.4804E-3	-4.58909E-3
-7.50375E-6	-143.897E-15	60.6978E-3	-33.5477E-3	-167.578E-15	60.1603E-3	-14.5742E-3
-12.5063E-6	-156.400E-15	57.1437E-3	-18.8871E-3	-247.587E-15	47.8703E-3	-26.3267E-3
-17.5088E-6	-288.079E-15	45.8103E-3	-12.3057E-3	-296.241E-15	33.3495E-3	-28.9778E-3
-22.5113E-6	-284.504E-15	54.3184E-3	-7.75831E-3	-229.468E-15	43.0191E-3	-23.0758E-3
-27.5138E-6	-231.901E-15	56.3722E-3	3.79744E-3	-219.485E-15	61.0534E-3	-18.9725E-3
-32.5163E-6	-241.501E-15	55.0577E-3	-2.45710E-3	-322.512E-15	65.8947E-3	-22.0162E-3
-37.5188E-6	-363.327E-15	71.5769E-3	-11.0611E-3	-399.756E-15	65.8916E-3	-20.7608E-3
-42.5213E-6	-405.520E-15	71.0483E-3	-3.26563E-3	-306.085E-15	71.5440E-3	-21.7676E-3
-47.5238E-6	-347.824E-15	52.1722E-3	-8.66390E-3	-287.434E-15	70.9065E-3	-34.1302E-3
-52.5263E-6	-315.990E-15	60.2874E-3	-29.3715E-3	-417.369E-15	71.2341E-3	-37.9487E-3
-57.5288E-6	-443.056E-15	62.7058E-3	-32.4124E-3	-479.538E-15	82.2775E-3	-30.4828E-3
-62.5313E-6	-484.787E-15	42.3205E-3	-23.0328E-3	-445.376E-15	81.9436E-3	-26.5554E-3
-67.5338E-6	-452.770E-15	49.8831E-3	-14.5685E-3	-419.505E-15	75.5534E-3	-25.5987E-3
-72.5363E-6	-479.015E-15	74.2772E-3	3.05958E-3	-480.148E-15	77.1586E-3	-20.3889E-3
-77.5388E-6	-493.672E-15	75.7760E-3	5.99047E-3	-575.555E-15	83.7111E-3	-14.1949E-3
-82.5413E-6	-549.807E-15	68.7697E-3	-10.8496E-3	-569.059E-15	91.2432E-3	-8.81475E-3
-87.5438E-6	-567.673E-15	62.8999E-3	-9.70025E-3	-559.372E-15	97.5134E-3	-6.84038E-3
-92.5463E-6	-678.992E-15	54.0358E-3	-7.71792E-3	-638.404E-15	104.403E-3	-14.2740E-3
-97.5488E-6	-646.373E-15	64.3883E-3	-25.0023E-3	-657.403E-15	106.512E-3	-15.2393E-3
-102.551E-6	-621.357E-15	85.8158E-3	-23.1501E-3	-628.699E-15	109.131E-3	-5.57459E-3
-107.554E-6	-696.535E-15	91.4668E-3	-12.0212E-3	-758.033E-15	118.762E-3	-2.34637E-3
-112.556E-6	-832.373E-15	98.1567E-3	-19.2236E-3	-770.911E-15	116.778E-3	-740.496E-6
-117.559E-6	-819.486E-15	110.449E-3	-12.4241E-3	-751.920E-15	112.729E-3	-4.53681E-3
-122.561E-6	-814.281E-15	109.999E-3	1.20784E-3	-789.675E-15	126.564E-3	-23.4206E-3
-127.564E-6	-821.779E-15	105.677E-3	-9.19815E-3	-886.503E-15	139.922E-3	-30.3400E-3
-132.566E-6	-1.04403E-12	114.345E-3	-21.8538E-3	-951.183E-15	141.620E-3	-12.7141E-3
-137.569E-6	-1.12104E-12	124.313E-3	-24.6893E-3	-975.135E-15	144.682E-3	-9.67699E-3
-142.571E-6	-1.00730E-12	133.751E-3	-24.2441E-3	-990.786E-15	150.072E-3	-19.7950E-3
-147.574E-6	-1.01933E-12	151.727E-3	-15.5650E-3	-1.07548E-12	156.961E-3	-10.1415E-3
-152.576E-6	-1.13207E-12	149.731E-3	-6.31169E-3	-1.16297E-12	172.174E-3	-5.44609E-3
-157.579E-6	-1.25027E-12	141.470E-3	-3.52891E-3	-1.12890E-12	185.615E-3	-14.0560E-3
-162.581E-6	-1.21696E-12	159.602E-3	-2.59796E-3	-1.17363E-12	187.471E-3	-13.4170E-3
-167.584E-6	-1.25615E-12	167.597E-3	-2.61189E-3	-1.32764E-12	196.134E-3	-19.1744E-3
-172.586E-6	-1.41346E-12	154.722E-3	-19.0010E-3	-1.40670E-12	209.565E-3	-30.2292E-3
-177.589E-6	-1.51145E-12	154.708E-3	-32.3239E-3	-1.36096E-12	213.581E-3	-19.5825E-3
-182.591E-6	-1.49832E-12	163.987E-3	-21.8543E-3	-1.45882E-12	214.875E-3	-6.60182E-3
-187.594E-6	-1.56161E-12	179.220E-3	-23.2550E-3	-1.59964E-12	218.759E-3	-10.1465E-3
-192.596E-6	-1.61322E-12	202.644E-3	-25.8373E-3	-1.66626E-12	231.965E-3	-11.9246E-3
-197.599E-6	-1.72370E-12	212.471E-3	-3.70740E-3	-1.61727E-12	249.136E-3	-1.65804E-3
-202.601E-6	-1.82914E-12	209.585E-3	12.6152E-3	-1.76340E-12	253.520E-3	4.10698E-3
-207.604E-6	-1.89073E-12	222.979E-3	8.83089E-3	-1.89508E-12	254.413E-3	-1.18701E-3
-212.606E-6	-1.95827E-12	249.853E-3	-1.19877E-3	-1.96778E-12	270.449E-3	-6.08267E-3
-217.609E-6	-1.87998E-12	257.763E-3	-13.8321E-3	-1.88508E-12	287.348E-3	-10.1526E-3
-222.611E-6	-2.09460E-12	253.763E-3	-24.5312E-3	-2.10247E-12	296.237E-3	-12.1486E-3
-227.614E-6	-2.34218E-12	263.767E-3	-17.5850E-3	-2.36279E-12	310.264E-3	-13.2409E-3
-232.616E-6	-2.39989E-12	278.663E-3	391.096E-6	-2.31867E-12	329.334E-3	-11.2899E-3
-237.619E-6	-2.23786E-12	296.338E-3	-3.77863E-3	-2.29179E-12	344.906E-3	-10.4576E-3
-242.621E-6	-2.46338E-12	308.998E-3	-16.7805E-3	-2.52054E-12	361.796E-3	-17.7379E-3
-247.624E-6	-2.76209E-12	306.409E-3	-10.0963E-3	-2.73216E-12	381.494E-3	-24.2438E-3
-252.626E-6	-2.87183E-12	323.017E-3	188.659E-6	-2.85847E-12	395.789E-3	-22.2438E-3
-257.629E-6	-2.64414E-12	349.600E-3	869.873E-6	-2.80931E-12	419.994E-3	-14.7765E-3
-262.631E-6	-2.84274E-12	343.957E-3	-7.89412E-3	-3.11810E-12	450.631E-3	-12.1469E-3
-267.634E-6	-3.30386E-12	338.882E-3	-14.8048E-3	-3.26698E-12	468.541E-3	-17.5937E-3
-272.636E-6	-3.42374E-12	371.992E-3	-430.341E-6	-3.42683E-12	490.411E-3	-25.1848E-3
-277.639E-6	-3.33048E-12	412.621E-3	11.0894E-3	-3.52894E-12	519.062E-3	-27.7889E-3
-282.641E-6	-3.44355E-12	431.069E-3	-9.57543E-3	-3.70252E-12	537.947E-3	-24.9177E-3
-287.644E-6	-3.87049E-12	433.864E-3	-24.3556E-3	-4.00695E-12	555.777E-3	-24.9497E-3
-292.646E-6	-4.16569E-12	437.296E-3	-16.6564E-3	-3.98181E-12	569.786E-3	-31.5506E-3
-297.649E-6	-4.16655E-12	460.527E-3	-19.4922E-3	-4.12814E-12	564.093E-3	-32.1367E-3
-302.651E-6	-4.18228E-12	495.042E-3	-23.6708E-3	-4.38104E-12	572.843E-3	-17.8265E-3
-307.654E-6	-4.37418E-12	508.641E-3	-24.6681E-3	-4.60596E-12	602.524E-3	-8.14890E-3
-312.656E-6	-4.77345E-12	505.793E-3	-29.1817E-3	-4.55339E-12	608.934E-3	-14.1772E-3
-317.659E-6	-5.12660E-12	524.944E-3	-14.5421E-3	-4.69634E-12	610.828E-3	-13.8938E-3
-322.661E-6	-5.24858E-12	562.492E-3	-7.41650E-3	-4.96350E-12	644.760E-3	-12.5013E-3
-327.664E-6	-5.01450E-12	603.888E-3	-26.9576E-3	-5.08544E-12	679.339E-3	-18.5185E-3
-332.666E-6	-5.46176E-12	640.924E-3	-21.1179E-3	-5.24154E-12	697.328E-3	-11.0331E-3
-337.669E-6	-5.78106E-12	639.731E-3	-9.35922E-3	-5.45355E-12	717.248E-3	-4.89693E-3
-342.671E-6	-6.36854E-12	640.014E-3	-25.1057E-3	-5.82756E-12	724.896E-3	-14.4050E-3
-347.674E-6	-6.20866E-12	689.225E-3	-32.8585E-3	-6.01026E-12	735.357E-3	-23.1882E-3
-352.676E-6	-6.21928E-12	735.972E-3	-20.3239E-3	-6.13768E-12	783.038E-3	-23.0102E-3
-357.679E-6	-6.65759E-12	743.901E-3	-14.1203E-3	-6.25603E-12	833.962E-3	-16.8052E-3
-362.681E-6	-7.11382E-12	754.888E-3	-22.7243E-3	-6.66034E-12	864.599E-3	-13.4047E-3
-367.684E-6	-7.31397E-12	783.847E-3	-29.3959E-3	-7.08862E-12	889.043E-3	-22.4406E-3
-372.686E-6	-7.18629E-12	812.614E-3	-25.6352E-3	-7.52952E-12	914.019E-3	-39.3045E-3
-377.689E-6	-7.70920E-12	839.080E-3	-13.1832E-3	-7.77024E-12	937.502E-3	-33.3476E-3
-382.691E-6	-8.35127E-12	853.004E-3	-5.41639E-3	-7.88905E-12	966.547E-3	-13.1963E-3
-387.694E-6	-8.79805E-12	867.243E-3	-6.61855E-3	-8.29524E-12	999.888E-3	-17.2873E-3
-392.696E-6	-8.76721E-12	907.393E-3	-13.0316E-3	-8.52728E-12	1.02070E+0	-30.9558E-3
-397.699E-6	-8.90231E-12	956.643E-3	-17.2664E-3	-9.09040E-12	1.04813E+0	-28.9948E-3
-402.701E-6	-9.66834E-12	980.284E-3	-15.5840E-3	-9.37851E-12	1.07946E+0	-21.9489E-3
-407.704E-6	-10.0340E-12	997.555E-3	-23.9570E-3	-9.49583E-12	1.10163E+0	-17.5582E-3
-412.706E-6	-10.3792E-12	1.02985E+0	-37.5129E-3	-9.87107E-12	1.13821E+0	-9.87572E-3
-417.709E-6	-10.3868E-12	1.06432E+0	-42.5317E-3	-10.4795E-12	1.16865E+0	-8.22109E-3
-422.711E-6	-10.6930E-12	1.09362E+0	-32.2794E-3	-11.1893E-12	1.17612E+0	-10.1387E-3
-427.714E-6	-11.4222E-12	1.10324E+0	-10.0538E-3	-11.4469E-12	1.19860E+0	-8.08504E-3
-432.716E-6	-11.7152E-12	1.10852E+0	-10.4036E-3	-11.4879E-12	1.24117E+0	-8.46492E-3
-437.719E-6	-12.1531E-12	1.14193E+0	-29.6824E-3	-11.8101E-12	1.28318E+0	-2.20921E-3
-442.721E-6	-12.3686E-12	1.18094E+0	-35.1985E-3	-12.5043E-12	1.31918E+0	7.62984E-3
-447.724E-6	-13.2140E-12	1.19913E+0	-36.0374E-3	-13.1055E-12	1.35113E+0	-1.80880E-3
-452.726E-6	-13.4444E-12	1.22595E+0	-45.1613E-3	-13.5604E-12	1.37750E+0	-16.2534E-3
-457.729E-6	-13.6874E-12	1.27419E+0	-35.4032E-3	-13.9201E-12	1.40168E+0	-10.2246E-3
-462.731E-6	-14.3237E-12	1.30257E+0	-16.6605E-3	-14.5460E-12	1.42367E+0	-7.23048E-3
-467.734E-6	-14.6908E-12	1.31273E+0	-21.6746E-3	-15.0168E-12	1.42711E+0	-14.6198E-3
-472.736E-6	-15.1518E-12	1.32345E+0	-25.4038E-3	-15.4381E-12	1.42806E+0	-4.81599E-3
-477.739E-6	-15.4477E-12	1.34019E+0	-18.8058E-3	-15.9264E-12	1.45534E+0	2.90140E-3
-482.741E-6	-15.9310E-12	1.37497E+0	-20.1829E-3	-16.0445E-12	1.48704E+0	-12.3797E-3
-487.744E-6	-16.5219E-12	1.40463E+0	-13.1743E-3	-16.4549E-12	1.50037E+0	-25.8446E-3
-492.746E-6	-17.1157E-12	1.41746E+0	-6.02643E-3	-17.1950E-12	1.49877E+0	-28.9860E-3
-497.749E-6	-17.9638E-12	1.44154E+0	-19.3776E-3	-18.0235E-12	1.49177E+0	-27.3325E-3
-502.751E-6	-17.9761E-12	1.47341E+0	-20.7127E-3	-18.0928E-12	1.50932E+0	-20.5190E-3
-507.754E-6	-18.3819E-12	1.49011E+0	-8.84888E-3	-18.0405E-12	1.54998E+0	-19.2057E-3
-512.756E-6	-18.5687E-12	1.50752E+0	-8.15113E-3	-18.8393E-12	1.57521E+0	-14.2648E-3
-517.759E-6	-20.1331E-12	1.52516E+0	-8.25424E-3	-19.5683E-12	1.58141E+0	-1.82997E-3
-522.761E-6	-20.2061E-12	1.52998E+0	-1.96955E-3	-20.3017E-12	1.58325E+0	-5.88201E-3
-527.764E-6	-19.8393E-12	1.54339E+0	1.73145E-3	-20.4953E-12	1.59423E+0	-19.2449E-3
-532.766E-6	-20.2725E-12	1.56152E+0	-4.51332E-3	-20.9136E-12	1.61327E+0	-17.8405E-3
-537.769E-6	-21.5626E-12	1.56035E+0	-15.3154E-3	-21.2760E-12	1.62108E+0	-12.8784E-3
-542.771E-6	-22.3780E-12	1.56155E+0	-27.7031E-3	-22.0913E-12	1.60309E+0	-17.7201E-3
-547.774E-6	-21.7397E-12	1.58428E+0	-34.4563E-3	-22.1884E-12	1.58009E+0	-24.3208E-3
-552.776E-6	-22.1715E-12	1.59093E+0	-29.2985E-3	-23.1345E-12	1.58404E+0	-27.9500E-3
-557.779E-6	-22.5398E-12	1.58450E+0	-22.0195E-3	-22.7915E-12	1.59763E+0	-33.6424E-3
-562.781E-6	-23.3693E-12	1.59938E+0	-26.8467E-3	-23.7191E-12	1.60803E+0	-36.7602E-3
-567.784E-6	-23.8200E-12	1.59738E+0	-37.2594E-3	-24.3348E-12	1.62191E+0	-32.2890E-3
-572.786E-6	-24.7587E-12	1.57761E+0	-40.0104E-3	-25.0106E-12	1.64522E+0	-24.1024E-3
-577.789E-6	-25.5035E-12	1.57779E+0	-28.5215E-3	-26.0353E-12	1.66796E+0	-19.8402E-3
-582.791E-6	-26.0745E-12	1.58885E+0	-9.58342E-3	-26.1788E-12	1.66028E+0	-30.5899E-3
-587.794E-6	-25.7178E-12	1.59289E+0	-10.8989E-3	-27.7427E-12	1.64379E+0	-37.1968E-3
-592.796E-6	-26.5865E-12	1.59625E+0	-17.4232E-3	-27.9897E-12	1.64770E+0	-30.9206E-3
-597.799E-6	-27.4612E-12	1.59055E+0	2.40758E-3	-27.6962E-12	1.66998E+0	-30.5193E-3
-602.801E-6	-28.2559E-12	1.57628E+0	15.9822E-3	-28.2302E-12	1.67961E+0	-29.0247E-3
-607.804E-6	-28.3990E-12	1.60023E+0	-7.02137E-3	-29.9555E-12	1.64145E+0	-19.9983E-3
-612.806E-6	-28.8127E-12	1.62664E+0	-24.7441E-3	-30.8452E-12	1.60147E+0	-13.1574E-3
-617.809E-6	-29.8295E-12	1.61399E+0	-22.0071E-3	-30.4984E-12	1.61263E+0	-16.3965E-3
-622.811E-6	-30.3435E-12	1.60389E+0	-19.7912E-3	-30.2432E-12	1.61936E+0	-16.9322E-3
-627.814E-6	-30.6024E-12	1.61095E+0	-12.8346E-3	-30.5539E-12	1.59168E+0	-3.45635E-3
-632.816E-6	-31.3149E-12	1.60781E+0	-13.5359E-3	-32.6212E-12	1.57485E+0	-5.14560E-3
-637.819E-6	-31.6247E-12	1.59791E+0	-26.5175E-3	-31.7526E-12	1.56612E+0	-24.0963E-3
-642.821E-6	-32.1595E-12	1.59695E+0	-22.8319E-3	-32.1060E-12	1.55489E+0	-23.7358E-3
-647.824E-6	-32.0208E-12	1.58854E+0	-8.95637E-3	-32.7598E-12	1.53778E+0	-20.7063E-3
-652.826E-6	-33.1670E-12	1.57648E+0	-16.5317E-3	-34.3383E-12	1.50699E+0	-27.5301E-3
-657.829E-6	-33.9124E-12	1.56312E+0	-17.3302E-3	-34.4948E-12	1.49352E+0	-22.7430E-3
-662.831E-6	-34.1261E-12	1.54482E+0	-2.55460E-3	-33.9367E-12	1.51455E+0	-16.9354E-3
-667.834E-6	-34.3132E-12	1.54351E+0	-10.5221E-3	-35.0439E-12	1.51925E+0	-7.80442E-3
-672.836E-6	-35.0482E-12	1.54439E+0	-25.6218E-3	-35.8972E-12	1.49581E+0	7.62024E-3
-677.839E-6	-35.2592E-12	1.51735E+0	-19.8741E-3	-37.7899E-12	1.49003E+0	-444.563E-6
-682.841E-6	-35.9587E-12	1.48617E+0	-5.58675E-3	-37.7085E-12	1.50552E+0	-14.6017E-3
-687.844E-6	-36.4465E-12	1.47081E+0	411.970E-6	-38.1598E-12	1.51860E+0	-2.42691E-3
-692.846E-6	-36.8538E-12	1.45906E+0	-4.18081E-3	-39.0229E-12	1.51420E+0	9.56568E-3
-697.849E-6	-37.2915E-12	1.43890E+0	-21.7347E-3	-40.7071E-12	1.48467E+0	-4.60637E-3
-702.851E-6	-38.4481E-12	1.42117E+0	-34.2883E-3	-41.4670E-12	1.43280E+0	-19.8503E-3
-707.854E-6	-38.7945E-12	1.40841E+0	-26.6409E-3	-41.1084E-12	1.39883E+0	-22.4590E-3
-712.856E-6	-38.7868E-12	1.40271E+0	-23.8757E-3	-41.5813E-12	1.39408E+0	-28.7583E-3
-717.859E-6	-39.4423E-12	1.40023E+0	-29.2178E-3	-40.8350E-12	1.37897E+0	-23.0148E-3
-722.861E-6	-41.1218E-12	1.38156E+0	-22.0456E-3	-41.8914E-12	1.34890E+0	-10.8465E-3
-727.864E-6	-41.9994E-12	1.36368E+0	-22.9188E-3	-42.8203E-12	1.31484E+0	-21.6006E-3
-732.866E-6	-41.6963E-12	1.36944E+0	-26.0977E-3	-43.1187E-12	1.28623E+0	-24.4698E-3
-737.869E-6	-41.5790E-12	1.36956E+0	-3.53543E-3	-41.3117E-12	1.28060E+0	-5.15778E-3
-742.871E-6	-42.7201E-12	1.33899E+0	2.52158E-3	-42.7719E-12	1.26312E+0	-6.38734E-3
-747.874E-6	-43.0100E-12	1.30690E+0	-16.1647E-3	-43.2892E-12	1.20647E+0	-27.0644E-3
-752.876E-6	-42.9553E-12	1.29131E+0	-12.9043E-3	-44.3391E-12	1.16833E+0	-35.9510E-3
-757.879E-6	-43.2712E-12	1.26321E+0	-10.8881E-3	-42.9941E-12	1.16231E+0	-41.7790E-3
-762.881E-6	-43.7419E-12	1.23177E+0	-16.0675E-3	-43.4721E-12	1.13127E+0	-42.6875E-3
-767.884E-6	-44.0270E-12	1.22253E+0	-4.85782E-3	-43.3350E-12	1.09902E+0	-30.6384E-3
-772.886E-6	-43.9580E-12	1.21213E+0	1.65318E-3	-44.1135E-12	1.09920E+0	-27.8503E-3
-777.889E-6	-44.5797E-12	1.18191E+0	-1.66166E-3	-45.4256E-12	1.08370E+0	-31.1668E-3
-782.891E-6	-45.5110E-12	1.14206E+0	1.72451E-3	-45.8098E-12	1.04677E+0	-20.5769E-3
-787.894E-6	-45.1024E-12	1.09866E+0	9.80687E-3	-47.7491E-12	1.02985E+0	-8.44670E-3
-792.896E-6	-45.1698E-12	1.07285E+0	-3.38384E-3	-46.7680E-12	1.01537E+0	-16.3794E-3
-797.899E-6	-44.6320E-12	1.06101E+0	-14.5586E-3	-46.7297E-12	970.984E-3	-22.9350E-3
-802.901E-6	-45.4797E-12	1.02353E+0	-5.12364E-3	-47.1641E-12	928.059E-3	-25.4540E-3
-807.904E-6	-46.6935E-12	989.362E-3	-16.0623E-3	-47.3511E-12	913.257E-3	-40.9225E-3
-812.906E-6	-46.1503E-12	998.535E-3	-24.1081E-3	-47.3995E-12	906.828E-3	-32.3860E-3
-817.909E-6	-46.3458E-12	997.089E-3	-4.22816E-3	-47.9044E-12	900.235E-3	-9.52250E-3
-822.911E-6	-47.6705E-12	955.438E-3	2.82244E-3	-50.4349E-12	875.554E-3	-10.1346E-3
-827.914E-6	-48.9136E-12	917.680E-3	-7.34497E-3	-49.5425E-12	845.174E-3	-8.60435E-3
-832.916E-6	-48.0358E-12	897.080E-3	-12.1939E-3	-48.7886E-12	830.280E-3	-1.68266E-3
-837.919E-6	-48.2443E-12	884.807E-3	-16.9109E-3	-49.4710E-12	796.998E-3	-10.0539E-3
-842.921E-6	-48.9231E-12	872.842E-3	-24.5478E-3	-51.3956E-12	757.076E-3	-5.07908E-3
-847.924E-6	-49.9189E-12	846.158E-3	-23.3520E-3	-50.0437E-12	735.347E-3	12.5905E-3
-852.926E-6	-48.8380E-12	822.595E-3	-13.7882E-3	-49.2352E-12	721.221E-3	2.42999E-3
-857.929E-6	-49.2168E-12	816.811E-3	6.11822E-3	-48.9312E-12	716.515E-3	-21.5700E-3
-862.931E-6	-50.0791E-12	795.234E-3	21.9927E-3	-50.6967E-12	709.022E-3	-26.3806E-3
-867.934E-6	-50.6111E-12	757.875E-3	15.7016E-3	-52.3342E-12	667.088E-3	-23.2977E-3
-872.936E-6	-49.1481E-12	737.804E-3	6.76059E-3	-51.8269E-12	622.383E-3	-30.2960E-3
-877.939E-6	-48.8893E-12	729.332E-3	4.25058E-3	-50.6104E-12	621.530E-3	-35.0473E-3
-882.941E-6	-49.6382E-12	702.931E-3	5.17751E-3	-51.2575E-12	628.978E-3	-22.1978E-3
-887.944E-6	-51.6449E-12	675.099E-3	-2.54232E-3	-54.1666E-12	613.066E-3	-9.47894E-3
-892.946E-6	-52.6729E-12	667.135E-3	-18.5584E-3	-53.3582E-12	602.203E-3	-2.05426E-3
-897.949E-6	-50.5023E-12	650.765E-3	-23.6544E-3	-51.7809E-12	594.345E-3	-13.5089E-3
-902.951E-6	-50.0137E-12	616.253E-3	-31.1644E-3	-52.4365E-12	556.685E-3	-40.0305E-3
-907.954E-6	-50.6463E-12	588.676E-3	-39.7297E-3	-56.2231E-12	524.920E-3	-45.5202E-3
-912.956E-6	-52.3764E-12	573.818E-3	-26.9776E-3	-55.9736E-12	526.287E-3	-45.3549E-3
-917.959E-6	-51.1922E-12	561.350E-3	-13.9467E-3	-53.6463E-12	515.613E-3	-30.4265E-3
-922.961E-6	-50.7242E-12	543.688E-3	-11.3919E-3	-54.6482E-12	485.865E-3	-7.42310E-3
-927.964E-6	-50.6679E-12	518.115E-3	-11.1211E-3	-56.7209E-12	461.865E-3	-24.2640E-3
-932.966E-6	-51.8032E-12	497.316E-3	-14.9411E-3	-55.9466E-12	445.885E-3	-36.7613E-3
-937.969E-6	-52.3755E-12	492.003E-3	-23.9952E-3	-53.5952E-12	444.667E-3	-15.4509E-3
-942.971E-6	-51.2532E-12	494.593E-3	-40.0533E-3	-53.0316E-12	438.188E-3	-13.5707E-3
-947.974E-6	-51.4260E-12	489.208E-3	-35.3417E-3	-53.7941E-12	404.290E-3	-22.9668E-3
-952.976E-6	-52.0080E-12	460.430E-3	-8.50807E-3	-54.4545E-12	390.035E-3	-24.8913E-3
-957.979E-6	-53.0643E-12	423.425E-3	248.535E-6	-53.1874E-12	401.103E-3	-39.3566E-3
-962.981E-6	-52.4324E-12	416.812E-3	-1.63171E-3	-51.9151E-12	386.723E-3	-36.2992E-3
-967.984E-6	-51.7968E-12	419.696E-3	2.75470E-3	-51.8969E-12	358.700E-3	-11.6700E-3
-972.986E-6	-51.9553E-12	402.459E-3	-5.78415E-3	-52.9536E-12	338.448E-3	-12.1697E-3
-977.989E-6	-53.2493E-12	396.048E-3	-22.6036E-3	-54.7572E-12	330.508E-3	-41.5433E-3
-982.991E-6	-53.6151E-12	390.217E-3	-18.3149E-3	-53.5479E-12	333.334E-3	-45.4153E-3
-987.994E-6	-53.6444E-12	369.483E-3	-13.4017E-3	-53.6959E-12	341.011E-3	-21.4381E-3
-992.997E-6	-53.4263E-12	359.429E-3	-19.1126E-3	-54.1438E-12	337.805E-3	-15.7224E-3
-997.999E-6	-54.1814E-12	344.492E-3	-4.42834E-3	-54.5441E-12	328.740E-3	-11.0523E-3
-1.00300E-3	-54.3475E-12	313.821E-3	6.90596E-3	-55.1171E-12	337.759E-3	-5.20987E-3
-1.00800E-3	-54.2330E-12	312.765E-3	-310.460E-6	-56.7648E-12	348.073E-3	-18.3200E-3
-1.01301E-3	-53.9026E-12	335.687E-3	8.51175E-3	-56.9578E-12	342.440E-3	-24.7128E-3
-1.01801E-3	-55.0490E-12	329.255E-3	11.6093E-3	-56.7938E-12	335.540E-3	-26.6583E-3
-1.02301E-3	-55.5945E-12	316.408E-3	569.476E-6	-58.0956E-12	313.314E-3	-35.3113E-3
-1.02801E-3	-55.2506E-12	322.801E-3	-4.60554E-3	-56.6671E-12	291.274E-3	-32.4970E-3
-1.03302E-3	-54.8210E-12	319.397E-3	-27.3201E-3	-57.4514E-12	297.395E-3	-29.4057E-3
-1.03802E-3	-55.6063E-12	311.029E-3	-58.8913E-3	-57.7999E-12	302.291E-3	-28.5732E-3
-1.04302E-3	-56.2646E-12	306.428E-3	-50.3693E-3	-58.1914E-12	298.527E-3	-19.1568E-3
-1.04802E-3	-56.5207E-12	289.472E-3	-20.0787E-3	-57.1890E-12	281.871E-3	-12.8081E-3
-1.05303E-3	-56.9061E-12	281.635E-3	-18.2536E-3	-57.4938E-12	262.663E-3	-13.9693E-3
-1.05803E-3	-57.1867E-12	300.267E-3	-13.7370E-3	-57.7526E-12	264.755E-3	-8.80096E-3
-1.06303E-3	-57.5452E-12	305.094E-3	1.59279E-3	-57.9383E-12	279.329E-3	7.84829E-3
-1.06803E-3	-57.6896E-12	286.917E-3	-9.18459E-3	-57.7036E-12	293.552E-3	9.06300E-3
-1.07304E-3	-56.8370E-12	281.433E-3	-17.3255E-3	-56.2651E-12	299.411E-3	-3.41925E-3
-1.07804E-3	-57.2993E-12	285.015E-3	-11.1601E-3	-55.8749E-12	299.116E-3	-8.98625E-3
-1.08304E-3	-58.5339E-12	287.534E-3	-18.7877E-3	-56.3672E-12	296.729E-3	-26.8117E-3
-1.08804E-3	-58.9863E-12	290.864E-3	-22.3720E-3	-57.9947E-12	277.861E-3	-42.0204E-3
-1.09305E-3	-58.7843E-12	287.904E-3	-12.0123E-3	-57.0713E-12	272.159E-3	-30.2154E-3
-1.09805E-3	-56.7411E-12	291.380E-3	-19.9777E-3	-56.8824E-12	286.069E-3	-30.3972E-3
-1.10305E-3	-56.8298E-12	306.241E-3	-36.9718E-3	-57.8252E-12	284.659E-3	-38.7325E-3
-1.10805E-3	-57.6671E-12	303.519E-3	-35.0613E-3	-57.3419E-12	297.189E-3	-21.1488E-3
-1.11306E-3	-59.0433E-12	278.257E-3	-27.7433E-3	-58.5212E-12	336.981E-3	-12.4617E-3
-1.11806E-3	-58.7367E-12	274.939E-3	-11.1640E-3	-58.8462E-12	351.573E-3	-11.6521E-3
-1.12306E-3	-57.8077E-12	300.504E-3	20.6836E-3	-59.7052E-12	342.674E-3	-1.51282E-3
-1.12806E-3	-57.8180E-12	322.515E-3	22.4604E-3	-59.3651E-12	345.584E-3	-6.20016E-3
-1.13307E-3	-57.7742E-12	336.477E-3	-10.6471E-3	-60.5339E-12	354.221E-3	-17.9332E-3
-1.13807E-3	-57.6078E-12	331.425E-3	-13.8510E-3	-60.4348E-12	363.118E-3	-20.1963E-3
-1.14307E-3	-57.3016E-12	310.094E-3	-1.73223E-3	-60.7142E-12	366.667E-3	-16.1017E-3
-1.14807E-3	-57.4672E-12	309.635E-3	-14.0672E-3	-60.6170E-12	351.660E-3	-10.1658E-3
-1.15308E-3	-58.9389E-12	321.688E-3	-13.1294E-3	-60.2183E-12	340.701E-3	-3.36634E-3
-1.15808E-3	-59.2788E-12	323.962E-3	-10.3962E-3	-59.9468E-12	371.614E-3	1.50492E-3
-1.16308E-3	-58.8311E-12	334.668E-3	-14.3143E-3	-59.0390E-12	388.320E-3	9.34038E-3
-1.16808E-3	-58.3700E-12	348.088E-3	2.66037E-3	-60.5013E-12	368.687E-3	23.4387E-3
-1.17309E-3	-59.2792E-12	352.368E-3	3.22469E-3	-60.1288E-12	383.235E-3	27.3743E-3
-1.17809E-3	-59.5633E-12	371.339E-3	-11.7188E-3	-58.4881E-12	394.564E-3	5.17753E-3
-1.18309E-3	-58.9239E-12	387.397E-3	-13.3096E-3	-57.8057E-12	380.978E-3	-13.1004E-3
-1.18809E-3	-59.1711E-12	380.029E-3	-16.0066E-3	-57.9613E-12	398.244E-3	-20.4120E-3
-1.19310E-3	-59.0950E-12	378.873E-3	-17.5555E-3	-58.5787E-12	422.713E-3	-32.9350E-3
-1.19810E-3	-60.3114E-12	388.220E-3	-16.6072E-3	-58.0448E-12	439.094E-3	-28.6917E-3
-1.20310E-3	-59.2743E-12	400.342E-3	-19.4992E-3	-57.6059E-12	456.637E-3	-21.6467E-3
-1.20810E-3	-58.7668E-12	407.987E-3	-19.9532E-3	-58.3882E-12	466.472E-3	-28.1050E-3
-1.21311E-3	-59.0653E-12	401.072E-3	-3.28251E-3	-58.4208E-12	474.849E-3	-21.7967E-3
-1.21811E-3	-59.5492E-12	410.557E-3	3.21596E-3	-58.5798E-12	486.962E-3	-11.4347E-3
-1.22311E-3	-58.6699E-12	437.695E-3	-28.1689E-3	-60.0546E-12	493.779E-3	-14.2654E-3
-1.22811E-3	-59.0681E-12	456.740E-3	-33.1759E-3	-60.8936E-12	498.274E-3	-17.4231E-3
-1.23312E-3	-59.3154E-12	452.107E-3	-4.62648E-3	-60.2172E-12	518.528E-3	-12.0218E-3
-1.23812E-3	-60.1321E-12	442.203E-3	-8.89218E-3	-59.9581E-12	536.857E-3	-10.4090E-3
-1.24312E-3	-59.4161E-12	460.442E-3	-23.4867E-3	-60.4190E-12	541.961E-3	-15.0029E-3
-1.24812E-3	-59.2046E-12	483.796E-3	-20.9834E-3	-60.1957E-12	549.244E-3	-17.3176E-3
-1.25313E-3	-59.6866E-12	504.858E-3	-26.8250E-3	-59.4262E-12	552.424E-3	-30.5354E-3
-1.25813E-3	-60.4909E-12	525.217E-3	-38.4982E-3	-59.9230E-12	554.339E-3	-36.1752E-3
-1.26313E-3	-60.3901E-12	529.423E-3	-36.1577E-3	-59.2945E-12	564.893E-3	-27.2871E-3
-1.26813E-3	-59.8308E-12	540.961E-3	-25.3510E-3	-59.1418E-12	584.644E-3	-36.8419E-3
-1.27314E-3	-60.1041E-12	565.666E-3	-21.4877E-3	-58.9472E-12	601.518E-3	-45.8569E-3
-1.27814E-3	-60.8138E-12	578.003E-3	-10.6593E-3	-59.4583E-12	596.025E-3	-30.9561E-3
-1.28314E-3	-61.8087E-12	589.938E-3	183.385E-6	-59.7513E-12	587.440E-3	-15.7660E-3
-1.28814E-3	-61.0535E-12	601.079E-3	-14.0941E-3	-58.9830E-12	593.783E-3	-15.7903E-3
-1.29315E-3	-60.3828E-12	595.305E-3	-27.8399E-3	-59.9436E-12	621.211E-3	-15.0559E-3
-1.29815E-3	-60.7745E-12	595.135E-3	-29.2174E-3	-61.2308E-12	657.625E-3	-16.7868E-3
-1.30315E-3	-62.2155E-12	619.545E-3	-28.3537E-3	-61.3267E-12	668.754E-3	-28.3017E-3
-1.30815E-3	-63.0350E-12	651.824E-3	-13.7422E-3	-60.5207E-12	678.200E-3	-19.2401E-3
-1.31316E-3	-62.0685E-12	650.741E-3	4.27599E-3	-61.5223E-12	700.823E-3	-7.72844E-3
-1.31816E-3	-61.4458E-12	639.147E-3	9.16222E-3	-63.4699E-12	709.118E-3	-6.46751E-3
-1.32316E-3	-62.7371E-12	667.346E-3	10.5081E-3	-64.0968E-12	713.966E-3	7.85200E-3
-1.32816E-3	-65.3574E-12	697.061E-3	2.12257E-3	-64.0454E-12	733.277E-3	4.60540E-3
-1.33317E-3	-65.0242E-12	705.371E-3	-14.9268E-3	-64.4914E-12	739.914E-3	-12.6397E-3
-1.33817E-3	-63.4995E-12	702.513E-3	-16.6844E-3	-65.6637E-12	739.383E-3	-8.36508E-3
-1.34317E-3	-64.1367E-12	700.114E-3	-10.3966E-3	-66.1393E-12	744.627E-3	-7.14158E-3
-1.34817E-3	-66.9908E-12	716.389E-3	-18.7749E-3	-66.8550E-12	751.679E-3	-25.1040E-3
-1.35318E-3	-67.1285E-12	730.291E-3	-9.66132E-3	-65.8479E-12	772.695E-3	-28.4811E-3
-1.35818E-3	-65.5131E-12	735.216E-3	3.19622E-3	-66.0222E-12	799.386E-3	-14.7813E-3
-1.36318E-3	-65.2178E-12	754.042E-3	-17.2506E-3	-65.5473E-12	800.866E-3	-15.9429E-3
-1.36818E-3	-66.3728E-12	775.599E-3	-14.4678E-3	-66.2108E-12	776.672E-3	-17.5632E-3
-1.37319E-3	-66.5680E-12	770.488E-3	11.7525E-3	-66.6557E-12	775.113E-3	3.53905E-3
-1.37819E-3	-66.4487E-12	764.745E-3	6.15948E-3	-66.2456E-12	788.124E-3	-5.25848E-3
-1.38319E-3	-66.4382E-12	783.957E-3	-17.2683E-3	-65.8318E-12	786.593E-3	-34.2899E-3
-1.38819E-3	-66.0203E-12	789.584E-3	-30.1647E-3	-65.5747E-12	791.252E-3	-31.8255E-3
-1.39320E-3	-65.9029E-12	767.150E-3	-37.5468E-3	-66.4018E-12	803.267E-3	-28.4381E-3
-1.39820E-3	-66.1187E-12	771.237E-3	-36.8925E-3	-65.9928E-12	811.848E-3	-20.3348E-3
-1.40320E-3	-67.7749E-12	796.850E-3	-18.8198E-3	-65.8611E-12	831.357E-3	3.12358E-3
-1.40820E-3	-67.6010E-12	803.182E-3	-6.77650E-3	-66.3524E-12	857.849E-3	-6.02114E-3
-1.41321E-3	-66.9056E-12	797.928E-3	-12.4636E-3	-69.5910E-12	859.332E-3	-35.4233E-3
-1.41821E-3	-67.6931E-12	794.964E-3	-19.9245E-3	-70.8653E-12	852.397E-3	-36.7743E-3
-1.42321E-3	-69.0916E-12	822.271E-3	-21.1948E-3	-69.8723E-12	886.455E-3	-35.6546E-3
-1.42821E-3	-70.3691E-12	855.650E-3	-20.0348E-3	-70.7463E-12	909.771E-3	-26.6847E-3
-1.43322E-3	-69.0917E-12	853.474E-3	-21.7701E-3	-72.2766E-12	885.390E-3	2.90746E-3
-1.43822E-3	-69.5993E-12	841.087E-3	-28.1215E-3	-73.9150E-12	884.228E-3	6.71922E-3
-1.44322E-3	-70.6909E-12	843.655E-3	-33.4738E-3	-73.3112E-12	901.125E-3	-5.68586E-3
-1.44822E-3	-71.8362E-12	851.813E-3	-20.1265E-3	-73.9334E-12	907.960E-3	-4.23285E-3
-1.45323E-3	-71.0157E-12	870.063E-3	-8.33308E-3	-76.2679E-12	924.283E-3	-7.31524E-3
-1.45823E-3	-70.7792E-12	885.444E-3	-15.3613E-3	-77.1107E-12	918.109E-3	-31.3196E-3
-1.46323E-3	-72.0793E-12	877.230E-3	-24.1580E-3	-74.7957E-12	887.638E-3	-32.7391E-3
-1.46823E-3	-72.0827E-12	869.460E-3	-30.8413E-3	-74.0152E-12	875.372E-3	-4.66864E-3
-1.47324E-3	-72.0356E-12	876.304E-3	-23.5198E-3	-76.2694E-12	869.171E-3	-764.230E-6
-1.47824E-3	-70.9308E-12	887.240E-3	-15.4118E-3	-75.6166E-12	847.661E-3	-3.25853E-3
-1.48324E-3	-71.7571E-12	882.654E-3	-29.7935E-3	-73.1390E-12	831.924E-3	11.8339E-3
-1.48824E-3	-72.6418E-12	862.489E-3	-29.9918E-3	-71.6426E-12	836.387E-3	10.1419E-3
-1.49325E-3	-72.1623E-12	848.408E-3	-1.57003E-3	-72.9814E-12	834.182E-3	-12.1942E-3
-1.49825E-3	-70.7095E-12	840.158E-3	-262.922E-6	-74.2354E-12	824.618E-3	-22.1394E-3
-1.50325E-3	-70.7380E-12	845.470E-3	-9.40863E-3	-73.2075E-12	837.202E-3	-25.5356E-3
-1.50825E-3	-73.0840E-12	848.696E-3	5.61968E-3	-72.4105E-12	862.935E-3	-32.6959E-3
-1.51326E-3	-73.7511E-12	836.786E-3	-609.463E-6	-72.5756E-12	868.389E-3	-25.7115E-3
-1.51826E-3	-73.7816E-12	853.114E-3	-17.0892E-3	-74.6598E-12	861.464E-3	-28.9216E-3
-1.52326E-3	-72.7756E-12	872.534E-3	-15.0240E-3	-75.7297E-12	862.129E-3	-44.8921E-3
-1.52826E-3	-74.5012E-12	864.884E-3	-23.4425E-3	-74.7163E-12	874.994E-3	-31.8351E-3
-1.53327E-3	-75.8622E-12	874.768E-3	-34.7714E-3	-73.4918E-12	890.912E-3	-7.89758E-3
-1.53827E-3	-75.3657E-12	894.037E-3	-14.9069E-3	-75.9087E-12	886.002E-3	-7.51026E-3
-1.54327E-3	-74.8709E-12	874.363E-3	5.43078E-3	-77.2611E-12	878.827E-3	-13.7267E-3
-1.54827E-3	-75.2126E-12	866.959E-3	-3.89905E-3	-77.5289E-12	887.442E-3	-26.3317E-3
-1.55328E-3	-77.3534E-12	893.338E-3	-9.68769E-3	-76.9061E-12	885.533E-3	-30.6522E-3
-1.55828E-3	-78.5869E-12	885.923E-3	-6.59746E-3	-77.2172E-12	883.288E-3	-10.4976E-3
-1.56328E-3	-76.3180E-12	873.294E-3	-25.4248E-3	-80.4325E-12	892.480E-3	-17.2602E-3
-1.56828E-3	-75.7116E-12	872.104E-3	-46.8947E-3	-81.0306E-12	882.777E-3	-42.7556E-3
-1.57329E-3	-77.8028E-12	855.017E-3	-49.0973E-3	-80.2122E-12	867.208E-3	-34.5932E-3
-1.57829E-3	-79.5582E-12	840.079E-3	-50.0552E-3	-78.2037E-12	854.536E-3	-9.38579E-3
-1.58329E-3	-77.9717E-12	856.964E-3	-42.3101E-3	-78.8578E-12	825.731E-3	-1.87955E-3
-1.58829E-3	-76.6641E-12	882.828E-3	-20.8490E-3	-79.4745E-12	807.602E-3	-10.6084E-3
-1.59330E-3	-78.3818E-12	880.908E-3	-18.7425E-3	-77.8136E-12	806.689E-3	-22.5640E-3
-1.59830E-3	-81.1568E-12	873.048E-3	-36.4247E-3	-76.6948E-12	793.103E-3	-21.6401E-3
-1.60330E-3	-79.8490E-12	858.925E-3	-39.8457E-3	-77.1753E-12	773.295E-3	1.14473E-3
-1.60830E-3	-78.1175E-12	843.647E-3	-45.6185E-3	-78.9583E-12	785.214E-3	10.0603E-3
-1.61331E-3	-79.0997E-12	855.946E-3	-57.8657E-3	-78.3927E-12	802.914E-3	-14.9116E-3
-1.61831E-3	-82.4261E-12	853.249E-3	-31.3380E-3	-77.4661E-12	793.069E-3	-39.9363E-3
-1.62331E-3	-83.1043E-12	821.275E-3	7.16518E-3	-78.6447E-12	797.543E-3	-42.3021E-3
-1.62831E-3	-79.7490E-12	811.353E-3	13.0758E-3	-79.8884E-12	809.503E-3	-28.2683E-3
-1.63332E-3	-79.6033E-12	813.930E-3	-4.42506E-3	-80.2325E-12	812.482E-3	-15.0948E-3
-1.63832E-3	-82.1101E-12	823.795E-3	-43.9662E-3	-78.6057E-12	824.644E-3	-18.8270E-3
-1.64332E-3	-82.3182E-12	846.940E-3	-72.4960E-3	-80.4650E-12	839.130E-3	-28.1079E-3
-1.64832E-3	-80.2812E-12	845.039E-3	-49.6356E-3	-82.3240E-12	852.099E-3	-25.8734E-3
-1.65333E-3	-80.5508E-12	824.082E-3	-13.3775E-3	-83.9435E-12	858.403E-3	-22.4859E-3
-1.65833E-3	-82.4928E-12	813.321E-3	-1.27616E-3	-82.3277E-12	842.619E-3	-20.4761E-3
-1.66333E-3	-83.0622E-12	813.364E-3	-22.5686E-3	-83.3688E-12	801.749E-3	-12.7940E-3
-1.66833E-3	-83.4028E-12	798.512E-3	-47.0862E-3	-85.2940E-12	778.030E-3	-12.6785E-3
-1.67334E-3	-82.4454E-12	776.865E-3	-41.1080E-3	-84.5786E-12	791.320E-3	-28.5781E-3
-1.67834E-3	-82.9552E-12	784.412E-3	-16.6926E-3	-84.3664E-12	794.951E-3	-45.3498E-3
-1.68334E-3	-83.2310E-12	802.793E-3	14.0804E-3	-84.0678E-12	785.004E-3	-51.7315E-3
-1.68834E-3	-84.1469E-12	817.854E-3	16.1693E-3	-84.7788E-12	786.814E-3	-61.6874E-3
-1.69335E-3	-83.5010E-12	826.201E-3	1.61455E-3	-84.3761E-12	788.209E-3	-57.4732E-3
-1.69835E-3	-83.2551E-12	811.098E-3	-8.40887E-3	-82.7787E-12	780.471E-3	-24.8018E-3
-1.70335E-3	-84.4426E-12	792.289E-3	-17.0880E-3	-82.8604E-12	763.826E-3	-12.5415E-3
-1.70835E-3	-85.1424E-12	788.045E-3	-5.12140E-3	-82.7802E-12	749.009E-3	-19.5918E-3
-1.71336E-3	-86.1774E-12	796.165E-3	-704.302E-6	-82.6943E-12	749.607E-3	-15.4009E-3
-1.71836E-3	-84.4549E-12	807.714E-3	-15.2981E-3	-82.2032E-12	757.977E-3	-13.5769E-3
-1.72336E-3	-84.1216E-12	798.419E-3	-15.8360E-3	-84.0645E-12	765.637E-3	-1.55946E-3
-1.72836E-3	-84.9056E-12	772.126E-3	-3.84932E-3	-85.0406E-12	787.079E-3	21.7298E-3
-1.73337E-3	-87.8557E-12	767.657E-3	-12.3994E-3	-84.9988E-12	804.905E-3	10.5316E-3
-1.73837E-3	-89.0626E-12	776.842E-3	-26.9581E-3	-84.4740E-12	790.677E-3	-14.6517E-3
-1.74337E-3	-86.9650E-12	760.065E-3	-29.2879E-3	-86.8770E-12	784.839E-3	-9.85276E-3
-1.74837E-3	-85.7138E-12	741.026E-3	-30.1063E-3	-89.1970E-12	787.965E-3	-12.0687E-3
-1.75338E-3	-87.2369E-12	750.732E-3	-19.1414E-3	-89.2973E-12	763.407E-3	-26.7779E-3
-1.75838E-3	-89.2386E-12	760.974E-3	-5.48744E-3	-89.1061E-12	747.685E-3	-13.5478E-3
-1.76338E-3	-89.8403E-12	756.162E-3	-7.55482E-3	-89.9013E-12	765.152E-3	-2.49880E-3
-1.76838E-3	-89.2868E-12	752.270E-3	-10.9724E-3	-91.6203E-12	772.049E-3	-13.5141E-3
-1.77339E-3	-89.5188E-12	735.611E-3	-2.43250E-3	-90.6969E-12	773.668E-3	-5.58448E-3
-1.77839E-3	-90.5252E-12	718.112E-3	3.65881E-3	-91.1004E-12	789.602E-3	-20.9350E-6
-1.78339E-3	-92.8135E-12	755.308E-3	-10.4492E-3	-90.6619E-12	781.101E-3	-26.1911E-3
-1.78839E-3	-90.3108E-12	813.628E-3	-13.2643E-3	-92.2877E-12	764.230E-3	-34.8369E-3
-1.79340E-3	-88.7910E-12	819.412E-3	-10.8504E-3	-90.9435E-12	765.196E-3	-19.1138E-3
-1.79840E-3	-89.8171E-12	790.101E-3	-19.5188E-3	-89.7358E-12	753.661E-3	-15.2216E-3
-1.80340E-3	-91.0821E-12	766.759E-3	-14.3410E-3	-89.4384E-12	739.349E-3	-5.15722E-3
-1.80840E-3	-91.5497E-12	756.284E-3	-2.25127E-3	-88.0680E-12	731.261E-3	18.1395E-3
-1.81341E-3	-90.4967E-12	766.248E-3	-719.761E-6	-89.8523E-12	706.978E-3	19.6356E-3
-1.81841E-3	-90.1732E-12	765.287E-3	-23.3098E-3	-89.4440E-12	694.225E-3	15.8720E-3
-1.82341E-3	-90.0992E-12	737.943E-3	-52.2607E-3	-88.0070E-12	707.366E-3	18.6167E-3
-1.82841E-3	-90.2683E-12	724.469E-3	-53.6098E-3	-87.5890E-12	712.922E-3	-738.578E-6
-1.83342E-3	-89.5836E-12	719.144E-3	-23.0513E-3	-88.8858E-12	714.883E-3	-23.4580E-3
-1.83842E-3	-90.9901E-12	721.119E-3	-9.52527E-3	-90.6651E-12	735.295E-3	-31.2419E-3
-1.84342E-3	-90.3786E-12	744.459E-3	-32.2490E-3	-90.0627E-12	741.389E-3	-11.7339E-3
-1.84842E-3	-91.7276E-12	745.144E-3	-35.4064E-3	-90.6099E-12	724.758E-3	13.8785E-3
-1.85343E-3	-93.0348E-12	714.144E-3	-17.5230E-3	-90.2393E-12	721.880E-3	9.78278E-3
-1.85843E-3	-94.1514E-12	706.979E-3	-14.5797E-3	-91.9068E-12	731.729E-3	2.86883E-3
-1.86343E-3	-93.5267E-12	736.322E-3	-11.8249E-3	-93.0363E-12	735.906E-3	13.8394E-3
-1.86843E-3	-93.1228E-12	753.167E-3	-16.0794E-3	-94.3177E-12	740.879E-3	19.8404E-3
-1.87344E-3	-93.3228E-12	737.317E-3	-43.1385E-3	-94.4182E-12	751.311E-3	9.70476E-3
-1.87844E-3	-94.6390E-12	723.351E-3	-39.2289E-3	-94.5877E-12	739.333E-3	1.64225E-3
-1.88344E-3	-96.2205E-12	705.822E-3	8.13263E-3	-95.8333E-12	711.746E-3	7.65950E-3
-1.88844E-3	-94.9412E-12	692.682E-3	14.9795E-3	-96.1832E-12	713.979E-3	6.75384E-3
-1.89345E-3	-93.9790E-12	717.733E-3	-13.6644E-3	-96.7360E-12	716.431E-3	-5.82286E-3
-1.89845E-3	-94.8898E-12	722.187E-3	-10.1388E-3	-95.1314E-12	709.174E-3	812.535E-6
-1.90345E-3	-96.8153E-12	688.761E-3	1.54905E-3	-95.8494E-12	725.738E-3	6.70948E-3
-1.90845E-3	-97.0721E-12	689.143E-3	986.633E-6	-96.0823E-12	712.790E-3	-12.9548E-3
-1.91346E-3	-93.8044E-12	705.126E-3	1.37907E-3	-96.4308E-12	683.070E-3	-15.7104E-3
-1.91846E-3	-93.2950E-12	694.097E-3	-25.9047E-3	-94.9851E-12	683.819E-3	-6.44117E-3
-1.92346E-3	-95.3612E-12	678.315E-3	-52.8898E-3	-93.4861E-12	671.011E-3	-22.6991E-3
-1.92846E-3	-96.6697E-12	671.541E-3	-24.7394E-3	-95.0800E-12	656.790E-3	-30.9966E-3
-1.93347E-3	-94.2924E-12	686.422E-3	-993.121E-6	-96.4373E-12	680.886E-3	-32.8193E-3
-1.93847E-3	-94.2634E-12	713.651E-3	-7.19204E-3	-96.5800E-12	698.570E-3	-42.5607E-3
-1.94347E-3	-93.9237E-12	700.024E-3	-2.78798E-3	-95.9550E-12	691.110E-3	-37.8842E-3
-1.94847E-3	-96.6289E-12	662.382E-3	-8.35130E-3	-95.1490E-12	696.487E-3	-27.3079E-3
-1.95348E-3	-96.9491E-12	669.315E-3	-17.4520E-3	-95.2448E-12	715.896E-3	-25.5090E-3
-1.95848E-3	-97.4535E-12	684.985E-3	2.52582E-3	-97.4581E-12	717.852E-3	-26.7906E-3
-1.96348E-3	-96.6958E-12	683.108E-3	11.4745E-3	-98.0391E-12	727.272E-3	-19.5333E-3
-1.96848E-3	-97.4166E-12	696.840E-3	-1.29987E-3	-97.3876E-12	741.295E-3	-28.4954E-3
-1.97349E-3	-100.802E-12	713.102E-3	-530.256E-6	-98.9500E-12	731.685E-3	-32.9394E-3
-1.97849E-3	-100.450E-12	718.992E-3	-336.653E-6	-101.625E-12	747.240E-3	-11.1364E-3
-1.98349E-3	-99.2748E-12	716.005E-3	-16.1998E-3	-103.330E-12	760.946E-3	-13.5824E-3
-1.98849E-3	-96.6437E-12	709.857E-3	-17.6955E-3	-103.794E-12	732.513E-3	-11.6819E-3
-1.99350E-3	-98.7738E-12	702.680E-3	-15.8870E-3	-102.316E-12	711.784E-3	4.78751E-3
-1.99850E-3	-100.207E-12	705.879E-3	-32.6659E-3	-103.512E-12	700.195E-3	4.17929E-3
-2.00350E-3	-99.2982E-12	709.268E-3	-29.4432E-3	-105.144E-12	685.090E-3	6.99499E-3
-2.00850E-3	-97.8777E-12	692.142E-3	-9.78115E-3	-103.227E-12	682.300E-3	2.90425E-3
-2.01351E-3	-98.8396E-12	698.630E-3	-26.2762E-3	-101.627E-12	686.724E-3	-13.6970E-3
-2.01851E-3	-101.752E-12	720.594E-3	-50.9764E-3	-100.781E-12	682.129E-3	-20.2543E-3
-2.02351E-3	-99.7051E-12	702.942E-3	-45.4627E-3	-102.862E-12	672.072E-3	-19.0723E-3
-2.02851E-3	-98.8362E-12	694.365E-3	-38.8913E-3	-101.889E-12	665.502E-3	-34.2762E-3
-2.03352E-3	-98.1612E-12	714.501E-3	-27.1643E-3	-102.145E-12	656.925E-3	-56.5076E-3
-2.03852E-3	-100.780E-12	692.504E-3	-8.73205E-3	-99.6507E-12	657.293E-3	-54.2630E-3
-2.04352E-3	-101.518E-12	663.663E-3	-10.9401E-3	-99.7767E-12	676.085E-3	-37.8903E-3
-2.04852E-3	-100.558E-12	684.332E-3	-19.4785E-3	-100.926E-12	686.486E-3	-28.7432E-3
-2.05353E-3	-99.8384E-12	705.659E-3	-19.1232E-3	-101.330E-12	683.665E-3	-19.7165E-3
-2.05853E-3	-101.403E-12	699.688E-3	-29.6500E-3	-102.044E-12	689.667E-3	-11.3374E-3
-2.06353E-3	-103.110E-12	690.483E-3	-37.4819E-3	-102.313E-12	694.650E-3	-2.10497E-3
-2.06853E-3	-103.147E-12	690.012E-3	-26.2239E-3	-104.453E-12	699.742E-3	7.14892E-3
-2.07354E-3	-103.329E-12	680.007E-3	-36.3013E-3	-104.676E-12	716.657E-3	600.298E-6
-2.07854E-3	-103.000E-12	670.270E-3	-40.7421E-3	-106.860E-12	723.736E-3	-19.4184E-3
-2.08354E-3	-104.464E-12	671.146E-3	3.57934E-3	-107.508E-12	717.919E-3	-36.1106E-3
-2.08854E-3	-104.335E-12	660.066E-3	31.9840E-3	-108.550E-12	722.372E-3	-24.4008E-3
-2.09355E-3	-102.910E-12	658.637E-3	10.1625E-3	-109.218E-12	735.575E-3	-8.22328E-3
-2.09855E-3	-103.284E-12	662.202E-3	-10.2122E-3	-109.088E-12	742.022E-3	-13.2410E-3
-2.10355E-3	-104.285E-12	631.226E-3	-16.1437E-3	-108.761E-12	736.670E-3	-13.9822E-3
-2.10855E-3	-105.693E-12	626.013E-3	-21.5937E-3	-107.983E-12	723.110E-3	-15.5031E-3
-2.11356E-3	-103.921E-12	679.519E-3	-6.52622E-3	-107.686E-12	699.724E-3	-9.91379E-3
-2.11856E-3	-103.260E-12	702.919E-3	1.91948E-3	-105.989E-12	675.458E-3	12.8130E-3
-2.12356E-3	-103.930E-12	691.241E-3	-22.1741E-3	-104.845E-12	656.926E-3	12.8544E-3
-2.12856E-3	-104.476E-12	686.180E-3	-23.9058E-3	-103.500E-12	657.996E-3	-11.4311E-3
-2.13357E-3	-104.880E-12	663.297E-3	-5.46954E-3	-103.855E-12	679.082E-3	-18.6219E-3
-2.13857E-3	-104.321E-12	653.435E-3	-17.8518E-3	-102.861E-12	663.715E-3	-13.5104E-3
-2.14357E-3	-103.941E-12	670.898E-3	-36.6496E-3	-103.028E-12	636.956E-3	-9.36141E-3
-2.14857E-3	-104.634E-12	670.888E-3	-55.0636E-3	-103.091E-12	649.520E-3	792.681E-6
-2.15358E-3	-107.357E-12	676.441E-3	-70.1563E-3	-103.513E-12	658.638E-3	-3.62227E-3
-2.15858E-3	-107.984E-12	688.881E-3	-45.5163E-3	-103.793E-12	655.771E-3	-13.4389E-3
-2.16358E-3	-106.658E-12	666.232E-3	-11.4245E-3	-103.665E-12	666.672E-3	-10.8730E-3
-2.16858E-3	-106.592E-12	658.770E-3	-12.7383E-3	-104.881E-12	689.103E-3	-1.33346E-3
-2.17359E-3	-108.068E-12	674.338E-3	-29.7913E-3	-107.654E-12	699.368E-3	11.7197E-3
-2.17859E-3	-109.748E-12	672.575E-3	-37.1411E-3	-109.477E-12	689.613E-3	16.7001E-3
-2.18359E-3	-108.858E-12	686.421E-3	-43.8056E-3	-108.682E-12	679.059E-3	444.937E-6
-2.18859E-3	-109.385E-12	723.256E-3	-50.6875E-3	-109.200E-12	685.866E-3	-9.37199E-3
-2.19360E-3	-110.566E-12	729.074E-3	-36.9407E-3	-109.470E-12	696.615E-3	1.07734E-3
-2.19860E-3	-110.853E-12	689.803E-3	-5.62461E-3	-112.200E-12	681.493E-3	-8.81173E-3
-2.20360E-3	-111.279E-12	658.382E-3	11.2970E-3	-112.453E-12	668.645E-3	-25.0116E-3
-2.20860E-3	-112.389E-12	659.054E-3	-2.58088E-3	-110.481E-12	684.834E-3	-26.4300E-3
-2.21361E-3	-112.873E-12	663.260E-3	-22.0628E-3	-109.953E-12	689.003E-3	-25.0970E-3
-2.21861E-3	-112.114E-12	668.003E-3	-23.4223E-3	-110.878E-12	655.347E-3	-15.2004E-3
-2.22361E-3	-111.767E-12	687.034E-3	-26.2085E-3	-110.020E-12	635.342E-3	-5.31260E-3
-2.22861E-3	-109.993E-12	695.202E-3	-26.8443E-3	-107.962E-12	659.026E-3	-16.9615E-3
-2.23362E-3	-111.284E-12	687.097E-3	-16.6598E-3	-107.183E-12	675.070E-3	-26.9160E-3
-2.23862E-3	-110.945E-12	672.591E-3	-11.2021E-3	-108.128E-12	662.132E-3	-28.4366E-3
-2.24362E-3	-111.384E-12	660.186E-3	-25.9229E-3	-108.062E-12	655.244E-3	-45.0494E-3
-2.24862E-3	-109.680E-12	671.144E-3	-42.1404E-3	-106.551E-12	656.237E-3	-40.1446E-3
-2.25363E-3	-109.447E-12	681.573E-3	-25.5322E-3	-105.997E-12	653.241E-3	-16.0281E-3
-2.25863E-3	-109.639E-12	662.437E-3	-11.9336E-3	-106.482E-12	659.142E-3	-9.34412E-3
-2.26363E-3	-109.467E-12	637.354E-3	-16.9270E-3	-107.793E-12	669.027E-3	4.78173E-3
-2.26863E-3	-109.946E-12	626.296E-3	-17.2267E-3	-108.279E-12	660.075E-3	25.4792E-3
-2.27364E-3	-108.332E-12	646.663E-3	-25.8214E-3	-109.375E-12	662.000E-3	11.5826E-3
-2.27864E-3	-109.840E-12	671.175E-3	-22.4744E-3	-110.922E-12	679.133E-3	-18.4657E-3
-2.28364E-3	-110.967E-12	642.106E-3	-1.13541E-3	-110.396E-12	682.361E-3	-22.5260E-3
-2.28864E-3	-111.435E-12	616.085E-3	-718.671E-6	-113.521E-12	687.255E-3	-15.8743E-3
-2.29365E-3	-110.950E-12	647.506E-3	-8.40428E-3	-114.590E-12	667.976E-3	-12.4809E-3
-2.29865E-3	-112.164E-12	664.988E-3	-10.3952E-3	-115.701E-12	638.670E-3	-12.2046E-3
-2.30365E-3	-111.859E-12	647.055E-3	-27.8365E-3	-116.147E-12	661.857E-3	-19.9851E-3
-2.30865E-3	-111.492E-12	646.691E-3	-43.1374E-3	-116.177E-12	682.754E-3	-18.4516E-3
-2.31366E-3	-111.688E-12	660.653E-3	-29.5032E-3	-117.272E-12	683.291E-3	-9.00096E-3
-2.31866E-3	-111.739E-12	657.432E-3	-5.00900E-3	-116.486E-12	711.887E-3	-8.78042E-3
-2.32366E-3	-112.706E-12	664.179E-3	-9.71097E-3	-117.140E-12	717.176E-3	-11.4086E-3
-2.32866E-3	-112.296E-12	676.015E-3	-27.5442E-3	-117.457E-12	677.661E-3	-15.5440E-3
-2.33367E-3	-113.249E-12	649.061E-3	-27.4188E-3	-119.262E-12	671.157E-3	-32.1784E-3
-2.33867E-3	-112.887E-12	648.559E-3	-22.4169E-3	-116.103E-12	693.647E-3	-33.4830E-3
-2.34367E-3	-112.809E-12	676.233E-3	-13.5789E-3	-114.701E-12	679.662E-3	-11.1108E-3
-2.34867E-3	-112.215E-12	675.007E-3	-7.52274E-3	-113.960E-12	657.883E-3	-8.65388E-3
-2.35368E-3	-112.180E-12	675.521E-3	-24.8450E-3	-114.945E-12	665.877E-3	-15.9282E-3
-2.35868E-3	-112.699E-12	667.191E-3	-36.8420E-3	-114.553E-12	659.243E-3	-13.6293E-3
-2.36368E-3	-112.578E-12	626.442E-3	-29.9032E-3	-113.155E-12	643.380E-3	-23.4817E-3
-2.36868E-3	-113.072E-12	617.328E-3	-31.9705E-3	-112.680E-12	638.821E-3	-41.1388E-3
-2.37369E-3	-113.407E-12	656.849E-3	-29.2554E-3	-113.129E-12	613.801E-3	-39.1080E-3
-2.37869E-3	-115.759E-12	670.153E-3	-15.8946E-3	-115.336E-12	611.367E-3	-15.2544E-3
-2.38369E-3	-116.215E-12	658.864E-3	-19.0981E-3	-114.967E-12	643.410E-3	-6.43545E-3
-2.38869E-3	-116.044E-12	672.445E-3	-21.0033E-3	-114.937E-12	661.112E-3	-19.0931E-3
-2.39370E-3	-115.497E-12	687.480E-3	3.30070E-3	-116.261E-12	669.744E-3	-12.2288E-3
-2.39870E-3	-117.488E-12	691.580E-3	10.0609E-3	-118.866E-12	664.138E-3	2.23806E-3
-2.40370E-3	-118.869E-12	687.542E-3	1.97417E-3	-119.587E-12	662.228E-3	-3.21891E-3
-2.40870E-3	-117.458E-12	649.895E-3	19.5138E-3	-118.550E-12	688.920E-3	3.19536E-3
-2.41371E-3	-116.616E-12	608.342E-3	16.4621E-3	-118.362E-12	704.319E-3	5.67601E-3
-2.41871E-3	-117.140E-12	607.713E-3	-15.0518E-3	-119.582E-12	691.980E-3	-22.7549E-3
-2.42371E-3	-117.627E-12	623.743E-3	-30.4431E-3	-120.822E-12	688.312E-3	-37.0919E-3
-2.42871E-3	-116.098E-12	636.044E-3	-51.8390E-3	-119.918E-12	694.397E-3	-17.8659E-3
-2.43372E-3	-115.773E-12	650.198E-3	-61.5593E-3	-119.501E-12	676.111E-3	-25.0483E-3
-2.43872E-3	-117.100E-12	651.673E-3	-33.2727E-3	-119.219E-12	648.908E-3	-47.6944E-3
-2.44372E-3	-118.234E-12	639.376E-3	-21.3388E-3	-118.497E-12	650.716E-3	-25.1487E-3
-2.44872E-3	-118.625E-12	628.579E-3	-30.6584E-3	-118.234E-12	660.335E-3	-5.17136E-3
-2.45373E-3	-116.661E-12	637.951E-3	-11.3358E-3	-117.509E-12	649.641E-3	-10.0879E-3
-2.45873E-3	-117.306E-12	644.030E-3	4.24012E-3	-118.087E-12	644.278E-3	-23.2874E-3
-2.46373E-3	-117.980E-12	627.643E-3	-20.7790E-3	-117.563E-12	639.096E-3	-41.8015E-3
-2.46873E-3	-119.212E-12	632.048E-3	-33.4866E-3	-116.446E-12	618.063E-3	-28.2380E-3
-2.47374E-3	-119.071E-12	653.668E-3	-20.6711E-3	-116.786E-12	640.573E-3	1.95090E-3
-2.47874E-3	-120.062E-12	657.003E-3	-24.7519E-3	-117.905E-12	662.696E-3	-12.9614E-3
-2.48374E-3	-121.929E-12	655.837E-3	-36.9055E-3	-117.237E-12	634.365E-3	-30.7360E-3
-2.48874E-3	-123.480E-12	651.110E-3	-16.4128E-3	-118.572E-12	654.692E-3	-9.59899E-3
-2.49375E-3	-123.715E-12	644.916E-3	7.11546E-3	-119.384E-12	681.516E-3	-4.74883E-3
-2.49875E-3	-123.531E-12	658.226E-3	10.6771E-3	-120.228E-12	667.648E-3	-1.87442E-3
-2.50375E-3	-123.315E-12	661.276E-3	842.852E-6	-121.022E-12	683.616E-3	19.8076E-3
-2.50875E-3	-122.963E-12	642.474E-3	-27.7456E-3	-123.412E-12	709.311E-3	3.07413E-3
-2.51376E-3	-123.096E-12	636.287E-3	-25.6509E-3	-125.367E-12	724.345E-3	-36.1783E-3
-2.51876E-3	-121.845E-12	641.877E-3	-11.1582E-3	-123.998E-12	728.816E-3	-42.5373E-3
-2.52376E-3	-123.431E-12	644.313E-3	-31.5350E-3	-124.880E-12	698.052E-3	-26.0559E-3
-2.52876E-3	-122.701E-12	655.202E-3	-33.3361E-3	-125.253E-12	667.748E-3	-17.4467E-3
-2.53377E-3	-121.532E-12	661.264E-3	-19.9704E-3	-125.887E-12	670.137E-3	-29.1488E-3
-2.53877E-3	-119.563E-12	636.063E-3	-35.9832E-3	-123.843E-12	652.643E-3	-58.8915E-3
-2.54377E-3	-122.209E-12	624.327E-3	-41.5922E-3	-123.286E-12	632.103E-3	-86.7865E-3
-2.54877E-3	-123.920E-12	642.636E-3	-14.0424E-3	-122.432E-12	637.836E-3	-79.5106E-3
-2.55378E-3	-121.739E-12	640.377E-3	-5.15119E-3	-121.995E-12	639.030E-3	-57.9999E-3
-2.55878E-3	-120.311E-12	638.158E-3	-8.97814E-3	-119.315E-12	649.095E-3	-61.0514E-3
-2.56378E-3	-121.331E-12	641.709E-3	-2.71666E-3	-118.953E-12	642.421E-3	-50.8365E-3
-2.56878E-3	-126.532E-12	632.135E-3	-13.6265E-3	-118.951E-12	607.597E-3	-22.2126E-3
-2.57379E-3	-125.705E-12	651.113E-3	-25.1418E-3	-119.240E-12	595.422E-3	5.14978E-3
-2.57879E-3	-124.773E-12	670.209E-3	-10.9981E-3	-119.354E-12	605.975E-3	26.3878E-3
-2.58379E-3	-124.667E-12	639.650E-3	3.07816E-3	-118.572E-12	622.586E-3	9.20826E-3
-2.58879E-3	-129.414E-12	604.373E-3	-17.2318E-3	-119.365E-12	625.342E-3	-27.3146E-3
-2.59380E-3	-129.899E-12	628.607E-3	-35.9536E-3	-122.794E-12	609.879E-3	-44.9165E-3
-2.59880E-3	-126.364E-12	663.446E-3	-23.0367E-3	-123.948E-12	630.609E-3	-49.9618E-3
-2.60380E-3	-127.106E-12	664.686E-3	-30.1115E-3	-123.852E-12	671.311E-3	-25.8081E-3
-2.60880E-3	-129.127E-12	666.682E-3	-36.2653E-3	-125.373E-12	688.027E-3	16.9707E-3
-2.61381E-3	-132.091E-12	648.522E-3	-7.88337E-3	-129.605E-12	682.099E-3	13.9241E-3
-2.61881E-3	-129.080E-12	616.101E-3	6.17173E-3	-131.137E-12	665.998E-3	-3.11111E-3
-2.62381E-3	-126.123E-12	616.313E-3	10.4394E-3	-130.576E-12	666.791E-3	6.20878E-3
-2.62881E-3	-128.541E-12	625.737E-3	10.1494E-3	-131.430E-12	667.462E-3	-22.9971E-3
-2.63382E-3	-132.181E-12	648.758E-3	-26.6905E-3	-131.882E-12	640.737E-3	-61.7667E-3
-2.63882E-3	-131.810E-12	671.320E-3	-34.4654E-3	-130.293E-12	623.387E-3	-34.6078E-3
-2.64382E-3	-127.986E-12	663.349E-3	8.96574E-3	-129.037E-12	636.625E-3	-7.53013E-3
-2.64882E-3	-127.856E-12	667.495E-3	24.9161E-3	-130.797E-12	643.350E-3	-15.2036E-3
-2.65383E-3	-129.006E-12	665.625E-3	2.08643E-3	-129.495E-12	644.790E-3	-19.5282E-3
-2.65883E-3	-130.129E-12	639.242E-3	-25.0908E-3	-128.420E-12	635.034E-3	-19.3640E-3
-2.66383E-3	-126.392E-12	621.345E-3	-39.5884E-3	-127.159E-12	614.407E-3	-9.40104E-3
-2.66883E-3	-125.531E-12	606.781E-3	-34.2156E-3	-127.918E-12	619.999E-3	-6.29667E-3
-2.67384E-3	-128.269E-12	596.570E-3	-17.1720E-3	-127.474E-12	650.650E-3	-22.5719E-3
-2.67884E-3	-131.883E-12	606.717E-3	-21.0554E-3	-127.130E-12	670.071E-3	-43.9684E-3
-2.68384E-3	-129.274E-12	629.146E-3	-54.7087E-3	-126.759E-12	657.725E-3	-30.9502E-3
-2.68884E-3	-127.043E-12	651.718E-3	-70.8575E-3	-127.773E-12	650.051E-3	2.98819E-3
-2.69385E-3	-128.618E-12	656.053E-3	-50.3868E-3	-128.890E-12	669.094E-3	-8.24192E-3
-2.69885E-3	-131.590E-12	646.717E-3	-22.3375E-3	-130.207E-12	682.745E-3	-40.8369E-3
-2.70385E-3	-131.469E-12	645.788E-3	1.51875E-3	-130.927E-12	661.937E-3	-35.3441E-3
-2.70885E-3	-129.495E-12	643.271E-3	-6.46596E-3	-131.580E-12	639.968E-3	4.86523E-3
-2.71386E-3	-131.816E-12	642.816E-3	-35.5357E-3	-132.920E-12	643.336E-3	27.5197E-3
-2.71886E-3	-132.961E-12	633.689E-3	-36.1037E-3	-134.288E-12	667.314E-3	17.9742E-3
-2.72386E-3	-133.690E-12	631.978E-3	-14.2191E-3	-133.366E-12	689.939E-3	-5.50564E-3
-2.72886E-3	-135.164E-12	664.816E-3	-13.0805E-3	-132.589E-12	694.702E-3	-29.3629E-3
-2.73387E-3	-133.082E-12	686.366E-3	-25.8527E-3	-133.775E-12	689.553E-3	-32.0132E-3
-2.73887E-3	-132.887E-12	686.598E-3	-31.1380E-3	-135.312E-12	670.368E-3	-12.6146E-3
-2.74387E-3	-133.895E-12	674.735E-3	-31.4191E-3	-133.728E-12	647.115E-3	-2.57095E-3
-2.74887E-3	-134.086E-12	652.920E-3	-19.0688E-3	-132.513E-12	632.042E-3	-17.9908E-3
-2.75388E-3	-131.968E-12	648.740E-3	1.70299E-3	-132.826E-12	636.407E-3	-39.1464E-3
-2.75888E-3	-131.366E-12	661.076E-3	1.57789E-3	-135.780E-12	644.951E-3	-28.8118E-3
-2.76388E-3	-131.256E-12	653.379E-3	-7.20356E-3	-134.363E-12	631.502E-3	-2.64182E-3
-2.76888E-3	-133.112E-12	633.289E-3	-10.2107E-3	-131.770E-12	627.288E-3	9.06635E-3
-2.77389E-3	-132.235E-12	641.867E-3	-23.4864E-3	-130.327E-12	650.136E-3	19.8806E-3
-2.77889E-3	-132.124E-12	650.947E-3	-22.3240E-3	-131.654E-12	665.630E-3	25.6498E-3
-2.78389E-3	-134.344E-12	641.400E-3	-10.9387E-3	-133.091E-12	647.105E-3	9.29837E-3
-2.78889E-3	-136.820E-12	641.632E-3	-18.0605E-3	-132.829E-12	621.895E-3	-15.7396E-3
-2.79390E-3	-137.189E-12	647.490E-3	-27.3443E-3	-131.611E-12	625.620E-3	-34.8681E-3
-2.79890E-3	-135.551E-12	648.178E-3	-40.0153E-3	-132.278E-12	634.511E-3	-29.5458E-3
-2.80390E-3	-136.393E-12	644.877E-3	-47.0433E-3	-134.133E-12	641.812E-3	-1.82922E-3
-2.80890E-3	-140.924E-12	648.610E-3	-41.9723E-3	-135.321E-12	657.016E-3	-2.33068E-3
-2.81391E-3	-140.504E-12	663.248E-3	-44.2692E-3	-134.165E-12	649.816E-3	-8.51406E-3
-2.81891E-3	-139.306E-12	665.906E-3	-49.1073E-3	-132.298E-12	629.089E-3	-7.45021E-3
-2.82391E-3	-139.955E-12	653.515E-3	-41.4037E-3	-133.314E-12	616.311E-3	-19.6490E-3
-2.82891E-3	-140.995E-12	652.044E-3	-29.4038E-3	-136.449E-12	617.922E-3	-6.90587E-3
-2.83392E-3	-141.317E-12	665.866E-3	-11.5989E-3	-135.901E-12	626.044E-3	15.1650E-3
-2.83892E-3	-138.345E-12	673.047E-3	-4.33693E-3	-134.239E-12	636.867E-3	20.0668E-3
-2.84392E-3	-135.945E-12	662.027E-3	-18.4410E-3	-133.740E-12	654.660E-3	14.2412E-3
-2.84892E-3	-136.745E-12	664.303E-3	-15.4916E-3	-135.616E-12	643.417E-3	-15.8609E-3
-2.85393E-3	-139.166E-12	668.465E-3	-4.91077E-3	-138.261E-12	634.303E-3	-30.5284E-3
-2.85893E-3	-138.030E-12	651.374E-3	-13.4027E-3	-135.800E-12	659.651E-3	-10.6246E-3
-2.86393E-3	-135.572E-12	639.963E-3	-35.5970E-3	-134.469E-12	669.574E-3	-15.0782E-3
-2.86893E-3	-135.335E-12	634.409E-3	-42.9070E-3	-135.274E-12	659.010E-3	-39.3262E-3
-2.87394E-3	-137.069E-12	617.146E-3	-22.8561E-3	-136.039E-12	649.739E-3	-38.9725E-3
-2.87894E-3	-138.535E-12	608.024E-3	-13.2301E-3	-135.397E-12	637.928E-3	-27.6694E-3
-2.88394E-3	-137.051E-12	619.903E-3	-11.3362E-3	-132.710E-12	615.100E-3	-16.3660E-3
-2.88894E-3	-135.915E-12	619.476E-3	-5.69824E-3	-134.361E-12	593.993E-3	-3.16016E-3
-2.89395E-3	-137.609E-12	617.500E-3	-10.7238E-3	-134.359E-12	602.945E-3	-7.67612E-3
-2.89895E-3	-140.881E-12	633.823E-3	-3.89203E-3	-135.177E-12	636.961E-3	-14.4728E-3
-2.90395E-3	-143.691E-12	644.886E-3	-1.87297E-3	-134.674E-12	651.929E-3	-2.55913E-3
-2.90895E-3	-142.142E-12	626.237E-3	-22.6660E-3	-135.778E-12	657.633E-3	11.7667E-3
-2.91396E-3	-141.419E-12	621.530E-3	-22.7806E-3	-135.103E-12	657.995E-3	17.1820E-3
-2.91896E-3	-145.221E-12	626.704E-3	5.10399E-3	-136.608E-12	620.897E-3	6.01012E-3
-2.92396E-3	-146.859E-12	609.016E-3	26.7278E-3	-138.903E-12	607.685E-3	-25.1004E-3
-2.92896E-3	-145.386E-12	622.569E-3	32.0336E-3	-138.656E-12	645.433E-3	-51.5542E-3
-2.93397E-3	-144.160E-12	656.076E-3	10.7591E-3	-140.075E-12	659.262E-3	-45.9648E-3
-2.93897E-3	-145.009E-12	662.778E-3	-38.1682E-3	-140.993E-12	647.730E-3	-26.5145E-3
-2.94397E-3	-145.739E-12	630.323E-3	-43.9088E-3	-141.604E-12	637.504E-3	-24.0349E-3
-2.94897E-3	-144.600E-12	617.143E-3	-2.59608E-3	-141.746E-12	629.126E-3	-4.66745E-3
-2.95398E-3	-143.276E-12	638.270E-3	13.5883E-3	-141.554E-12	633.025E-3	26.1098E-3
-2.95898E-3	-140.840E-12	626.662E-3	6.16521E-3	-143.073E-12	637.420E-3	15.9180E-3
-2.96398E-3	-140.561E-12	618.135E-3	-819.422E-6	-141.819E-12	631.128E-3	-4.70134E-3
-2.96898E-3	-143.055E-12	631.749E-3	-10.7979E-3	-142.293E-12	624.949E-3	-14.3412E-3
-2.97399E-3	-141.522E-12	636.322E-3	-16.9174E-3	-140.229E-12	637.925E-3	-16.5266E-3
-2.97899E-3	-138.951E-12	662.179E-3	-11.3004E-3	-141.349E-12	640.368E-3	-10.5608E-3
-2.98399E-3	-140.194E-12	678.898E-3	-2.70565E-3	-141.448E-12	623.944E-3	-17.5101E-3
-2.98899E-3	-141.723E-12	646.712E-3	-16.0964E-3	-139.864E-12	629.478E-3	-24.8405E-3
-2.99400E-3	-142.931E-12	616.495E-3	-30.6585E-3	-138.776E-12	637.181E-3	-21.9360E-3
-2.99900E-3	-142.035E-12	617.652E-3	-16.9066E-3	-140.243E-12	626.927E-3	-25.1859E-3
-3.00400E-3	-142.643E-12	631.986E-3	-7.11544E-3	-142.238E-12	619.566E-3	-22.3794E-3
-3.00900E-3	-143.396E-12	652.136E-3	-10.6895E-3	-140.601E-12	635.162E-3	-3.16748E-3
-3.01401E-3	-144.509E-12	680.744E-3	-16.6102E-3	-138.751E-12	658.113E-3	20.9485E-3
-3.01901E-3	-146.134E-12	682.220E-3	-36.3872E-3	-140.971E-12	659.945E-3	33.7012E-3
-3.02401E-3	-147.137E-12	660.564E-3	-43.9971E-3	-146.350E-12	640.404E-3	29.1380E-3
-3.02901E-3	-146.869E-12	669.174E-3	-11.7725E-3	-147.633E-12	616.454E-3	20.5059E-3
-3.03402E-3	-147.139E-12	686.175E-3	6.46732E-3	-146.169E-12	621.829E-3	9.64892E-3
-3.03902E-3	-149.050E-12	695.697E-3	-8.79125E-3	-147.016E-12	640.266E-3	13.0270E-3
-3.04402E-3	-150.131E-12	682.279E-3	-8.81493E-3	-149.612E-12	650.052E-3	27.4940E-3
-3.04902E-3	-149.177E-12	636.905E-3	-6.77784E-3	-152.368E-12	654.528E-3	4.94647E-3
-3.05403E-3	-146.810E-12	615.028E-3	-25.6269E-3	-150.148E-12	635.812E-3	-38.1437E-3
-3.05903E-3	-146.906E-12	625.719E-3	-22.4606E-3	-149.816E-12	622.461E-3	-45.9219E-3
-3.06403E-3	-150.418E-12	628.027E-3	-5.74782E-3	-149.526E-12	631.755E-3	-30.3116E-3
-3.06903E-3	-148.406E-12	636.401E-3	-4.25315E-3	-149.334E-12	634.003E-3	-27.2975E-3
-3.07404E-3	-144.893E-12	665.869E-3	-11.9776E-3	-148.820E-12	627.044E-3	-24.8176E-3
-3.07904E-3	-145.742E-12	686.217E-3	-219.431E-6	-147.033E-12	624.014E-3	-14.8699E-3
-3.08404E-3	-148.901E-12	683.120E-3	16.1886E-3	-146.108E-12	630.156E-3	-10.8438E-3
-3.08904E-3	-148.318E-12	665.222E-3	-12.4689E-3	-144.578E-12	632.487E-3	-15.8761E-3
-3.09405E-3	-147.341E-12	649.916E-3	-40.9971E-3	-145.714E-12	608.761E-3	-44.2750E-3
-3.09905E-3	-146.928E-12	631.080E-3	-36.0748E-3	-143.747E-12	586.135E-3	-56.4481E-3
-3.10405E-3	-149.721E-12	606.678E-3	-25.4955E-3	-145.150E-12	597.824E-3	-32.9869E-3
-3.10905E-3	-149.740E-12	617.618E-3	-26.0373E-3	-144.380E-12	614.116E-3	-8.31480E-3
-3.11406E-3	-149.991E-12	652.917E-3	-25.3485E-3	-145.768E-12	625.451E-3	11.4484E-3
-3.11906E-3	-150.670E-12	645.039E-3	-32.0499E-3	-147.339E-12	650.434E-3	9.17371E-3
-3.12406E-3	-150.108E-12	622.478E-3	-38.8919E-3	-145.615E-12	669.450E-3	-17.0668E-3
-3.12906E-3	-151.017E-12	620.460E-3	-8.86287E-3	-147.645E-12	686.292E-3	-37.0094E-3
-3.13407E-3	-153.247E-12	636.293E-3	24.8527E-3	-148.315E-12	697.210E-3	-21.1172E-3
-3.13907E-3	-153.864E-12	679.460E-3	26.9195E-3	-150.261E-12	683.842E-3	4.56629E-3
-3.14407E-3	-154.729E-12	705.298E-3	24.4179E-3	-149.310E-12	674.953E-3	-683.445E-6
-3.14907E-3	-154.746E-12	704.049E-3	19.2036E-3	-151.201E-12	664.862E-3	-3.89866E-3
-3.15408E-3	-155.867E-12	683.000E-3	11.3746E-3	-150.020E-12	643.836E-3	15.5135E-3
-3.15908E-3	-152.277E-12	656.272E-3	-12.6710E-3	-150.290E-12	645.135E-3	13.6523E-3
-3.16408E-3	-149.401E-12	683.860E-3	-76.1491E-3	-149.293E-12	653.387E-3	-10.4397E-3
-3.16908E-3	-151.553E-12	716.953E-3	-108.584E-3	-148.473E-12	632.129E-3	-9.30565E-3
-3.17409E-3	-156.393E-12	679.423E-3	-77.5635E-3	-147.762E-12	601.452E-3	-16.6836E-3
-3.17909E-3	-152.528E-12	621.212E-3	-18.6461E-3	-145.685E-12	600.066E-3	-48.6281E-3
-3.18409E-3	-149.078E-12	619.703E-3	-495.666E-6	-145.134E-12	626.669E-3	-51.2088E-3
-3.18909E-3	-150.032E-12	650.768E-3	-31.6052E-3	-145.179E-12	629.675E-3	-36.1679E-3
-3.19410E-3	-155.937E-12	638.523E-3	-22.2660E-3	-146.587E-12	610.937E-3	-25.5644E-3
-3.19910E-3	-154.426E-12	619.238E-3	-6.00125E-3	-146.596E-12	611.204E-3	-12.4483E-3
-3.20410E-3	-152.946E-12	640.086E-3	-10.3919E-3	-146.522E-12	625.274E-3	-9.45891E-3
-3.20910E-3	-153.261E-12	671.225E-3	297.799E-6	-146.057E-12	645.930E-3	-11.1397E-3
-3.21411E-3	-156.152E-12	683.925E-3	-4.97309E-3	-148.408E-12	668.250E-3	-1.54494E-3
-3.21911E-3	-158.110E-12	673.414E-3	-23.7924E-3	-149.318E-12	685.705E-3	15.7707E-3
-3.22411E-3	-157.251E-12	658.086E-3	-20.8150E-3	-150.049E-12	685.526E-3	21.9369E-3
-3.22911E-3	-158.381E-12	637.331E-3	-17.5665E-3	-150.896E-12	669.795E-3	19.1268E-3
-3.23412E-3	-158.987E-12	634.150E-3	-28.1937E-3	-151.834E-12	656.173E-3	19.3049E-3
-3.23912E-3	-160.695E-12	663.580E-3	-17.5985E-3	-154.055E-12	650.067E-3	2.77242E-3
-3.24412E-3	-160.501E-12	679.712E-3	1.01088E-3	-154.586E-12	637.317E-3	-41.5358E-3
-3.24912E-3	-159.209E-12	678.734E-3	3.90765E-3	-155.010E-12	632.903E-3	-61.7160E-3
-3.25413E-3	-159.124E-12	685.227E-3	4.05312E-3	-153.946E-12	647.878E-3	-41.7300E-3
-3.25913E-3	-158.393E-12	673.328E-3	-10.5764E-3	-155.216E-12	642.830E-3	-31.2464E-3
-3.26413E-3	-156.679E-12	649.589E-3	-49.8154E-3	-154.505E-12	648.011E-3	-38.2548E-3
-3.26913E-3	-154.923E-12	666.077E-3	-75.7003E-3	-154.276E-12	669.082E-3	-13.1805E-3
-3.27414E-3	-155.341E-12	678.335E-3	-49.7222E-3	-153.414E-12	664.544E-3	26.0512E-3
-3.27914E-3	-156.409E-12	640.406E-3	-1.25008E-3	-153.568E-12	661.646E-3	25.4568E-3
-3.28414E-3	-155.561E-12	605.710E-3	-5.17352E-3	-154.592E-12	668.383E-3	1.52565E-3
-3.28914E-3	-154.438E-12	601.755E-3	-39.5939E-3	-154.581E-12	664.013E-3	-9.84287E-3
-3.29415E-3	-155.012E-12	603.783E-3	-35.0515E-3	-154.760E-12	649.231E-3	5.61224E-3
-3.29915E-3	-155.566E-12	611.668E-3	-9.86607E-3	-153.876E-12	627.327E-3	2.06999E-3
-3.30415E-3	-154.067E-12	633.900E-3	17.4446E-3	-155.536E-12	616.514E-3	-18.0384E-3
-3.30915E-3	-155.178E-12	627.130E-3	4.75662E-3	-153.602E-12	635.160E-3	-13.5979E-3
-3.31416E-3	-157.636E-12	604.528E-3	-39.7135E-3	-154.635E-12	658.195E-3	-5.33261E-3
-3.31916E-3	-156.022E-12	605.540E-3	-54.4097E-3	-154.884E-12	660.038E-3	-478.054E-6
-3.32416E-3	-157.288E-12	583.622E-3	-46.3644E-3	-156.098E-12	658.229E-3	8.64614E-3
-3.32916E-3	-161.225E-12	571.342E-3	-41.1823E-3	-156.508E-12	648.111E-3	6.19746E-3
-3.33417E-3	-163.649E-12	597.662E-3	-34.8799E-3	-157.082E-12	627.801E-3	-6.87411E-3
-3.33917E-3	-162.421E-12	632.544E-3	-35.4817E-3	-157.514E-12	620.664E-3	-14.8899E-3
-3.34417E-3	-160.133E-12	652.669E-3	-44.6683E-3	-156.928E-12	616.356E-3	-20.5933E-3
-3.34917E-3	-162.359E-12	632.919E-3	-43.5497E-3	-158.475E-12	602.822E-3	-6.02355E-3
-3.35418E-3	-164.595E-12	634.927E-3	-54.4341E-3	-159.818E-12	612.737E-3	15.6731E-3
-3.35918E-3	-164.555E-12	662.861E-3	-48.3471E-3	-162.023E-12	636.036E-3	6.11751E-3
-3.36418E-3	-160.895E-12	677.388E-3	8.17753E-3	-160.762E-12	640.571E-3	12.3778E-3
-3.36918E-3	-161.414E-12	681.825E-3	47.1448E-3	-163.219E-12	634.799E-3	32.0069E-3
-3.37419E-3	-160.889E-12	647.227E-3	29.9517E-3	-163.970E-12	624.409E-3	-4.00218E-3
-3.37919E-3	-161.066E-12	597.208E-3	574.394E-6	-163.046E-12	633.693E-3	-47.1265E-3
-3.38419E-3	-159.203E-12	587.314E-3	-10.3172E-3	-162.789E-12	652.226E-3	-40.7447E-3
-3.38919E-3	-157.195E-12	610.801E-3	-4.95410E-3	-165.751E-12	653.878E-3	-18.4515E-3
-3.39420E-3	-158.612E-12	611.886E-3	-11.5527E-3	-165.906E-12	642.435E-3	10.6164E-3
-3.39920E-3	-159.976E-12	592.008E-3	-35.5226E-3	-161.689E-12	629.356E-3	23.6089E-3
-3.40420E-3	-161.905E-12	598.777E-3	-36.8210E-3	-158.929E-12	633.054E-3	-13.2261E-3
-3.40920E-3	-159.173E-12	625.758E-3	-27.4843E-3	-160.540E-12	644.185E-3	-32.6716E-3
-3.41421E-3	-161.391E-12	651.367E-3	-15.9311E-3	-162.512E-12	633.693E-3	-10.9234E-3
-3.41921E-3	-163.437E-12	660.514E-3	6.81816E-3	-159.184E-12	613.807E-3	5.21645E-3
-3.42421E-3	-164.660E-12	652.655E-3	33.5459E-3	-156.547E-12	610.759E-3	-1.81940E-3
-3.42921E-3	-163.590E-12	616.063E-3	62.0194E-3	-157.935E-12	609.187E-3	-31.1463E-3
-3.43422E-3	-162.162E-12	607.394E-3	51.2552E-3	-161.631E-12	589.803E-3	-42.2465E-3
-3.43922E-3	-163.943E-12	645.148E-3	23.7760E-3	-159.889E-12	586.793E-3	-27.8341E-3
-3.44422E-3	-166.923E-12	647.507E-3	18.1683E-3	-158.902E-12	615.096E-3	-7.53755E-3
-3.44922E-3	-167.685E-12	638.739E-3	6.78783E-3	-160.532E-12	633.237E-3	-797.946E-6
-3.45423E-3	-165.392E-12	658.507E-3	-3.45133E-3	-163.506E-12	650.453E-3	-38.4042E-3
-3.45923E-3	-165.237E-12	670.293E-3	-40.9464E-6	-165.018E-12	667.418E-3	-57.5021E-3
-3.46423E-3	-165.763E-12	678.963E-3	8.99970E-3	-164.525E-12	686.946E-3	-28.0940E-3
-3.46923E-3	-168.354E-12	676.255E-3	24.6954E-3	-166.331E-12	698.677E-3	-35.0530E-3
-3.47424E-3	-167.089E-12	647.722E-3	27.0168E-3	-167.961E-12	671.232E-3	-38.7164E-3
-3.47924E-3	-163.692E-12	639.417E-3	8.31138E-3	-170.586E-12	645.487E-3	-15.1952E-3
-3.48424E-3	-160.997E-12	661.028E-3	-131.095E-6	-168.251E-12	647.684E-3	-34.8603E-3
-3.48924E-3	-161.854E-12	673.696E-3	-2.83297E-3	-167.254E-12	660.456E-3	-41.0545E-3
-3.49425E-3	-162.886E-12	655.835E-3	-16.2260E-3	-167.375E-12	642.445E-3	-22.6729E-3
-3.49925E-3	-162.966E-12	641.510E-3	-42.2070E-3	-166.841E-12	598.966E-3	-9.65831E-3
-3.50425E-3	-161.701E-12	653.022E-3	-49.8343E-3	-163.486E-12	586.544E-3	12.4036E-3
-3.50925E-3	-163.064E-12	649.300E-3	-19.0248E-3	-162.111E-12	617.559E-3	17.9497E-3
-3.51426E-3	-166.193E-12	639.790E-3	12.8107E-3	-162.866E-12	632.022E-3	-6.94075E-3
-3.51926E-3	-167.276E-12	646.523E-3	36.8212E-3	-163.210E-12	610.380E-3	-47.4629E-3
-3.52426E-3	-165.274E-12	624.494E-3	46.4400E-3	-165.298E-12	593.272E-3	-68.0355E-3
-3.52926E-3	-166.883E-12	597.340E-3	29.9124E-3	-165.051E-12	602.758E-3	-67.0142E-3
-3.53427E-3	-170.072E-12	630.189E-3	16.8336E-3	-163.751E-12	625.803E-3	-62.8341E-3
-3.53927E-3	-171.906E-12	666.920E-3	22.5240E-3	-163.829E-12	636.645E-3	-49.5332E-3
-3.54427E-3	-170.627E-12	651.417E-3	20.0440E-3	-165.636E-12	644.674E-3	-46.8035E-3
-3.54927E-3	-169.922E-12	635.102E-3	10.2271E-3	-169.641E-12	640.653E-3	-57.6084E-3
-3.55428E-3	-172.051E-12	630.119E-3	10.1639E-3	-168.278E-12	624.753E-3	-44.4088E-3
-3.55928E-3	-173.751E-12	630.861E-3	10.1562E-3	-169.617E-12	649.931E-3	-32.1679E-3
-3.56428E-3	-170.660E-12	655.472E-3	4.01957E-3	-169.550E-12	666.157E-3	-25.1107E-3
-3.56928E-3	-169.478E-12	669.616E-3	17.9337E-3	-172.088E-12	652.340E-3	12.0320E-3
-3.57429E-3	-171.260E-12	620.633E-3	41.2944E-3	-172.918E-12	672.048E-3	22.9989E-3
-3.57929E-3	-170.462E-12	573.255E-3	24.8613E-3	-171.969E-12	664.025E-3	-15.8496E-3
-3.58429E-3	-168.490E-12	594.069E-3	-13.1693E-3	-171.312E-12	625.215E-3	-34.1007E-3
-3.58929E-3	-167.713E-12	618.519E-3	-45.1415E-3	-170.341E-12	624.112E-3	-22.7710E-3
-3.59430E-3	-166.514E-12	633.085E-3	-49.5345E-3	-169.741E-12	626.416E-3	-5.50610E-3
-3.59930E-3	-168.219E-12	648.362E-3	-10.7085E-3	-168.684E-12	618.361E-3	4.85907E-3
-3.60430E-3	-166.502E-12	611.612E-3	13.6169E-3	-168.959E-12	629.940E-3	-20.7230E-3
-3.60930E-3	-168.708E-12	595.376E-3	8.41646E-3	-167.816E-12	635.833E-3	-40.8136E-3
-3.61431E-3	-167.683E-12	633.003E-3	383.275E-6	-167.370E-12	612.178E-3	-27.2013E-3
-3.61931E-3	-168.297E-12	630.377E-3	-24.6228E-3	-166.447E-12	603.209E-3	-20.3055E-3
-3.62431E-3	-170.036E-12	591.159E-3	-43.4657E-3	-166.371E-12	626.359E-3	-27.4824E-3
-3.62931E-3	-169.098E-12	567.888E-3	-18.6075E-3	-166.109E-12	611.896E-3	-25.0165E-3
-3.63432E-3	-170.302E-12	587.982E-3	5.39835E-3	-166.603E-12	577.757E-3	-4.38966E-3
-3.63932E-3	-171.227E-12	617.197E-3	-17.8756E-3	-167.441E-12	610.355E-3	10.0330E-3
-3.64432E-3	-176.587E-12	639.244E-3	-39.3531E-3	-168.260E-12	658.246E-3	15.5075E-3
-3.64932E-3	-177.101E-12	652.125E-3	-21.4315E-3	-170.778E-12	651.817E-3	18.2254E-3
-3.65433E-3	-176.079E-12	619.042E-3	-18.8336E-3	-172.487E-12	648.398E-3	-1.16171E-3
-3.65933E-3	-175.444E-12	606.697E-3	-51.5040E-3	-173.151E-12	656.367E-3	-20.9594E-3
-3.66433E-3	-177.072E-12	621.585E-3	-48.4795E-3	-174.091E-12	655.467E-3	-17.1200E-3
-3.66933E-3	-178.229E-12	608.658E-3	-17.1249E-3	-177.048E-12	686.489E-3	-10.9500E-3
-3.67434E-3	-178.301E-12	616.445E-3	7.20582E-3	-178.113E-12	705.253E-3	-2.01672E-3
-3.67934E-3	-177.470E-12	633.085E-3	19.2348E-3	-174.574E-12	657.472E-3	8.59305E-3
-3.68434E-3	-175.179E-12	618.449E-3	5.86827E-3	-175.750E-12	623.624E-3	12.9333E-3
-3.68934E-3	-174.180E-12	617.862E-3	-191.257E-6	-174.962E-12	635.617E-3	15.7788E-3
-3.69435E-3	-172.880E-12	640.397E-3	7.55313E-3	-174.845E-12	635.218E-3	4.76587E-3
-3.69935E-3	-172.184E-12	644.633E-3	-7.54618E-3	-173.451E-12	613.028E-3	5.76703E-3
-3.70435E-3	-170.484E-12	631.358E-3	-16.1760E-3	-171.170E-12	598.503E-3	26.5574E-3
-3.70935E-3	-169.212E-12	616.483E-3	-5.77094E-3	-169.554E-12	605.011E-3	36.5726E-3
-3.71436E-3	-168.267E-12	599.849E-3	-2.69859E-3	-169.341E-12	626.704E-3	17.0579E-3
-3.71936E-3	-169.851E-12	593.879E-3	-22.8062E-3	-169.559E-12	630.336E-3	-8.81948E-3
-3.72436E-3	-169.945E-12	610.631E-3	-48.6523E-3	-168.451E-12	609.664E-3	-12.8871E-3
-3.72936E-3	-171.665E-12	620.080E-3	-28.1893E-3	-167.239E-12	631.590E-3	-22.3450E-3
-3.73437E-3	-171.589E-12	609.158E-3	7.29037E-3	-168.105E-12	674.292E-3	-31.7980E-3
-3.73937E-3	-173.586E-12	605.847E-3	21.7368E-3	-170.617E-12	659.179E-3	-6.65893E-3
-3.74437E-3	-174.836E-12	616.553E-3	25.9584E-3	-169.136E-12	636.655E-3	42.6287E-3
-3.74937E-3	-175.058E-12	631.907E-3	13.4150E-3	-169.533E-12	641.401E-3	60.7404E-3
-3.75438E-3	-174.895E-12	638.832E-3	9.24332E-3	-170.632E-12	629.696E-3	31.5529E-3
-3.75938E-3	-177.053E-12	632.255E-3	11.8076E-3	-172.108E-12	616.976E-3	-21.0215E-3
-3.76438E-3	-180.603E-12	640.483E-3	1.71672E-3	-174.474E-12	623.136E-3	-68.0737E-3
-3.76938E-3	-182.474E-12	656.220E-3	13.1046E-3	-172.715E-12	624.573E-3	-58.4009E-3
-3.77439E-3	-181.765E-12	662.049E-3	27.3076E-3	-174.972E-12	635.836E-3	-13.5519E-3
-3.77939E-3	-179.563E-12	684.741E-3	18.0714E-3	-176.070E-12	632.348E-3	-15.0748E-3
-3.78439E-3	-180.257E-12	694.495E-3	9.44257E-3	-177.564E-12	590.677E-3	-46.7377E-3
-3.78939E-3	-179.059E-12	674.068E-3	5.40856E-3	-176.551E-12	575.569E-3	-52.6882E-3
-3.79440E-3	-178.400E-12	694.940E-3	2.61012E-3	-176.632E-12	591.097E-3	-45.1166E-3
-3.79940E-3	-176.933E-12	722.498E-3	-5.73619E-3	-177.567E-12	595.771E-3	-44.5999E-3
-3.80440E-3	-177.689E-12	684.635E-3	-26.0198E-3	-177.304E-12	587.821E-3	-13.6087E-3
-3.80940E-3	-178.594E-12	641.856E-3	-40.3484E-3	-175.515E-12	596.049E-3	22.5376E-3
-3.81441E-3	-177.505E-12	613.987E-3	-49.4355E-3	-174.354E-12	599.122E-3	-8.39173E-3
-3.81941E-3	-177.562E-12	586.862E-3	-56.1695E-3	-174.382E-12	588.090E-3	-38.6444E-3
-3.82441E-3	-175.696E-12	574.262E-3	-47.0805E-3	-172.530E-12	600.825E-3	-36.5306E-3
-3.82941E-3	-174.793E-12	570.624E-3	-32.0389E-3	-173.115E-12	618.265E-3	-47.6999E-3
-3.83442E-3	-175.030E-12	590.975E-3	-23.8875E-3	-172.063E-12	613.932E-3	-41.3844E-3
-3.83942E-3	-177.725E-12	629.841E-3	-22.3030E-3	-172.395E-12	593.750E-3	-36.4328E-3
-3.84442E-3	-179.360E-12	665.492E-3	-23.5388E-3	-173.256E-12	556.505E-3	-38.8927E-3
-3.84942E-3	-178.411E-12	666.134E-3	-9.40538E-3	-172.624E-12	539.873E-3	-11.2827E-3
-3.85443E-3	-179.260E-12	629.942E-3	-6.63393E-3	-174.014E-12	584.833E-3	9.99228E-3
-3.85943E-3	-181.775E-12	611.507E-3	-18.0241E-3	-173.777E-12	630.980E-3	-9.75177E-3
-3.86443E-3	-184.719E-12	615.088E-3	515.198E-6	-175.609E-12	650.773E-3	-41.9952E-3
-3.86943E-3	-182.883E-12	630.212E-3	12.5662E-3	-176.465E-12	677.292E-3	-37.1431E-3
-3.87444E-3	-182.600E-12	642.560E-3	-952.978E-6	-180.265E-12	693.684E-3	-41.4022E-3
-3.87944E-3	-184.715E-12	625.988E-3	-9.93529E-3	-179.966E-12	667.751E-3	-61.5166E-3
-3.88444E-3	-187.816E-12	624.329E-3	-17.5190E-3	-180.593E-12	622.078E-3	-44.3821E-3
-3.88944E-3	-183.176E-12	651.306E-3	-21.8831E-3	-181.322E-12	605.969E-3	-35.9940E-3
-3.89445E-3	-180.084E-12	658.446E-3	-30.8549E-3	-184.564E-12	607.842E-3	-43.1616E-3
-3.89945E-3	-180.259E-12	638.886E-3	-18.8381E-3	-184.774E-12	622.934E-3	-15.1698E-3
-3.90445E-3	-181.430E-12	602.049E-3	20.8315E-3	-184.663E-12	650.447E-3	6.53952E-3
-3.90945E-3	-180.214E-12	595.277E-3	15.2820E-3	-183.686E-12	639.568E-3	-31.7562E-3
-3.91446E-3	-177.200E-12	624.111E-3	-1.66049E-3	-185.708E-12	612.286E-3	-55.2960E-3
-3.91946E-3	-178.319E-12	641.280E-3	5.07070E-3	-183.384E-12	611.687E-3	-25.2077E-3
-3.92446E-3	-177.303E-12	685.409E-3	11.0599E-3	-181.374E-12	613.263E-3	-3.34531E-3
-3.92946E-3	-179.339E-12	712.057E-3	24.7397E-3	-181.030E-12	605.578E-3	-15.0282E-3
-3.93447E-3	-179.574E-12	652.259E-3	26.2996E-3	-180.970E-12	600.149E-3	-25.6972E-3
-3.93947E-3	-177.780E-12	619.240E-3	19.2633E-3	-179.299E-12	618.522E-3	-8.87997E-3
-3.94447E-3	-179.807E-12	637.000E-3	15.6406E-3	-177.406E-12	640.576E-3	2.79756E-3
-3.94947E-3	-183.608E-12	617.469E-3	-8.59887E-3	-179.501E-12	640.827E-3	-2.84881E-3
-3.95448E-3	-187.789E-12	594.480E-3	-38.8707E-3	-183.550E-12	638.127E-3	-22.1644E-3
-3.95948E-3	-184.055E-12	605.941E-3	-34.0601E-3	-181.859E-12	636.877E-3	-43.3022E-3
-3.96448E-3	-186.108E-12	629.425E-3	-10.1872E-3	-180.758E-12	653.352E-3	-23.3637E-3
-3.96948E-3	-187.087E-12	644.767E-3	-8.69814E-3	-181.943E-12	665.088E-3	23.7245E-3
-3.97449E-3	-193.020E-12	652.085E-3	-19.7644E-3	-185.424E-12	621.945E-3	19.5341E-3
-3.97949E-3	-193.702E-12	656.006E-3	-25.2981E-3	-187.937E-12	555.420E-3	-18.0664E-3
-3.98449E-3	-189.321E-12	666.366E-3	-25.2388E-3	-188.828E-12	560.910E-3	-13.3846E-3
-3.98949E-3	-189.743E-12	691.075E-3	-13.7883E-3	-190.956E-12	635.578E-3	10.5626E-3
-3.99450E-3	-187.432E-12	694.402E-3	-530.978E-6	-193.007E-12	675.079E-3	-5.98989E-3
-3.99950E-3	-188.672E-12	659.204E-3	4.53989E-3	-194.574E-12	666.449E-3	-36.0716E-3
-4.00450E-3	-186.104E-12	618.380E-3	-971.296E-6	-196.398E-12	661.999E-3	-34.4874E-3
-4.00950E-3	-183.963E-12	613.942E-3	-21.5395E-3	-196.167E-12	656.466E-3	-5.16501E-3
-4.01451E-3	-183.924E-12	638.851E-3	-40.6848E-3	-196.859E-12	636.060E-3	34.1472E-3
-4.01951E-3	-181.607E-12	653.899E-3	-29.8771E-3	-193.343E-12	627.740E-3	54.7152E-3
-4.02451E-3	-181.772E-12	653.969E-3	-18.8499E-3	-190.196E-12	629.726E-3	36.3631E-3
-4.02951E-3	-181.884E-12	643.064E-3	-28.0472E-3	-188.545E-12	628.779E-3	7.79057E-3
-4.03452E-3	-183.800E-12	618.339E-3	-1.83012E-3	-187.969E-12	634.613E-3	13.5449E-3
-4.03952E-3	-181.539E-12	573.422E-3	40.4458E-3	-186.886E-12	637.081E-3	26.2371E-3
-4.04452E-3	-181.729E-12	538.779E-3	23.4452E-3	-185.310E-12	622.967E-3	5.79226E-3
-4.04952E-3	-184.718E-12	562.775E-3	-27.0256E-3	-183.471E-12	619.255E-3	-3.68126E-3
-4.05453E-3	-187.909E-12	597.039E-3	-60.8856E-3	-183.710E-12	651.230E-3	20.7963E-3
-4.05953E-3	-187.929E-12	609.429E-3	-67.7766E-3	-183.341E-12	677.131E-3	22.0381E-3
-4.06453E-3	-190.016E-12	616.296E-3	-29.2925E-3	-184.336E-12	647.304E-3	-8.55818E-3
-4.06953E-3	-193.818E-12	611.598E-3	-206.822E-6	-185.854E-12	608.419E-3	-32.8494E-3
-4.07454E-3	-194.564E-12	618.636E-3	-21.3079E-3	-186.664E-12	618.569E-3	-60.5619E-3
-4.07954E-3	-194.807E-12	638.431E-3	-45.3063E-3	-186.126E-12	639.761E-3	-82.0507E-3
-4.08454E-3	-192.813E-12	670.455E-3	-52.4785E-3	-187.848E-12	642.757E-3	-47.3836E-3
-4.08954E-3	-195.172E-12	698.541E-3	-52.3605E-3	-192.473E-12	634.520E-3	-4.97587E-3
-4.09455E-3	-196.383E-12	692.459E-3	-56.2338E-3	-192.907E-12	625.960E-3	-6.20036E-3
-4.09955E-3	-193.598E-12	658.869E-3	-39.6301E-3	-191.501E-12	649.487E-3	-17.2265E-3
-4.10455E-3	-189.005E-12	635.728E-3	-15.8157E-3	-192.628E-12	686.918E-3	-24.0874E-3
-4.10955E-3	-189.215E-12	640.356E-3	-17.2299E-3	-193.954E-12	663.543E-3	-21.4105E-3
-4.11456E-3	-192.136E-12	650.331E-3	-11.1410E-3	-195.652E-12	612.653E-3	-26.5524E-3
-4.11956E-3	-190.036E-12	663.962E-3	3.39859E-3	-191.620E-12	615.535E-3	-45.7265E-3
-4.12456E-3	-185.506E-12	664.979E-3	16.4964E-3	-189.516E-12	629.216E-3	-40.3561E-3
-4.12956E-3	-184.408E-12	630.736E-3	31.5242E-3	-188.023E-12	623.124E-3	-24.2710E-3
-4.13457E-3	-189.089E-12	616.514E-3	4.13916E-3	-188.246E-12	626.437E-3	-7.73132E-3
-4.13957E-3	-188.601E-12	645.816E-3	-53.9557E-3	-184.721E-12	608.036E-3	-27.4877E-3
-4.14457E-3	-186.809E-12	657.126E-3	-73.1875E-3	-183.882E-12	571.342E-3	-74.2239E-3
-4.14957E-3	-184.523E-12	633.901E-3	-61.0032E-3	-184.919E-12	576.300E-3	-65.6191E-3
-4.15458E-3	-187.138E-12	617.535E-3	-42.4307E-3	-184.885E-12	598.455E-3	-26.3638E-3
-4.15958E-3	-191.764E-12	612.553E-3	-23.3981E-3	-183.552E-12	599.213E-3	-3.15521E-3
-4.16458E-3	-192.024E-12	608.157E-3	-20.2502E-3	-183.499E-12	604.284E-3	-33.8415E-3
-4.16958E-3	-191.367E-12	615.972E-3	-6.35751E-3	-186.295E-12	604.059E-3	-83.4416E-3
-4.17459E-3	-190.308E-12	629.426E-3	20.0222E-3	-188.141E-12	604.656E-3	-66.8355E-3
-4.17959E-3	-196.228E-12	616.934E-3	44.6886E-3	-188.112E-12	642.171E-3	-14.9015E-3
-4.18459E-3	-199.869E-12	595.922E-3	50.2963E-3	-189.176E-12	669.077E-3	-702.890E-6
-4.18959E-3	-197.310E-12	596.523E-3	31.3729E-3	-191.988E-12	652.387E-3	-22.1753E-3
-4.19460E-3	-195.385E-12	599.599E-3	14.7287E-3	-194.977E-12	647.946E-3	-24.1223E-3
-4.19960E-3	-195.196E-12	608.388E-3	-5.65041E-3	-194.855E-12	662.629E-3	-4.57506E-3
-4.20460E-3	-199.615E-12	626.020E-3	-4.94171E-3	-195.513E-12	646.653E-3	-6.76768E-3
-4.20960E-3	-197.141E-12	639.994E-3	27.6062E-3	-197.641E-12	619.055E-3	-15.5898E-3
-4.21461E-3	-196.489E-12	645.673E-3	29.8596E-3	-201.270E-12	639.255E-3	-30.7562E-3
-4.21961E-3	-194.272E-12	632.808E-3	-871.757E-6	-199.521E-12	664.272E-3	-40.2865E-3
-4.22461E-3	-194.231E-12	613.447E-3	-41.4583E-3	-198.669E-12	627.479E-3	-25.0936E-3
-4.22961E-3	-195.062E-12	608.511E-3	-81.9416E-3	-198.773E-12	591.048E-3	-25.9455E-3
-4.23462E-3	-194.414E-12	608.601E-3	-81.2027E-3	-200.332E-12	568.483E-3	-27.9698E-3
-4.23962E-3	-191.948E-12	608.474E-3	-46.0191E-3	-199.281E-12	572.378E-3	722.656E-6
-4.24462E-3	-192.160E-12	633.202E-3	7.08292E-3	-197.290E-12	625.208E-3	21.6443E-3
-4.24962E-3	-194.849E-12	664.426E-3	38.7871E-3	-197.756E-12	658.090E-3	7.02068E-3
-4.25463E-3	-195.607E-12	654.360E-3	24.0434E-3	-196.829E-12	667.866E-3	6.41278E-3
-4.25963E-3	-195.597E-12	622.345E-3	-6.99028E-3	-198.853E-12	661.774E-3	22.1632E-3
-4.26463E-3	-194.850E-12	606.246E-3	-20.0869E-3	-197.714E-12	649.596E-3	9.69397E-3
-4.26963E-3	-199.506E-12	599.800E-3	11.2850E-3	-197.188E-12	625.531E-3	7.75048E-3
-4.27464E-3	-203.489E-12	605.238E-3	18.6061E-3	-196.694E-12	602.217E-3	27.6405E-3
-4.27964E-3	-202.707E-12	623.782E-3	-10.6365E-3	-196.154E-12	608.256E-3	45.1276E-3
-4.28464E-3	-202.051E-12	627.547E-3	-6.78456E-3	-200.085E-12	619.104E-3	61.4009E-3
-4.28964E-3	-204.361E-12	609.043E-3	-5.41199E-3	-200.762E-12	636.871E-3	37.8744E-3
-4.29465E-3	-208.841E-12	601.235E-3	-26.2808E-3	-198.665E-12	661.358E-3	-53.4055E-6
-4.29965E-3	-206.164E-12	611.512E-3	-10.2227E-3	-199.067E-12	680.422E-3	3.81295E-3
-4.30465E-3	-205.707E-12	626.569E-3	-15.8737E-3	-205.012E-12	666.552E-3	-4.11060E-3
-4.30965E-3	-203.171E-12	639.300E-3	-50.6350E-3	-206.764E-12	632.075E-3	-30.3153E-3
-4.31466E-3	-206.838E-12	633.926E-3	-31.7264E-3	-204.929E-12	629.034E-3	-34.4875E-3
-4.31966E-3	-205.529E-12	636.182E-3	-12.9056E-3	-205.154E-12	627.030E-3	-44.4975E-3
-4.32466E-3	-202.516E-12	665.458E-3	-30.3158E-3	-207.294E-12	637.805E-3	-79.2479E-3
-4.32966E-3	-198.708E-12	685.040E-3	-7.24496E-3	-208.598E-12	667.902E-3	-88.7938E-3
-4.33467E-3	-197.345E-12	663.856E-3	24.5727E-3	-206.713E-12	658.344E-3	-47.5799E-3
-4.33967E-3	-198.617E-12	638.468E-3	9.79076E-3	-204.925E-12	631.606E-3	-27.6933E-3
-4.34467E-3	-195.789E-12	649.263E-3	979.834E-6	-203.289E-12	588.494E-3	-32.7693E-3
-4.34967E-3	-195.031E-12	642.731E-3	4.22724E-3	-203.801E-12	564.049E-3	-28.4980E-3
-4.35468E-3	-195.397E-12	622.922E-3	-25.0119E-3	-202.372E-12	593.012E-3	-30.7618E-3
-4.35968E-3	-195.759E-12	632.574E-3	-29.4753E-3	-201.194E-12	590.050E-3	-29.9131E-3
-4.36468E-3	-196.825E-12	616.409E-3	18.4011E-3	-198.911E-12	585.749E-3	-19.5968E-3
-4.36968E-3	-199.997E-12	592.391E-3	17.8780E-3	-199.352E-12	603.784E-3	-10.9183E-3
-4.37469E-3	-200.171E-12	610.716E-3	-34.7240E-3	-197.393E-12	609.484E-3	-12.4536E-3
-4.37969E-3	-201.999E-12	619.085E-3	-51.7237E-3	-196.948E-12	642.469E-3	-13.9076E-3
-4.38469E-3	-203.811E-12	611.037E-3	-39.0856E-3	-195.311E-12	650.279E-3	-33.4644E-3
-4.38969E-3	-206.994E-12	624.384E-3	-53.4476E-3	-197.452E-12	607.644E-3	-51.9875E-3
-4.39470E-3	-208.023E-12	636.715E-3	-58.4842E-3	-199.418E-12	599.209E-3	-26.0632E-3
-4.39970E-3	-208.406E-12	650.028E-3	-26.2204E-3	-201.451E-12	634.742E-3	5.53160E-3
-4.40470E-3	-208.192E-12	651.460E-3	-13.0056E-3	-201.578E-12	647.377E-3	14.4475E-3
-4.40970E-3	-209.485E-12	643.292E-3	-25.9301E-3	-204.070E-12	615.095E-3	22.9938E-3
-4.41471E-3	-209.500E-12	655.651E-3	-49.9225E-3	-209.268E-12	612.851E-3	33.1490E-3
-4.41971E-3	-208.550E-12	665.963E-3	-97.8076E-3	-211.684E-12	635.531E-3	-5.24806E-3
-4.42471E-3	-205.844E-12	652.472E-3	-122.161E-3	-209.598E-12	619.380E-3	-49.3893E-3
-4.42971E-3	-204.489E-12	619.414E-3	-100.424E-3	-206.170E-12	620.000E-3	-28.5133E-3
-4.43472E-3	-203.786E-12	582.086E-3	-52.1121E-3	-208.146E-12	624.965E-3	-5.15070E-3
-4.43972E-3	-203.150E-12	585.649E-3	157.540E-6	-209.139E-12	591.087E-3	-5.41714E-3
-4.44472E-3	-200.893E-12	608.699E-3	-11.1872E-3	-205.594E-12	585.218E-3	-12.4276E-3
-4.44972E-3	-200.224E-12	595.853E-3	-51.3107E-3	-202.008E-12	628.505E-3	-47.1502E-3
-4.45473E-3	-198.289E-12	564.300E-3	-38.6842E-3	-201.951E-12	671.838E-3	-61.8101E-3
-4.45973E-3	-200.720E-12	556.215E-3	12.2995E-3	-202.918E-12	678.874E-3	-43.4129E-3
-4.46473E-3	-198.241E-12	566.477E-3	29.3636E-3	-202.222E-12	627.997E-3	-48.0966E-3
-4.46973E-3	-198.975E-12	579.400E-3	-9.16087E-3	-201.012E-12	581.381E-3	-69.5496E-3
-4.47474E-3	-200.454E-12	577.137E-3	-46.7096E-3	-199.002E-12	597.582E-3	-68.5700E-3
-4.47974E-3	-204.391E-12	582.288E-3	-53.9178E-3	-200.386E-12	601.928E-3	-35.1049E-3
-4.48474E-3	-205.397E-12	615.065E-3	-29.0500E-3	-201.201E-12	571.753E-3	-9.43422E-3
-4.48974E-3	-203.903E-12	612.288E-3	-5.20244E-3	-199.943E-12	553.061E-3	-34.2669E-3
-4.49475E-3	-206.253E-12	590.905E-3	6.18855E-3	-200.078E-12	571.912E-3	-70.5061E-3
-4.49975E-3	-209.479E-12	604.047E-3	19.1097E-3	-203.681E-12	626.328E-3	-75.9607E-3
-4.50475E-3	-212.948E-12	627.254E-3	1.54647E-3	-209.672E-12	656.081E-3	-49.6905E-3
-4.50975E-3	-212.809E-12	636.277E-3	-23.3521E-3	-208.297E-12	662.001E-3	-13.9921E-3
-4.51476E-3	-211.596E-12	634.599E-3	-16.4757E-3	-207.786E-12	665.433E-3	-9.93393E-3
-4.51976E-3	-208.595E-12	633.636E-3	-25.9249E-3	-210.398E-12	657.500E-3	-1.63912E-3
-4.52476E-3	-210.939E-12	643.205E-3	-37.9233E-3	-218.349E-12	661.973E-3	11.0538E-3
-4.52976E-3	-210.575E-12	656.978E-3	-33.2237E-3	-215.952E-12	670.070E-3	-20.2845E-3
-4.53477E-3	-209.020E-12	658.314E-3	-35.9292E-3	-212.083E-12	668.012E-3	-28.4614E-3
-4.53977E-3	-205.601E-12	642.535E-3	-8.05713E-3	-213.568E-12	652.095E-3	-950.596E-6
-4.54477E-3	-204.399E-12	639.460E-3	34.0619E-3	-217.058E-12	632.652E-3	-21.1319E-3
-4.54977E-3	-207.771E-12	638.821E-3	35.6389E-3	-219.862E-12	645.509E-3	-39.7085E-3
-4.55478E-3	-204.954E-12	626.193E-3	-156.058E-6	-211.077E-12	662.781E-3	-35.3955E-3
-4.55978E-3	-202.311E-12	615.072E-3	-39.2077E-3	-209.936E-12	645.050E-3	-33.0525E-3
-4.56478E-3	-202.739E-12	584.102E-3	-45.6687E-3	-208.683E-12	610.476E-3	4.36982E-3
-4.56978E-3	-209.672E-12	566.782E-3	-34.1519E-3	-210.656E-12	597.376E-3	13.5071E-3
-4.57479E-3	-209.631E-12	608.900E-3	-27.1751E-3	-206.921E-12	595.403E-3	-18.2250E-3
-4.57979E-3	-204.969E-12	635.864E-3	-9.68957E-3	-203.328E-12	579.845E-3	-34.1944E-3
-4.58479E-3	-207.995E-12	596.734E-3	9.12728E-3	-202.823E-12	584.569E-3	-28.9972E-3
-4.58979E-3	-214.493E-12	583.639E-3	-2.03351E-3	-206.573E-12	601.368E-3	-17.6871E-3
-4.59480E-3	-219.776E-12	627.601E-3	-3.96517E-3	-212.027E-12	616.587E-3	-8.23833E-3
-4.59980E-3	-212.424E-12	647.721E-3	9.49312E-3	-209.100E-12	654.366E-3	-4.79554E-3
-4.60480E-3	-213.425E-12	645.701E-3	-22.5033E-3	-207.915E-12	671.454E-3	-32.5557E-3
-4.60980E-3	-215.919E-12	638.632E-3	-62.8249E-3	-209.045E-12	645.019E-3	-38.9211E-3
-4.61481E-3	-221.868E-12	582.134E-3	-56.9476E-3	-218.012E-12	623.586E-3	-6.23335E-3
-4.61981E-3	-218.946E-12	564.469E-3	-34.3636E-3	-219.801E-12	646.049E-3	-17.0023E-3
-4.62481E-3	-214.677E-12	608.701E-3	-17.0070E-3	-215.546E-12	669.139E-3	-57.8807E-3
-4.62981E-3	-212.299E-12	617.508E-3	-21.5763E-3	-216.342E-12	665.954E-3	-44.0769E-3
-4.63482E-3	-214.933E-12	628.588E-3	-35.8339E-3	-222.530E-12	671.823E-3	-24.1212E-3
-4.63982E-3	-216.618E-12	640.821E-3	-15.5531E-3	-222.942E-12	671.557E-3	-37.6514E-3
-4.64482E-3	-211.159E-12	627.462E-3	-3.30541E-3	-217.946E-12	650.449E-3	-14.4013E-3
-4.64982E-3	-207.455E-12	640.557E-3	-25.4232E-3	-218.403E-12	630.759E-3	6.96112E-3
-4.65483E-3	-209.222E-12	660.101E-3	-37.4942E-3	-219.317E-12	617.744E-3	-12.7233E-3
-4.65983E-3	-212.257E-12	637.219E-3	-56.0040E-3	-219.055E-12	603.168E-3	-22.2419E-3
-4.66483E-3	-212.546E-12	584.318E-3	-81.7074E-3	-214.531E-12	606.976E-3	-26.6265E-3
-4.66983E-3	-209.029E-12	552.047E-3	-54.2644E-3	-211.812E-12	616.062E-3	-16.9419E-3
-4.67484E-3	-209.369E-12	568.634E-3	-17.0573E-3	-213.431E-12	619.113E-3	3.27761E-3
-4.67984E-3	-213.984E-12	612.114E-3	1.38445E-3	-211.271E-12	605.490E-3	-15.2280E-3
-4.68484E-3	-219.443E-12	611.618E-3	-3.28085E-3	-211.500E-12	604.462E-3	-15.3250E-3
-4.68984E-3	-217.813E-12	589.822E-3	-36.0472E-3	-208.015E-12	624.898E-3	-13.7141E-3
-4.69485E-3	-218.279E-12	630.590E-3	-42.9768E-3	-208.800E-12	620.722E-3	-31.0749E-3
-4.69985E-3	-220.422E-12	664.593E-3	-25.9702E-3	-208.564E-12	630.742E-3	-34.1575E-3
-4.70485E-3	-224.175E-12	633.958E-3	-21.8636E-3	-209.660E-12	643.109E-3	-18.1382E-3
-4.70985E-3	-225.648E-12	602.544E-3	-48.2999E-3	-210.227E-12	636.129E-3	17.3644E-3
-4.71486E-3	-224.577E-12	610.549E-3	-72.5069E-3	-211.662E-12	654.252E-3	-6.86368E-3
-4.71986E-3	-222.509E-12	645.861E-3	-68.3616E-3	-213.314E-12	655.023E-3	-45.0537E-3
-4.72486E-3	-223.250E-12	636.524E-3	-39.9421E-3	-215.784E-12	645.438E-3	7.82707E-3
-4.72986E-3	-225.299E-12	603.819E-3	21.1762E-3	-218.923E-12	680.710E-3	68.3624E-3
-4.73487E-3	-222.092E-12	602.566E-3	80.2530E-3	-218.349E-12	671.781E-3	70.9989E-3
-4.73987E-3	-219.139E-12	580.436E-3	49.7989E-3	-219.245E-12	615.926E-3	40.4404E-3
-4.74487E-3	-217.464E-12	581.283E-3	-19.8874E-3	-220.007E-12	581.410E-3	-16.6068E-3
-4.74988E-3	-219.584E-12	579.735E-3	-27.1948E-3	-219.467E-12	576.106E-3	-15.4868E-3
-4.75488E-3	-217.688E-12	551.770E-3	-45.8259E-3	-219.354E-12	606.400E-3	28.6513E-3
-4.75988E-3	-213.258E-12	602.818E-3	-87.4292E-3	-217.650E-12	602.361E-3	22.3643E-3
-4.76488E-3	-213.507E-12	645.060E-3	-54.5831E-3	-215.911E-12	582.499E-3	8.40257E-3
-4.76988E-3	-212.958E-12	603.233E-3	3.80873E-3	-215.257E-12	607.838E-3	-18.6938E-3
-4.77489E-3	-212.046E-12	585.732E-3	27.7612E-3	-213.450E-12	612.076E-3	-71.5565E-3
-4.77989E-3	-210.437E-12	596.651E-3	27.0540E-3	-213.389E-12	597.828E-3	-67.8683E-3
-4.78489E-3	-210.327E-12	575.284E-3	5.79013E-3	-212.623E-12	596.212E-3	-34.5806E-3
-4.78989E-3	-209.921E-12	565.544E-3	-15.0499E-3	-211.753E-12	611.889E-3	-24.3786E-3
-4.79490E-3	-213.317E-12	623.825E-3	-16.5188E-3	-210.770E-12	634.886E-3	20.7764E-3
-4.79990E-3	-215.299E-12	655.535E-3	2.72423E-3	-210.448E-12	592.984E-3	67.9936E-3
-4.80490E-3	-218.548E-12	632.242E-3	15.0901E-3	-210.619E-12	550.937E-3	75.5932E-3
-4.80990E-3	-217.271E-12	637.745E-3	2.88168E-3	-210.689E-12	608.511E-3	62.5629E-3
-4.81491E-3	-220.274E-12	631.160E-3	-22.7468E-3	-211.318E-12	695.188E-3	44.7498E-3
-4.81991E-3	-224.127E-12	600.520E-3	-28.3166E-3	-212.345E-12	699.659E-3	-4.15716E-3
-4.82491E-3	-226.028E-12	581.603E-3	-29.7968E-3	-216.701E-12	661.268E-3	-78.2592E-3
-4.82991E-3	-224.240E-12	588.388E-3	-57.9568E-3	-220.442E-12	682.276E-3	-74.6487E-3
-4.83492E-3	-223.534E-12	617.279E-3	-53.5109E-3	-220.697E-12	690.861E-3	-27.0141E-3
-4.83992E-3	-225.234E-12	641.900E-3	-15.7312E-3	-221.221E-12	654.662E-3	8.23617E-3
-4.84492E-3	-226.048E-12	651.539E-3	-1.78205E-3	-221.233E-12	667.943E-3	38.8414E-3
-4.84992E-3	-222.329E-12	669.428E-3	-9.51461E-3	-224.518E-12	688.721E-3	27.2407E-3
-4.85493E-3	-218.208E-12	685.565E-3	-22.6823E-3	-226.591E-12	675.109E-3	13.7974E-3
-4.85993E-3	-217.329E-12	661.732E-3	-36.1747E-3	-225.389E-12	659.179E-3	24.8482E-3
-4.86493E-3	-217.858E-12	623.385E-3	-19.9975E-3	-226.195E-12	635.688E-3	9.94982E-3
-4.86993E-3	-215.142E-12	589.818E-3	5.94077E-3	-224.481E-12	601.733E-3	-28.5652E-3
-4.87494E-3	-213.921E-12	576.529E-3	7.23211E-3	-223.039E-12	571.281E-3	-58.1057E-3
-4.87994E-3	-212.065E-12	606.927E-3	8.78572E-3	-222.264E-12	561.329E-3	-44.5283E-3
-4.88494E-3	-213.489E-12	621.106E-3	3.76210E-3	-218.997E-12	572.219E-3	-25.5177E-3
-4.88995E-3	-214.502E-12	595.478E-3	-42.3780E-3	-218.625E-12	597.089E-3	-43.3294E-3
-4.89495E-3	-215.732E-12	589.602E-3	-68.1638E-3	-218.022E-12	602.596E-3	-56.0060E-3
-4.89995E-3	-216.148E-12	596.598E-3	-44.4219E-3	-217.378E-12	557.763E-3	-52.0102E-3
-4.90495E-3	-219.122E-12	590.154E-3	-42.0174E-3	-217.070E-12	516.709E-3	-31.7401E-3
-4.90995E-3	-222.261E-12	579.018E-3	-45.2154E-3	-214.489E-12	545.623E-3	7.87911E-3
-4.91496E-3	-221.666E-12	605.015E-3	-27.0503E-3	-215.371E-12	599.587E-3	5.10915E-3
-4.91996E-3	-225.425E-12	636.497E-3	-6.67624E-3	-216.953E-12	596.109E-3	-39.2997E-3
-4.92496E-3	-228.568E-12	619.120E-3	15.3464E-3	-220.398E-12	568.817E-3	-42.1529E-3
-4.92996E-3	-229.894E-12	621.861E-3	39.1208E-3	-219.930E-12	597.178E-3	-39.4651E-3
-4.93497E-3	-230.390E-12	647.417E-3	59.2184E-3	-220.833E-12	640.357E-3	-74.2425E-3
-4.93997E-3	-229.439E-12	649.822E-3	23.3094E-3	-224.746E-12	641.125E-3	-76.7395E-3
-4.94497E-3	-229.587E-12	649.926E-3	-29.1429E-3	-228.637E-12	613.599E-3	-51.4471E-3
-4.94997E-3	-229.193E-12	645.767E-3	12.4745E-3	-230.304E-12	599.583E-3	-54.4013E-3
-4.95498E-3	-229.427E-12	638.038E-3	34.6109E-3	-229.890E-12	624.316E-3	-55.4848E-3
-4.95998E-3	-227.080E-12	648.262E-3	-16.0617E-3	-232.607E-12	660.630E-3	-40.6539E-3
-4.96498E-3	-224.304E-12	659.978E-3	-30.3012E-3	-232.873E-12	651.671E-3	-15.3642E-3
-4.96998E-3	-221.073E-12	631.254E-3	-32.4133E-3	-232.256E-12	623.718E-3	33.1812E-3
-4.97499E-3	-221.238E-12	608.875E-3	-42.2401E-3	-230.501E-12	637.472E-3	38.8561E-3
-4.97999E-3	-222.249E-12	607.038E-3	-37.8984E-3	-229.310E-12	626.414E-3	-11.1895E-3
-4.98499E-3	-221.644E-12	580.441E-3	-18.8111E-3	-228.677E-12	595.098E-3	-40.3523E-3
-4.98999E-3	-219.808E-12	545.548E-3	22.8456E-3	-224.246E-12	604.915E-3	-36.1816E-3
-4.99500E-3	-217.937E-12	530.848E-3	32.7284E-3	-223.519E-12	593.640E-3	-9.95247E-3
-5.00000E-3	-222.436E-12	545.341E-3	4.09447E-3	-224.276E-12	565.285E-3	897.592E-6
