Experiment	bias spectroscopy	
Date	19.01.2016 20:43:13	
User		
X (m)	50.5943E-9	
Y (m)	257.378E-9	
Z (m)	-132.606E-9	
Z offset (m)	0E+0	
Settling time (s)	200E-6	
Integration time (s)	5E-3	
Z-Ctrl hold	TRUE	
Final Z (m)	N/A	
Filter type	None	
Order		
Cutoff frq		
Comment01	MnPc/Pb(111)	
Comment02	dz =00pm	
Comment03	7 Sweeps	
Comment04	MagField =0.T	
Comment05	Divider 1:10	
Comment06	Setpoint:5mV,200 pA	
Comment07	Lockin: 50uVrms,5ms,5mV	
Comment08	Gain:9; 912Hz modulation	
Comment09	T=1.06K	
Bias>Bias (V)	5E-3	
Bias>Calibration (V/V)	81.475E-3	
Bias>Offset (V)	1.046E-3	
Bias Spectroscopy>Sweep Start (V)	5E-3	
Bias Spectroscopy>Sweep End (V)	-5E-3	
Bias Spectroscopy>Num Pixel	2000	
Bias Spectroscopy>Z Avg time (s)	500E-3	
Bias Spectroscopy>Z offset (m)	0E+0	
Bias Spectroscopy>1st Settling time (s)	500E-3	
Bias Spectroscopy>Settling time (s)	200E-6	
Bias Spectroscopy>Integration time (s)	5E-3	
Bias Spectroscopy>End Settling time (s)	500E-3	
Bias Spectroscopy>Z control time (s)	500E-3	
Bias Spectroscopy>Max Slew rate (V/s)	Inf	
Bias Spectroscopy>backward sweep	TRUE	
Bias Spectroscopy>Z-controller hold	TRUE	
Bias Spectroscopy>Number of sweeps	7	
Bias Spectroscopy>Channels	Current (A);X% LockIn (V);Y% LockIn (V)	
Bias Spectroscopy>Reset Bias	TRUE	
Bias Spectroscopy>Record final Z	FALSE	
Bias Spectroscopy>Lock-In run	FALSE	
Bias Spectroscopy>Sweep mode	Linear	
Bias Spectroscopy>MultiLine Settings : Segment Start (V), Segment End (V), Settling (s), Integration (s), Steps (xn)	100E-3,3.3E-3,100E-6,10E-3,2500;3.3E-3,-3.3E-3,100E-6,10E-3,10;-3.3E-3,-100E-3,100E-6,10E-3,2500	
Current>Current (A)	200.202E-12	
Current>Calibration (A/V)	999.99900E-12	
Current>Offset (A)	-455.429E-15	
Current>Gain	LN 10^9	
Z-Controller>Z (m)	-132.608E-9	
Z-Controller>Controller name	log Current	
Z-Controller>Controller status	ON	
Z-Controller>Setpoint	200E-12	
Z-Controller>Setpoint unit	A	
Z-Controller>P gain	2.96994E-12	
Z-Controller>I gain	67.0321E-9	
Z-Controller>Time const (s)	44.3062E-6	
Z-Controller>TipLift (m)	0E+0	
Z-Controller>Switch off delay (s)	50E-3	
Current (A)	199.611E-12	
Z (m)	-132.608E-9	

[DATA]
Bias calc (V)	Current (A)	X% LockIn (V)	Y% LockIn (V)	Current [bwd] (A)	X% LockIn [bwd] (V)	Y% LockIn [bwd] (V)
5.00000E-3	200.302E-12	658.783E-3	-17.2949E-3	200.758E-12	671.276E-3	6.45059E-3
4.99500E-3	200.792E-12	640.206E-3	-12.2728E-3	199.643E-12	648.786E-3	10.4315E-3
4.98999E-3	201.205E-12	639.819E-3	-17.8263E-3	199.141E-12	589.811E-3	22.4000E-3
4.98499E-3	199.956E-12	641.748E-3	-18.5767E-3	198.543E-12	570.490E-3	33.3633E-3
4.97999E-3	199.988E-12	642.482E-3	-18.2854E-3	197.956E-12	614.482E-3	17.5112E-3
4.97499E-3	199.148E-12	658.525E-3	-9.36190E-3	197.356E-12	666.334E-3	7.50240E-3
4.96998E-3	199.414E-12	667.648E-3	-16.3509E-3	197.144E-12	673.120E-3	7.42599E-3
4.96498E-3	198.700E-12	671.023E-3	-32.1919E-3	197.122E-12	667.534E-3	-15.4341E-3
4.95998E-3	197.509E-12	679.724E-3	-23.6097E-3	196.597E-12	669.962E-3	-45.7907E-3
4.95498E-3	196.975E-12	673.216E-3	-15.9094E-3	195.954E-12	662.113E-3	-47.2200E-3
4.94997E-3	196.778E-12	681.207E-3	-28.1406E-3	196.946E-12	660.327E-3	-20.9230E-3
4.94497E-3	196.490E-12	704.062E-3	-12.2336E-3	197.882E-12	672.072E-3	-7.38335E-3
4.93997E-3	197.066E-12	701.798E-3	7.93827E-3	197.382E-12	663.695E-3	3.06493E-3
4.93497E-3	196.093E-12	669.527E-3	-20.4260E-3	198.206E-12	641.133E-3	15.1047E-3
4.92996E-3	195.854E-12	627.903E-3	-46.7837E-3	198.921E-12	649.462E-3	7.78884E-3
4.92496E-3	196.445E-12	624.484E-3	-29.8408E-3	198.939E-12	666.918E-3	4.93669E-3
4.91996E-3	197.298E-12	654.261E-3	3.43748E-3	199.105E-12	662.723E-3	-1.93284E-3
4.91496E-3	197.035E-12	642.332E-3	1.88511E-3	198.480E-12	654.153E-3	-10.9590E-3
4.90995E-3	197.224E-12	632.993E-3	-15.7588E-3	198.380E-12	666.645E-3	-9.32001E-3
4.90495E-3	197.510E-12	669.908E-3	-31.1011E-3	197.221E-12	683.951E-3	-7.69735E-3
4.89995E-3	198.644E-12	671.333E-3	-34.2836E-3	195.870E-12	662.105E-3	1.87515E-3
4.89495E-3	197.983E-12	628.395E-3	-26.5684E-3	194.154E-12	634.608E-3	14.1240E-3
4.88995E-3	197.507E-12	606.843E-3	-24.6540E-3	193.485E-12	634.747E-3	1.18898E-3
4.88494E-3	196.800E-12	625.546E-3	-14.7767E-3	192.466E-12	631.255E-3	-40.0773E-3
4.87994E-3	196.648E-12	642.173E-3	-7.06594E-3	191.528E-12	622.193E-3	-56.1646E-3
4.87494E-3	195.168E-12	634.979E-3	-19.4768E-3	189.759E-12	636.979E-3	-57.7846E-3
4.86993E-3	193.831E-12	631.817E-3	-28.3969E-3	189.552E-12	652.464E-3	-76.6992E-3
4.86493E-3	192.948E-12	656.391E-3	-29.6506E-3	189.300E-12	641.136E-3	-65.1408E-3
4.85993E-3	192.532E-12	663.625E-3	-25.9158E-3	188.937E-12	624.225E-3	-29.2468E-3
4.85493E-3	192.243E-12	650.740E-3	3.84127E-3	189.030E-12	624.751E-3	-21.5391E-3
4.84992E-3	191.293E-12	648.034E-3	29.4385E-3	189.561E-12	644.543E-3	-26.5421E-3
4.84492E-3	190.864E-12	641.585E-3	8.39926E-3	190.648E-12	661.315E-3	-18.2215E-3
4.83992E-3	190.789E-12	651.355E-3	-37.8457E-3	191.964E-12	678.411E-3	9.57602E-3
4.83492E-3	191.272E-12	661.077E-3	-25.5995E-3	193.099E-12	703.685E-3	14.7147E-3
4.82991E-3	191.137E-12	644.321E-3	11.0025E-3	193.719E-12	692.493E-3	-32.4989E-3
4.82491E-3	191.552E-12	624.805E-3	2.19591E-3	194.109E-12	640.196E-3	-56.4023E-3
4.81991E-3	191.794E-12	632.825E-3	-20.3629E-3	194.843E-12	640.755E-3	-30.8755E-3
4.81491E-3	192.560E-12	658.235E-3	-11.3173E-3	194.946E-12	706.735E-3	-25.5490E-3
4.80990E-3	192.278E-12	667.452E-3	-114.014E-6	193.515E-12	720.664E-3	-64.2504E-3
4.80490E-3	191.857E-12	650.392E-3	-18.6253E-3	192.929E-12	677.533E-3	-77.1536E-3
4.79990E-3	191.662E-12	627.499E-3	-18.1621E-3	191.900E-12	662.258E-3	-47.8108E-3
4.79490E-3	191.298E-12	635.038E-3	-7.64185E-3	190.421E-12	653.535E-3	-40.9821E-3
4.78989E-3	190.639E-12	645.906E-3	-2.13342E-3	189.621E-12	623.109E-3	-37.1224E-3
4.78489E-3	189.681E-12	627.785E-3	-2.18353E-3	188.811E-12	608.848E-3	-2.31160E-3
4.77989E-3	189.438E-12	624.235E-3	-22.1850E-3	187.426E-12	622.763E-3	16.7839E-3
4.77489E-3	189.056E-12	642.191E-3	-18.3373E-3	186.726E-12	642.220E-3	9.68123E-3
4.76988E-3	187.764E-12	648.485E-3	432.320E-6	186.481E-12	675.047E-3	7.81233E-3
4.76488E-3	186.542E-12	657.874E-3	-7.54284E-3	187.115E-12	699.725E-3	5.57421E-3
4.75988E-3	186.439E-12	664.445E-3	-17.0201E-3	187.550E-12	689.914E-3	-1.14869E-3
4.75488E-3	186.672E-12	649.865E-3	-4.73316E-3	187.933E-12	675.272E-3	8.28454E-3
4.74988E-3	186.136E-12	640.071E-3	4.58324E-3	188.733E-12	667.826E-3	14.6564E-3
4.74487E-3	185.386E-12	655.847E-3	-7.26629E-3	189.555E-12	659.100E-3	1.35704E-3
4.73987E-3	185.890E-12	652.763E-3	-23.3676E-3	190.119E-12	661.845E-3	-704.843E-6
4.73487E-3	186.832E-12	622.352E-3	-14.6957E-3	190.499E-12	672.023E-3	-6.32745E-3
4.72986E-3	186.748E-12	626.202E-3	-3.88862E-3	190.670E-12	666.899E-3	-21.8461E-3
4.72486E-3	187.090E-12	632.850E-3	-27.6580E-3	191.217E-12	662.935E-3	830.751E-6
4.71986E-3	187.002E-12	610.170E-3	-36.7027E-3	190.598E-12	663.234E-3	21.3294E-3
4.71486E-3	187.812E-12	604.137E-3	-4.04249E-3	189.879E-12	658.803E-3	17.8159E-3
4.70985E-3	188.246E-12	630.821E-3	13.9603E-3	189.003E-12	643.005E-3	6.87157E-3
4.70485E-3	187.917E-12	673.044E-3	-2.02313E-3	188.267E-12	620.305E-3	-6.61135E-3
4.69985E-3	187.746E-12	686.495E-3	-25.7320E-3	187.190E-12	626.722E-3	-17.2478E-3
4.69485E-3	186.964E-12	654.449E-3	-29.7409E-3	185.964E-12	641.658E-3	-23.4005E-3
4.68984E-3	186.805E-12	630.544E-3	-20.8431E-3	185.411E-12	630.262E-3	-8.74165E-3
4.68484E-3	185.719E-12	642.694E-3	-9.37746E-3	184.602E-12	622.411E-3	-13.6957E-3
4.67984E-3	185.434E-12	668.765E-3	-7.48344E-3	183.801E-12	633.593E-3	-26.0369E-3
4.67484E-3	184.747E-12	649.472E-3	-17.7523E-3	183.347E-12	635.499E-3	-5.53079E-3
4.66983E-3	184.992E-12	621.035E-3	-1.64979E-3	183.294E-12	624.352E-3	15.8556E-3
4.66483E-3	184.256E-12	652.795E-3	29.6913E-3	183.701E-12	627.564E-3	31.6201E-3
4.65983E-3	184.672E-12	691.385E-3	35.3103E-3	183.806E-12	645.386E-3	20.3770E-3
4.65483E-3	184.250E-12	701.400E-3	-3.93324E-3	183.991E-12	645.198E-3	-21.7590E-3
4.64982E-3	184.717E-12	699.093E-3	-37.4748E-3	183.873E-12	639.119E-3	-33.2222E-3
4.64482E-3	184.391E-12	671.889E-3	-13.6340E-3	184.119E-12	640.777E-3	-33.1646E-3
4.63982E-3	184.673E-12	638.745E-3	11.3067E-3	184.650E-12	626.288E-3	-46.7239E-3
4.63482E-3	184.841E-12	643.348E-3	-2.57915E-3	184.845E-12	609.074E-3	-19.5265E-3
4.62981E-3	185.362E-12	654.226E-3	-21.4829E-3	183.686E-12	614.651E-3	10.1390E-3
4.62481E-3	185.049E-12	652.532E-3	-28.9983E-3	184.544E-12	623.931E-3	-5.68402E-3
4.61981E-3	184.332E-12	665.225E-3	-28.1992E-3	184.575E-12	619.763E-3	-12.9124E-3
4.61481E-3	184.888E-12	704.183E-3	-28.6517E-3	184.354E-12	615.018E-3	-1.87612E-3
4.60980E-3	184.366E-12	725.012E-3	-27.3968E-3	182.971E-12	633.516E-3	-2.95341E-3
4.60480E-3	184.256E-12	683.670E-3	-7.18937E-3	182.822E-12	644.519E-3	-7.63630E-3
4.59980E-3	182.897E-12	634.616E-3	3.38465E-3	182.730E-12	637.352E-3	-11.4157E-3
4.59480E-3	182.969E-12	612.067E-3	-3.69387E-3	182.027E-12	646.648E-3	-16.6251E-3
4.58979E-3	182.301E-12	603.338E-3	-6.01329E-3	180.668E-12	647.131E-3	-17.3221E-3
4.58479E-3	182.331E-12	631.039E-3	-6.38037E-3	180.913E-12	639.895E-3	-10.5959E-3
4.57979E-3	181.104E-12	672.148E-3	-16.8217E-3	180.925E-12	659.743E-3	-9.72606E-3
4.57479E-3	180.737E-12	677.935E-3	-13.1543E-3	180.285E-12	663.372E-3	-27.3675E-3
4.56978E-3	180.437E-12	663.487E-3	10.1486E-3	179.946E-12	637.798E-3	-37.4405E-3
4.56478E-3	180.368E-12	662.067E-3	9.37056E-3	180.370E-12	641.738E-3	-27.0572E-3
4.55978E-3	181.001E-12	664.692E-3	-15.7542E-3	180.295E-12	645.097E-3	-27.6394E-3
4.55478E-3	180.302E-12	650.665E-3	-26.2372E-3	179.697E-12	622.614E-3	-22.0339E-3
4.54977E-3	180.196E-12	624.826E-3	-20.1518E-3	178.628E-12	638.130E-3	-15.2478E-3
4.54477E-3	179.599E-12	614.472E-3	-22.9060E-3	178.935E-12	659.041E-3	-46.6756E-3
4.53977E-3	179.494E-12	636.753E-3	-24.0498E-3	179.172E-12	632.930E-3	-58.6612E-3
4.53477E-3	178.601E-12	652.535E-3	-25.1818E-3	179.204E-12	617.469E-3	-22.8939E-3
4.52976E-3	177.875E-12	646.369E-3	-28.0275E-3	178.928E-12	632.491E-3	-16.8447E-3
4.52476E-3	177.127E-12	656.115E-3	-15.0631E-3	178.813E-12	653.766E-3	-36.3119E-3
4.51976E-3	176.962E-12	657.386E-3	-2.48403E-3	179.346E-12	667.453E-3	-20.9419E-3
4.51476E-3	177.199E-12	644.367E-3	-3.31680E-3	179.204E-12	668.455E-3	-7.02647E-3
4.50975E-3	177.105E-12	653.724E-3	-7.37934E-3	179.242E-12	668.274E-3	-17.9955E-3
4.50475E-3	177.504E-12	676.899E-3	-14.5150E-3	178.860E-12	663.033E-3	-24.1768E-3
4.49975E-3	177.765E-12	681.252E-3	-20.4047E-3	178.728E-12	658.779E-3	-11.1190E-3
4.49475E-3	177.635E-12	668.791E-3	-4.82633E-3	178.287E-12	673.170E-3	10.6779E-3
4.48974E-3	177.877E-12	668.530E-3	8.81004E-3	178.504E-12	684.575E-3	13.6940E-3
4.48474E-3	177.246E-12	683.279E-3	-3.12171E-3	177.686E-12	662.611E-3	-2.53752E-3
4.47974E-3	177.891E-12	683.979E-3	-10.3796E-3	177.174E-12	624.132E-3	-14.5087E-3
4.47474E-3	177.053E-12	678.458E-3	-8.69997E-3	177.046E-12	616.396E-3	-11.6531E-3
4.46973E-3	177.166E-12	686.755E-3	-29.0916E-3	176.696E-12	639.120E-3	-2.32323E-3
4.46473E-3	176.938E-12	674.950E-3	-48.4763E-3	175.111E-12	654.541E-3	6.56140E-3
4.45973E-3	176.562E-12	641.579E-3	-38.0215E-3	174.255E-12	654.970E-3	12.3172E-3
4.45473E-3	175.390E-12	639.417E-3	-22.9889E-3	174.086E-12	647.672E-3	30.3096E-6
4.44972E-3	175.218E-12	658.980E-3	-12.6332E-3	173.898E-12	630.504E-3	-22.0580E-3
4.44472E-3	174.974E-12	652.636E-3	10.1366E-3	173.673E-12	620.103E-3	-25.4491E-3
4.43972E-3	173.804E-12	638.937E-3	41.3764E-3	173.398E-12	627.608E-3	-17.5259E-3
4.43472E-3	172.920E-12	641.825E-3	43.3378E-3	173.651E-12	633.771E-3	-11.9928E-3
4.42971E-3	172.739E-12	652.977E-3	4.47786E-3	174.206E-12	622.932E-3	5.93848E-3
4.42471E-3	173.242E-12	656.574E-3	-43.2344E-3	174.517E-12	636.551E-3	21.0187E-3
4.41971E-3	172.922E-12	643.665E-3	-66.0513E-3	175.498E-12	672.958E-3	25.4570E-3
4.41471E-3	172.892E-12	640.536E-3	-60.7683E-3	175.815E-12	692.269E-3	44.1967E-3
4.40970E-3	173.327E-12	650.737E-3	-41.3647E-3	175.357E-12	714.587E-3	63.5182E-3
4.40470E-3	174.113E-12	666.181E-3	-23.8301E-3	176.192E-12	707.674E-3	51.8526E-3
4.39970E-3	175.137E-12	674.968E-3	-22.5236E-3	176.810E-12	676.641E-3	23.2522E-3
4.39470E-3	174.579E-12	672.144E-3	-34.0239E-3	176.557E-12	674.757E-3	14.2704E-3
4.38969E-3	174.541E-12	684.692E-3	-15.1796E-3	175.351E-12	677.770E-3	14.2121E-3
4.38469E-3	174.500E-12	693.211E-3	21.8151E-3	174.673E-12	668.838E-3	8.19626E-3
4.37969E-3	174.662E-12	677.844E-3	4.70338E-3	173.893E-12	661.384E-3	137.355E-6
4.37469E-3	174.762E-12	658.329E-3	-29.1490E-3	173.070E-12	647.408E-3	-14.5224E-3
4.36968E-3	173.919E-12	651.873E-3	-23.0549E-3	171.794E-12	627.285E-3	-18.7393E-3
4.36468E-3	173.088E-12	661.262E-3	-10.0863E-3	170.444E-12	623.818E-3	-10.6752E-3
4.35968E-3	172.564E-12	671.410E-3	-15.7028E-3	169.831E-12	630.412E-3	-12.9858E-3
4.35468E-3	171.818E-12	665.479E-3	-15.6735E-3	169.050E-12	607.010E-3	-13.4522E-3
4.34967E-3	170.383E-12	661.603E-3	-24.7803E-3	169.497E-12	593.227E-3	-10.2241E-3
4.34467E-3	169.758E-12	663.215E-3	-55.7807E-3	169.129E-12	607.654E-3	-25.5487E-3
4.33967E-3	169.166E-12	648.084E-3	-71.2558E-3	169.095E-12	601.835E-3	-44.4065E-3
4.33467E-3	169.462E-12	638.371E-3	-56.0713E-3	169.209E-12	606.624E-3	-35.6744E-3
4.32966E-3	169.627E-12	658.263E-3	-25.0379E-3	170.061E-12	643.077E-3	-13.4149E-3
4.32466E-3	169.407E-12	667.300E-3	-16.3712E-3	170.572E-12	667.869E-3	-9.98788E-3
4.31966E-3	169.546E-12	657.164E-3	-23.7309E-3	170.930E-12	655.386E-3	-5.53822E-3
4.31466E-3	169.974E-12	660.728E-3	-14.8732E-3	171.036E-12	645.191E-3	9.12524E-3
4.30965E-3	170.916E-12	641.686E-3	-2.94047E-3	172.038E-12	665.656E-3	961.295E-6
4.30465E-3	171.141E-12	610.379E-3	-4.70518E-3	172.352E-12	674.721E-3	-24.9351E-3
4.29965E-3	170.787E-12	625.091E-3	-5.51006E-3	171.946E-12	649.301E-3	-45.7133E-3
4.29465E-3	170.801E-12	663.449E-3	-764.369E-6	171.492E-12	628.839E-3	-49.4260E-3
4.28964E-3	171.448E-12	671.903E-3	-4.55533E-3	171.154E-12	641.483E-3	-45.1589E-3
4.28464E-3	171.352E-12	655.476E-3	3.74684E-3	170.411E-12	665.595E-3	-50.4398E-3
4.27964E-3	170.763E-12	656.251E-3	25.5780E-3	168.510E-12	669.277E-3	-52.1180E-3
4.27464E-3	170.152E-12	671.611E-3	28.7490E-3	167.372E-12	654.124E-3	-42.7543E-3
4.26963E-3	169.992E-12	672.348E-3	16.7114E-3	166.860E-12	626.735E-3	-29.3627E-3
4.26463E-3	169.276E-12	669.182E-3	7.29667E-3	165.963E-12	589.213E-3	-24.1997E-3
4.25963E-3	168.347E-12	665.894E-3	13.0980E-3	165.521E-12	581.776E-3	-14.7097E-3
4.25463E-3	167.690E-12	659.402E-3	4.65304E-3	164.840E-12	600.407E-3	3.99623E-3
4.24962E-3	167.310E-12	652.995E-3	-11.4698E-3	164.172E-12	607.020E-3	-5.73451E-3
4.24462E-3	166.901E-12	645.343E-3	8.62213E-3	164.103E-12	621.211E-3	-24.2930E-3
4.23962E-3	166.455E-12	637.998E-3	25.8519E-3	165.156E-12	646.544E-3	-23.3380E-3
4.23462E-3	166.305E-12	626.413E-3	15.1755E-3	165.007E-12	653.643E-3	-22.7263E-3
4.22961E-3	165.799E-12	629.938E-3	-5.91918E-3	165.822E-12	644.140E-3	-14.9210E-3
4.22461E-3	165.196E-12	622.727E-3	-28.4828E-3	166.673E-12	644.801E-3	-936.453E-6
4.21961E-3	165.501E-12	604.573E-3	-30.1032E-3	167.797E-12	651.099E-3	-13.3644E-3
4.21461E-3	165.737E-12	622.977E-3	-433.681E-6	167.956E-12	651.317E-3	-16.9402E-3
4.20960E-3	165.254E-12	638.896E-3	33.3806E-3	168.571E-12	667.716E-3	14.8516E-3
4.20460E-3	164.112E-12	624.811E-3	32.9076E-3	168.560E-12	689.685E-3	22.6233E-3
4.19960E-3	164.639E-12	626.275E-3	5.51504E-3	168.748E-12	689.036E-3	-750.759E-6
4.19460E-3	165.127E-12	648.682E-3	-5.16802E-3	167.586E-12	677.031E-3	-5.76094E-3
4.18959E-3	164.562E-12	643.469E-3	-9.00305E-3	167.262E-12	674.593E-3	1.57494E-3
4.18459E-3	163.373E-12	632.411E-3	-9.80940E-3	166.972E-12	669.032E-3	7.39681E-3
4.17959E-3	163.460E-12	643.675E-3	8.40676E-3	165.924E-12	653.073E-3	16.4497E-3
4.17459E-3	163.794E-12	642.657E-3	5.47833E-3	164.285E-12	649.909E-3	15.5481E-3
4.16958E-3	163.291E-12	632.453E-3	-8.64054E-3	164.049E-12	665.958E-3	7.45765E-3
4.16458E-3	162.499E-12	637.838E-3	6.43453E-3	163.795E-12	679.952E-3	4.33046E-3
4.15958E-3	162.222E-12	636.007E-3	14.0639E-3	163.478E-12	683.473E-3	-335.292E-6
4.15458E-3	162.762E-12	632.665E-3	-13.7197E-3	161.646E-12	659.901E-3	-21.1539E-3
4.14957E-3	162.824E-12	643.451E-3	-37.5682E-3	161.388E-12	617.577E-3	-32.2324E-3
4.14457E-3	162.323E-12	640.787E-3	-33.2486E-3	161.476E-12	610.541E-3	-20.5562E-3
4.13957E-3	161.639E-12	636.520E-3	-22.9072E-3	161.665E-12	628.668E-3	-39.9523E-3
4.13457E-3	161.832E-12	630.696E-3	-7.72178E-3	160.947E-12	646.017E-3	-65.1996E-3
4.12956E-3	162.760E-12	607.862E-3	-12.9298E-3	160.967E-12	648.763E-3	-59.5224E-3
4.12456E-3	161.880E-12	601.309E-3	-52.4112E-3	161.014E-12	640.529E-3	-57.3062E-3
4.11956E-3	161.119E-12	624.579E-3	-54.3529E-3	162.233E-12	649.612E-3	-36.7227E-3
4.11456E-3	160.822E-12	638.282E-3	-23.6198E-3	162.460E-12	661.012E-3	-10.6961E-3
4.10955E-3	161.615E-12	654.267E-3	-20.7077E-3	162.777E-12	650.579E-3	-8.68967E-3
4.10455E-3	160.947E-12	669.382E-3	-19.2896E-3	162.302E-12	614.058E-3	-9.98836E-3
4.09955E-3	160.034E-12	643.414E-3	-7.95716E-3	162.376E-12	601.107E-3	2.94194E-3
4.09455E-3	159.599E-12	625.683E-3	-3.33615E-3	162.663E-12	635.940E-3	14.8781E-3
4.08954E-3	159.892E-12	641.107E-3	-2.80772E-3	162.666E-12	670.753E-3	10.8198E-3
4.08454E-3	160.139E-12	638.684E-3	3.28836E-3	161.590E-12	679.218E-3	20.9644E-3
4.07954E-3	159.876E-12	632.119E-3	8.86628E-3	160.984E-12	658.597E-3	21.1614E-3
4.07454E-3	159.616E-12	648.048E-3	-1.80035E-3	161.234E-12	630.428E-3	-3.58720E-3
4.06953E-3	160.246E-12	647.729E-3	9.16151E-3	160.753E-12	632.926E-3	-28.2453E-3
4.06453E-3	160.909E-12	624.833E-3	23.6505E-3	159.746E-12	662.970E-3	-24.8633E-3
4.05953E-3	160.951E-12	612.570E-3	8.61249E-3	158.578E-12	672.597E-3	-3.99724E-3
4.05453E-3	159.897E-12	619.187E-3	-5.13511E-3	157.934E-12	651.440E-3	-22.6799E-3
4.04952E-3	159.971E-12	619.569E-3	-17.6941E-3	157.431E-12	639.190E-3	-46.5738E-3
4.04452E-3	160.642E-12	623.692E-3	-36.5393E-3	156.596E-12	625.307E-3	-42.7870E-3
4.03952E-3	160.787E-12	652.624E-3	-31.1581E-3	156.021E-12	597.544E-3	-34.8176E-3
4.03452E-3	159.107E-12	657.770E-3	-14.3884E-3	155.725E-12	592.923E-3	-13.2024E-3
4.02951E-3	158.881E-12	647.144E-3	-9.88212E-3	155.297E-12	623.291E-3	8.23368E-3
4.02451E-3	158.357E-12	665.571E-3	10.2578E-3	154.673E-12	649.718E-3	618.922E-6
4.01951E-3	158.014E-12	670.645E-3	18.7082E-3	154.502E-12	650.132E-3	-21.3282E-3
4.01451E-3	157.330E-12	645.092E-3	1.58767E-3	154.630E-12	652.520E-3	-35.7903E-3
4.00950E-3	156.442E-12	628.788E-3	-306.318E-6	154.536E-12	643.509E-3	-31.8601E-3
4.00450E-3	156.140E-12	626.536E-3	15.5087E-3	154.706E-12	637.926E-3	-28.5935E-3
3.99950E-3	155.657E-12	624.856E-3	19.4592E-3	154.948E-12	653.435E-3	-27.6197E-3
3.99450E-3	155.369E-12	612.808E-3	-3.81202E-3	155.621E-12	651.103E-3	-8.63870E-3
3.98949E-3	154.571E-12	604.659E-3	-13.7972E-3	156.197E-12	662.575E-3	-7.32126E-3
3.98449E-3	154.888E-12	634.920E-3	-495.274E-6	156.293E-12	687.265E-3	-11.6703E-3
3.97949E-3	155.186E-12	662.398E-3	-6.87210E-3	156.457E-12	690.981E-3	11.8845E-3
3.97449E-3	155.893E-12	649.289E-3	-21.6322E-3	156.101E-12	692.169E-3	14.7591E-3
3.96948E-3	155.086E-12	638.240E-3	-23.3169E-3	156.496E-12	684.527E-3	-21.8725E-3
3.96448E-3	155.673E-12	646.097E-3	-24.1211E-3	156.133E-12	681.447E-3	-39.5406E-3
3.95948E-3	155.691E-12	661.822E-3	-18.3629E-3	155.543E-12	684.854E-3	-19.1275E-3
3.95448E-3	155.450E-12	673.619E-3	-5.15907E-3	154.821E-12	678.343E-3	-4.17506E-3
3.94947E-3	154.625E-12	669.712E-3	5.00495E-3	154.865E-12	682.156E-3	-12.5698E-3
3.94447E-3	153.960E-12	663.496E-3	-6.18583E-3	154.213E-12	676.621E-3	-31.8919E-3
3.93947E-3	154.299E-12	658.885E-3	-16.3944E-3	153.174E-12	648.331E-3	-37.5822E-3
3.93447E-3	153.046E-12	657.575E-3	-11.9250E-3	152.063E-12	630.073E-3	-11.5486E-3
3.92946E-3	152.510E-12	662.994E-3	-22.0853E-3	151.595E-12	626.383E-3	16.6599E-3
3.92446E-3	152.182E-12	667.683E-3	-25.9741E-3	152.229E-12	613.927E-3	8.00461E-3
3.91946E-3	151.570E-12	656.420E-3	-10.6902E-3	151.361E-12	610.684E-3	-32.2938E-3
3.91446E-3	150.630E-12	644.486E-3	-3.22159E-3	151.393E-12	640.996E-3	-56.2997E-3
3.90945E-3	150.525E-12	643.301E-3	-14.2810E-3	151.489E-12	671.441E-3	-50.3262E-3
3.90445E-3	149.893E-12	637.318E-3	-9.69204E-3	151.930E-12	658.260E-3	-53.2428E-3
3.89945E-3	148.992E-12	643.974E-3	8.07442E-3	152.183E-12	638.123E-3	-63.0889E-3
3.89445E-3	149.448E-12	661.727E-3	-4.60569E-3	152.998E-12	661.588E-3	-61.7493E-3
3.88944E-3	149.665E-12	654.362E-3	-28.0211E-3	153.314E-12	691.541E-3	-46.4586E-3
3.88444E-3	150.463E-12	626.641E-3	-35.0027E-3	153.232E-12	671.699E-3	-19.1375E-3
3.87944E-3	150.118E-12	615.058E-3	-45.1016E-3	153.843E-12	637.136E-3	-9.96179E-3
3.87444E-3	151.048E-12	628.217E-3	-37.2142E-3	154.059E-12	632.834E-3	-32.3890E-3
3.86943E-3	151.570E-12	640.966E-3	-4.23591E-3	153.812E-12	634.760E-3	-49.9667E-3
3.86443E-3	151.204E-12	626.441E-3	4.02596E-3	152.968E-12	639.049E-3	-39.3680E-3
3.85943E-3	150.838E-12	615.021E-3	-25.8600E-3	153.056E-12	645.191E-3	-17.5562E-3
3.85443E-3	150.671E-12	630.061E-3	-50.7635E-3	152.505E-12	643.606E-3	-9.88899E-3
3.84942E-3	151.324E-12	644.402E-3	-48.9981E-3	151.571E-12	645.291E-3	-23.6438E-3
3.84442E-3	150.073E-12	652.132E-3	-49.2193E-3	149.948E-12	651.903E-3	-47.2251E-3
3.83942E-3	150.056E-12	659.839E-3	-30.6114E-3	149.686E-12	648.774E-3	-45.3103E-3
3.83442E-3	149.338E-12	668.918E-3	-2.26048E-3	149.376E-12	626.799E-3	-21.3466E-3
3.82941E-3	149.634E-12	685.265E-3	-3.38218E-3	147.862E-12	607.969E-3	-16.8337E-3
3.82441E-3	148.734E-12	695.598E-3	-7.21378E-3	147.515E-12	610.386E-3	-25.8120E-3
3.81941E-3	148.413E-12	684.076E-3	2.63454E-3	147.470E-12	619.868E-3	-23.2441E-3
3.81441E-3	147.807E-12	660.087E-3	5.12910E-3	147.317E-12	632.268E-3	-16.0277E-3
3.80940E-3	147.306E-12	655.395E-3	-5.83038E-3	146.751E-12	629.422E-3	-12.0084E-3
3.80440E-3	146.995E-12	675.246E-3	-1.56231E-3	147.072E-12	609.569E-3	-21.4286E-3
3.79940E-3	147.040E-12	649.689E-3	19.3475E-3	147.166E-12	621.104E-3	-44.7258E-3
3.79440E-3	146.907E-12	595.119E-3	24.9271E-3	147.525E-12	653.780E-3	-47.9429E-3
3.78939E-3	145.933E-12	590.959E-3	12.0090E-3	147.381E-12	668.397E-3	-27.5309E-3
3.78439E-3	146.679E-12	615.289E-3	2.49325E-3	147.781E-12	657.572E-3	-3.37736E-3
3.77939E-3	146.641E-12	636.926E-3	5.30175E-3	148.030E-12	639.322E-3	-5.59468E-3
3.77439E-3	147.083E-12	662.342E-3	13.9944E-3	148.038E-12	645.749E-3	-21.9435E-3
3.76938E-3	146.593E-12	680.137E-3	5.98819E-3	147.937E-12	660.569E-3	-20.5747E-3
3.76438E-3	146.842E-12	677.050E-3	-10.6236E-3	148.003E-12	659.001E-3	-20.4250E-3
3.75938E-3	146.958E-12	669.458E-3	-7.24741E-3	147.854E-12	656.208E-3	-21.8350E-3
3.75438E-3	146.724E-12	665.175E-3	-1.01934E-3	146.979E-12	658.579E-3	-15.5918E-3
3.74937E-3	146.547E-12	660.707E-3	-11.6260E-3	146.178E-12	653.360E-3	-1.70425E-3
3.74437E-3	146.137E-12	649.690E-3	-30.9569E-3	145.202E-12	648.438E-3	11.8186E-3
3.73937E-3	146.400E-12	642.287E-3	-39.4254E-3	143.999E-12	655.874E-3	15.3635E-3
3.73437E-3	145.580E-12	646.357E-3	-42.9963E-3	142.811E-12	659.359E-3	4.11801E-3
3.72936E-3	145.270E-12	643.741E-3	-37.3826E-3	142.390E-12	655.572E-3	-3.27577E-3
3.72436E-3	144.456E-12	631.415E-3	-30.5150E-3	142.048E-12	658.213E-3	-1.74687E-3
3.71936E-3	144.180E-12	623.098E-3	-42.4122E-3	141.637E-12	650.389E-3	-19.8789E-3
3.71436E-3	143.644E-12	623.750E-3	-51.8220E-3	141.392E-12	626.379E-3	-31.1454E-3
3.70935E-3	143.178E-12	635.946E-3	-40.7709E-3	141.484E-12	623.935E-3	-21.8371E-3
3.70435E-3	142.784E-12	658.784E-3	-13.9592E-3	141.290E-12	637.976E-3	-2.77832E-3
3.69935E-3	142.136E-12	659.785E-3	16.7561E-3	141.440E-12	636.034E-3	23.9207E-3
3.69435E-3	141.719E-12	644.747E-3	23.3802E-3	141.368E-12	637.376E-3	28.4203E-3
3.68934E-3	141.665E-12	646.907E-3	-2.11249E-3	142.003E-12	652.195E-3	5.77160E-3
3.68434E-3	141.468E-12	650.547E-3	-17.9242E-3	142.732E-12	659.880E-3	-9.14914E-3
3.67934E-3	141.256E-12	643.112E-3	-31.4542E-3	142.795E-12	655.010E-3	-2.16297E-3
3.67434E-3	141.389E-12	636.711E-3	-43.5184E-3	142.767E-12	653.285E-3	6.57682E-3
3.66933E-3	141.365E-12	637.721E-3	-41.3038E-3	142.602E-12	657.504E-3	7.36473E-3
3.66433E-3	140.992E-12	646.203E-3	-34.6871E-3	142.330E-12	650.944E-3	-2.59235E-3
3.65933E-3	140.879E-12	653.920E-3	-24.7889E-3	141.939E-12	646.062E-3	-21.1126E-3
3.65433E-3	141.172E-12	671.057E-3	-17.7300E-3	141.442E-12	647.431E-3	-27.1732E-3
3.64932E-3	140.975E-12	683.792E-3	-5.57087E-3	140.479E-12	657.077E-3	-19.2440E-3
3.64432E-3	140.977E-12	667.471E-3	5.86088E-3	140.151E-12	665.037E-3	-24.0785E-3
3.63932E-3	140.605E-12	659.314E-3	5.28353E-3	139.743E-12	653.280E-3	-46.7496E-3
3.63432E-3	140.869E-12	674.873E-3	10.8637E-3	138.726E-12	646.996E-3	-46.1582E-3
3.62931E-3	140.446E-12	685.184E-3	14.0020E-3	138.010E-12	639.408E-3	-27.7964E-3
3.62431E-3	140.309E-12	670.540E-3	-7.12468E-3	138.168E-12	628.188E-3	-24.0396E-3
3.61931E-3	139.401E-12	648.999E-3	-32.0441E-3	138.152E-12	639.506E-3	-31.0948E-3
3.61431E-3	139.084E-12	644.059E-3	-41.7071E-3	137.888E-12	666.961E-3	-40.0476E-3
3.60930E-3	138.668E-12	645.977E-3	-33.3715E-3	137.878E-12	690.174E-3	-27.1529E-3
3.60430E-3	137.972E-12	654.992E-3	-18.1596E-3	137.854E-12	687.692E-3	-3.04907E-3
3.59930E-3	136.910E-12	663.503E-3	6.12198E-3	138.560E-12	664.672E-3	586.582E-6
3.59430E-3	136.848E-12	662.698E-3	15.5400E-3	138.657E-12	651.981E-3	-4.40682E-3
3.58929E-3	136.334E-12	659.593E-3	-4.25026E-3	138.800E-12	660.293E-3	-2.51906E-3
3.58429E-3	136.202E-12	649.937E-3	-10.4730E-3	138.974E-12	670.037E-3	-13.2296E-3
3.57929E-3	135.428E-12	645.513E-3	338.701E-6	139.506E-12	665.384E-3	-44.4604E-3
3.57429E-3	135.360E-12	653.706E-3	-1.98222E-3	139.845E-12	654.425E-3	-65.2225E-3
3.56928E-3	135.255E-12	654.930E-3	-16.8809E-3	139.689E-12	654.175E-3	-63.6252E-3
3.56428E-3	136.097E-12	639.043E-3	-35.0919E-3	139.361E-12	660.672E-3	-43.8909E-3
3.55928E-3	136.025E-12	630.601E-3	-37.3207E-3	138.843E-12	674.235E-3	-18.6812E-3
3.55428E-3	136.124E-12	639.114E-3	-6.85088E-3	138.964E-12	682.402E-3	4.82688E-3
3.54927E-3	136.131E-12	655.132E-3	966.997E-6	138.665E-12	677.668E-3	13.9514E-3
3.54427E-3	137.042E-12	677.818E-3	-23.3383E-3	137.926E-12	678.458E-3	-887.634E-6
3.53927E-3	137.201E-12	689.171E-3	-23.6289E-3	137.495E-12	678.666E-3	-12.7708E-3
3.53427E-3	136.706E-12	676.172E-3	-7.88816E-3	137.256E-12	692.140E-3	-1.89699E-3
3.52926E-3	136.599E-12	652.100E-3	-3.04734E-3	137.408E-12	698.209E-3	17.2325E-3
3.52426E-3	136.761E-12	646.083E-3	-1.11325E-3	136.533E-12	672.379E-3	34.7926E-3
3.51926E-3	136.586E-12	663.399E-3	1.40323E-3	135.849E-12	657.147E-3	48.6707E-3
3.51426E-3	136.147E-12	672.196E-3	-2.37098E-3	135.198E-12	662.404E-3	27.4784E-3
3.50925E-3	135.398E-12	653.665E-3	-11.0358E-3	135.235E-12	670.032E-3	749.704E-6
3.50425E-3	134.390E-12	643.972E-3	-23.3593E-3	134.541E-12	658.498E-3	7.01429E-3
3.49925E-3	133.995E-12	663.352E-3	-31.3536E-3	134.226E-12	646.772E-3	-68.2372E-6
3.49425E-3	133.293E-12	673.756E-3	-30.2387E-3	133.951E-12	655.001E-3	-32.9560E-3
3.48924E-3	132.670E-12	660.877E-3	-23.2811E-3	134.375E-12	660.415E-3	-51.2382E-3
3.48424E-3	131.665E-12	641.431E-3	-10.0671E-3	134.080E-12	671.933E-3	-46.5570E-3
3.47924E-3	131.035E-12	638.543E-3	1.87610E-3	133.996E-12	676.102E-3	-40.2496E-3
3.47424E-3	131.404E-12	645.542E-3	-2.72765E-3	133.739E-12	665.185E-3	-33.5826E-3
3.46923E-3	131.477E-12	653.258E-3	-16.7658E-3	133.990E-12	662.617E-3	-29.0249E-3
3.46423E-3	131.466E-12	658.063E-3	-13.1501E-3	133.816E-12	662.857E-3	-30.6156E-3
3.45923E-3	131.747E-12	648.267E-3	5.63711E-3	134.036E-12	641.027E-3	-5.52116E-3
3.45423E-3	132.021E-12	654.170E-3	10.5791E-3	133.915E-12	623.185E-3	14.4961E-3
3.44922E-3	132.733E-12	665.358E-3	6.74574E-3	133.645E-12	649.443E-3	-4.67603E-3
3.44422E-3	131.953E-12	656.212E-3	-872.105E-6	133.270E-12	669.149E-3	-25.1593E-3
3.43922E-3	132.376E-12	654.308E-3	-20.0378E-3	132.950E-12	659.798E-3	-31.7549E-3
3.43422E-3	132.285E-12	670.419E-3	-27.5169E-3	132.626E-12	650.511E-3	-20.6889E-3
3.42921E-3	132.819E-12	692.924E-3	-20.2522E-3	131.813E-12	637.006E-3	-2.95953E-3
3.42421E-3	132.165E-12	697.556E-3	-21.3716E-3	131.484E-12	624.211E-3	-11.7262E-3
3.41921E-3	132.191E-12	684.144E-3	-21.1390E-3	130.757E-12	631.894E-3	-18.1580E-3
3.41421E-3	131.513E-12	665.127E-3	-6.63391E-3	129.945E-12	649.407E-3	-1.52494E-3
3.40920E-3	130.838E-12	650.065E-3	149.327E-6	129.184E-12	661.641E-3	-6.94229E-3
3.40420E-3	130.197E-12	661.552E-3	8.32100E-3	128.545E-12	669.155E-3	-20.9821E-3
3.39920E-3	129.525E-12	672.524E-3	17.9314E-3	127.657E-12	659.845E-3	-13.6992E-3
3.39420E-3	128.267E-12	664.579E-3	3.80921E-3	127.651E-12	649.538E-3	-23.3130E-3
3.38919E-3	127.677E-12	664.929E-3	-18.8772E-3	127.484E-12	654.054E-3	-42.7456E-3
3.38419E-3	127.067E-12	662.518E-3	-32.6479E-3	127.426E-12	659.568E-3	-24.2551E-3
3.37919E-3	127.162E-12	649.517E-3	-24.4989E-3	127.196E-12	669.974E-3	-14.3092E-3
3.37419E-3	126.538E-12	649.890E-3	-11.5662E-3	127.737E-12	677.027E-3	-42.6808E-3
3.36918E-3	126.244E-12	657.874E-3	-22.2364E-3	128.442E-12	670.792E-3	-41.1684E-3
3.36418E-3	126.465E-12	643.943E-3	-29.6284E-3	128.887E-12	663.310E-3	-13.5084E-3
3.35918E-3	126.885E-12	627.002E-3	-18.5780E-3	129.112E-12	661.125E-3	-18.6943E-3
3.35418E-3	126.432E-12	635.099E-3	-17.8249E-3	129.216E-12	660.579E-3	-25.6239E-3
3.34917E-3	126.590E-12	643.696E-3	-32.3082E-3	128.790E-12	659.980E-3	-13.8325E-3
3.34417E-3	126.837E-12	641.793E-3	-45.1186E-3	128.852E-12	659.174E-3	-14.6845E-3
3.33917E-3	127.081E-12	636.089E-3	-41.7542E-3	128.170E-12	660.670E-3	-13.3557E-3
3.33417E-3	126.605E-12	637.709E-3	-16.5392E-3	127.934E-12	677.699E-3	3.47689E-3
3.32916E-3	126.762E-12	648.028E-3	10.8501E-3	127.210E-12	689.758E-3	752.276E-6
3.32416E-3	127.071E-12	647.876E-3	1.52509E-3	126.518E-12	690.675E-3	-20.4753E-3
3.31916E-3	126.636E-12	651.484E-3	-29.5852E-3	125.799E-12	695.243E-3	-20.5989E-3
3.31416E-3	126.052E-12	659.962E-3	-43.8693E-3	125.114E-12	680.366E-3	-13.8319E-3
3.30915E-3	125.508E-12	652.770E-3	-42.6047E-3	124.319E-12	659.902E-3	-19.9038E-3
3.30415E-3	125.404E-12	645.170E-3	-23.3085E-3	123.489E-12	654.263E-3	-10.8687E-3
3.29915E-3	124.374E-12	644.313E-3	-14.1159E-3	122.970E-12	643.046E-3	-5.05954E-3
3.29415E-3	124.554E-12	643.118E-3	-21.1164E-3	122.810E-12	638.952E-3	-18.0107E-3
3.28914E-3	123.844E-12	633.837E-3	-18.7751E-3	122.688E-12	654.401E-3	-14.2678E-3
3.28414E-3	123.508E-12	633.185E-3	-20.0577E-3	122.793E-12	667.291E-3	1.39729E-3
3.27914E-3	122.898E-12	657.391E-3	-19.2736E-3	123.252E-12	675.835E-3	5.33134E-3
3.27414E-3	123.235E-12	673.132E-3	-15.7191E-3	123.550E-12	684.159E-3	-4.96381E-3
3.26913E-3	123.592E-12	667.785E-3	-21.0925E-3	124.039E-12	680.007E-3	-26.1643E-3
3.26413E-3	122.647E-12	655.847E-3	-18.0973E-3	124.262E-12	681.870E-3	-46.4451E-3
3.25913E-3	122.753E-12	653.311E-3	-9.15218E-3	124.898E-12	691.249E-3	-61.7563E-3
3.25413E-3	123.043E-12	665.031E-3	-11.8968E-3	125.130E-12	694.022E-3	-60.8659E-3
3.24912E-3	123.067E-12	674.000E-3	-17.2335E-3	125.200E-12	685.895E-3	-31.1942E-3
3.24412E-3	122.630E-12	680.117E-3	-30.2029E-3	125.114E-12	668.597E-3	-9.59322E-3
3.23912E-3	123.027E-12	677.167E-3	-44.8779E-3	124.712E-12	671.635E-3	-21.6436E-3
3.23412E-3	123.007E-12	664.920E-3	-26.9342E-3	124.549E-12	678.971E-3	-35.9340E-3
3.22911E-3	123.159E-12	674.947E-3	1.20607E-3	123.645E-12	669.825E-3	-17.8255E-3
3.22411E-3	122.804E-12	706.891E-3	11.3314E-3	123.193E-12	678.927E-3	3.59142E-3
3.21911E-3	122.848E-12	712.556E-3	8.16986E-3	122.729E-12	688.573E-3	-11.4267E-3
3.21411E-3	122.518E-12	692.185E-3	-10.5050E-3	121.787E-12	661.607E-3	-25.8960E-3
3.20910E-3	122.301E-12	681.967E-3	-22.9767E-3	121.019E-12	645.986E-3	-14.6153E-3
3.20410E-3	122.051E-12	667.225E-3	-10.9011E-3	120.256E-12	661.649E-3	-12.1562E-3
3.19910E-3	121.893E-12	652.301E-3	-564.897E-6	120.097E-12	675.790E-3	-9.63426E-3
3.19410E-3	121.969E-12	659.361E-3	-7.45740E-3	119.924E-12	685.028E-3	3.25451E-3
3.18909E-3	121.402E-12	676.713E-3	-11.8791E-3	119.852E-12	690.880E-3	-10.4113E-3
3.18409E-3	121.005E-12	684.077E-3	-10.5620E-3	119.535E-12	691.380E-3	-38.1069E-3
3.17909E-3	120.477E-12	687.901E-3	-5.56446E-3	119.960E-12	703.981E-3	-46.8565E-3
3.17409E-3	120.187E-12	693.329E-3	7.98689E-3	119.940E-12	719.235E-3	-36.7764E-3
3.16908E-3	119.438E-12	682.886E-3	12.6360E-3	120.384E-12	714.830E-3	-20.9518E-3
3.16408E-3	118.668E-12	676.393E-3	3.99336E-3	120.595E-12	710.049E-3	-5.89151E-3
3.15908E-3	118.313E-12	672.936E-3	1.97326E-3	120.954E-12	716.173E-3	2.15810E-3
3.15408E-3	118.103E-12	663.774E-3	12.1125E-3	120.497E-12	714.844E-3	-8.37952E-3
3.14907E-3	118.068E-12	652.151E-3	10.2946E-3	120.690E-12	693.374E-3	-20.9816E-3
3.14407E-3	118.055E-12	638.091E-3	-1.51156E-3	120.632E-12	666.731E-3	-15.5770E-3
3.13907E-3	117.464E-12	642.201E-3	-4.18349E-3	120.210E-12	649.907E-3	-10.5152E-3
3.13407E-3	117.439E-12	651.846E-3	-9.50143E-3	119.714E-12	667.053E-3	-15.7215E-3
3.12906E-3	117.796E-12	649.801E-3	-11.6939E-3	118.942E-12	694.800E-3	-21.3949E-3
3.12406E-3	117.921E-12	657.337E-3	-6.88496E-3	118.853E-12	683.175E-3	-19.5078E-3
3.11906E-3	117.635E-12	676.737E-3	-2.48742E-3	118.528E-12	661.877E-3	-17.6690E-3
3.11406E-3	117.235E-12	670.222E-3	683.123E-6	117.677E-12	661.837E-3	-29.7060E-3
3.10905E-3	117.726E-12	649.690E-3	-5.75726E-3	117.051E-12	666.450E-3	-35.6214E-3
3.10405E-3	117.941E-12	651.363E-3	-19.9248E-3	116.463E-12	663.460E-3	-10.6967E-3
3.09905E-3	116.986E-12	662.416E-3	-26.8145E-3	116.374E-12	659.470E-3	11.3645E-3
3.09405E-3	116.308E-12	672.425E-3	-21.5360E-3	116.032E-12	653.225E-3	5.79844E-3
3.08904E-3	116.189E-12	674.010E-3	-23.3007E-3	115.471E-12	640.598E-3	-8.98302E-3
3.08404E-3	116.349E-12	660.264E-3	-22.3454E-3	114.970E-12	655.730E-3	-14.7148E-3
3.07904E-3	115.405E-12	649.217E-3	-11.0933E-3	115.108E-12	686.643E-3	-8.89797E-3
3.07404E-3	114.817E-12	651.003E-3	-12.7649E-3	114.667E-12	671.567E-3	-10.7966E-3
3.06903E-3	113.900E-12	663.316E-3	-15.0728E-3	114.484E-12	644.947E-3	-9.38611E-3
3.06403E-3	113.970E-12	674.125E-3	-5.14068E-3	114.903E-12	654.467E-3	-12.2423E-3
3.05903E-3	113.551E-12	671.124E-3	-7.67165E-3	114.680E-12	666.445E-3	-29.6042E-3
3.05403E-3	113.388E-12	665.235E-3	-14.4908E-3	114.330E-12	656.797E-3	-20.6497E-3
3.04902E-3	113.027E-12	666.135E-3	-12.7753E-3	114.511E-12	644.246E-3	10.5546E-3
3.04402E-3	112.780E-12	670.278E-3	-20.4620E-3	114.418E-12	644.361E-3	12.7384E-3
3.03902E-3	113.095E-12	672.862E-3	-23.0699E-3	114.398E-12	638.962E-3	-13.1027E-3
3.03402E-3	113.059E-12	656.442E-3	-22.1062E-3	114.027E-12	638.849E-3	-19.4168E-3
3.02901E-3	113.003E-12	634.517E-3	-28.1628E-3	113.758E-12	662.718E-3	1.29258E-3
3.02401E-3	112.877E-12	632.299E-3	-12.9073E-3	114.010E-12	673.688E-3	9.27866E-3
3.01901E-3	113.575E-12	650.583E-3	2.44246E-3	113.337E-12	662.377E-3	-2.01746E-3
3.01401E-3	113.729E-12	671.477E-3	-15.7559E-3	112.593E-12	658.310E-3	-15.9471E-3
3.00900E-3	113.615E-12	674.849E-3	-31.5575E-3	112.036E-12	671.127E-3	-27.7356E-3
3.00400E-3	112.974E-12	672.266E-3	-21.6263E-3	111.839E-12	680.610E-3	-38.6682E-3
2.99900E-3	113.295E-12	675.655E-3	-10.8491E-3	111.309E-12	679.482E-3	-35.5799E-3
2.99400E-3	113.363E-12	684.325E-3	-21.2194E-3	110.740E-12	677.397E-3	-27.1309E-3
2.98899E-3	112.959E-12	688.065E-3	-36.1054E-3	109.976E-12	665.069E-3	-43.7460E-3
2.98399E-3	111.948E-12	677.143E-3	-41.7365E-3	109.752E-12	655.097E-3	-53.6622E-3
2.97899E-3	111.515E-12	682.851E-3	-40.5165E-3	109.669E-12	675.440E-3	-41.9803E-3
2.97399E-3	111.283E-12	709.880E-3	-28.5117E-3	109.616E-12	692.185E-3	-38.3736E-3
2.96898E-3	110.697E-12	703.218E-3	-23.1441E-3	109.185E-12	661.962E-3	-34.6396E-3
2.96398E-3	109.722E-12	675.869E-3	-34.7963E-3	109.112E-12	626.160E-3	-26.8971E-3
2.95898E-3	109.501E-12	656.580E-3	-35.6435E-3	108.588E-12	641.132E-3	-23.2739E-3
2.95398E-3	109.240E-12	635.381E-3	-14.9055E-3	108.914E-12	684.509E-3	-17.7389E-3
2.94897E-3	109.141E-12	635.453E-3	-346.610E-6	109.319E-12	703.574E-3	-12.3587E-3
2.94397E-3	108.744E-12	658.410E-3	2.09005E-3	109.211E-12	693.806E-3	-10.7433E-3
2.93897E-3	108.746E-12	674.445E-3	5.42223E-3	109.596E-12	679.438E-3	-15.5936E-3
2.93397E-3	108.317E-12	667.476E-3	596.567E-6	109.897E-12	673.835E-3	-23.3684E-3
2.92896E-3	108.435E-12	653.773E-3	-3.61054E-3	110.295E-12	694.466E-3	-24.1130E-3
2.92396E-3	108.564E-12	666.011E-3	8.62509E-3	110.186E-12	722.094E-3	-10.8196E-3
2.91896E-3	108.337E-12	678.764E-3	8.48277E-3	109.864E-12	717.961E-3	2.61022E-3
2.91396E-3	108.000E-12	661.341E-3	-20.1973E-3	109.706E-12	694.656E-3	-962.018E-6
2.90895E-3	108.196E-12	643.875E-3	-35.9040E-3	109.255E-12	682.992E-3	-26.0822E-3
2.90395E-3	107.969E-12	646.841E-3	-5.16040E-3	108.890E-12	678.820E-3	-43.4815E-3
2.89895E-3	107.963E-12	663.680E-3	25.9667E-3	107.683E-12	668.005E-3	-37.4951E-3
2.89395E-3	107.328E-12	680.104E-3	16.0443E-3	107.268E-12	657.367E-3	-30.9476E-3
2.88894E-3	106.863E-12	677.281E-3	-4.64864E-3	106.586E-12	650.393E-3	-20.0455E-3
2.88394E-3	106.741E-12	663.085E-3	-12.7375E-3	106.123E-12	649.457E-3	-11.7294E-3
2.87894E-3	106.513E-12	665.964E-3	-5.98571E-3	105.083E-12	660.910E-3	-10.0483E-3
2.87394E-3	106.079E-12	686.164E-3	7.74188E-3	104.799E-12	679.617E-3	8.73478E-3
2.86893E-3	105.551E-12	699.985E-3	961.121E-6	104.751E-12	690.477E-3	21.4699E-3
2.86393E-3	105.067E-12	707.100E-3	-25.7124E-3	104.412E-12	685.713E-3	-2.97123E-3
2.85893E-3	104.964E-12	691.861E-3	-27.5165E-3	104.307E-12	671.064E-3	-29.7531E-3
2.85393E-3	104.673E-12	660.078E-3	-229.807E-6	104.638E-12	661.572E-3	-20.3979E-3
2.84892E-3	104.170E-12	661.636E-3	12.8218E-3	104.900E-12	664.969E-3	3.60195E-3
2.84392E-3	103.695E-12	686.578E-3	5.57003E-3	105.063E-12	672.759E-3	2.45233E-3
2.83892E-3	103.794E-12	688.738E-3	-6.83136E-3	105.010E-12	686.094E-3	-8.23642E-3
2.83392E-3	103.924E-12	664.808E-3	-18.6499E-3	105.629E-12	707.763E-3	-11.1700E-3
2.82891E-3	103.861E-12	650.585E-3	-14.7143E-3	105.639E-12	709.525E-3	-16.0566E-3
2.82391E-3	103.657E-12	664.866E-3	-4.30233E-3	105.653E-12	692.773E-3	-13.2696E-3
2.81891E-3	103.518E-12	681.050E-3	-9.57705E-3	105.101E-12	689.350E-3	-16.3324E-3
2.81391E-3	103.587E-12	684.606E-3	-14.9847E-3	105.469E-12	692.727E-3	-32.4136E-3
2.80890E-3	103.856E-12	690.315E-3	-14.9288E-3	105.006E-12	686.540E-3	-27.9850E-3
2.80390E-3	103.478E-12	695.326E-3	-3.69598E-3	104.196E-12	681.902E-3	-19.5784E-3
2.79890E-3	103.448E-12	697.864E-3	20.3297E-3	103.568E-12	678.457E-3	-25.8947E-3
2.79390E-3	103.519E-12	695.821E-3	12.9276E-3	103.039E-12	681.149E-3	-19.2780E-3
2.78889E-3	103.273E-12	690.120E-3	-22.1467E-3	103.058E-12	688.045E-3	-9.52706E-3
2.78389E-3	103.210E-12	679.676E-3	-29.8932E-3	102.040E-12	687.396E-3	-21.8728E-3
2.77889E-3	102.953E-12	666.762E-3	-23.5994E-3	101.342E-12	693.691E-3	-21.1746E-3
2.77389E-3	102.733E-12	671.973E-3	-23.7414E-3	100.790E-12	700.029E-3	719.431E-6
2.76888E-3	102.231E-12	705.598E-3	-7.93579E-3	101.073E-12	691.419E-3	3.41651E-3
2.76388E-3	102.024E-12	719.809E-3	-10.0381E-3	100.576E-12	684.022E-3	3.23914E-3
2.75888E-3	101.462E-12	685.074E-3	-39.1369E-3	100.387E-12	680.075E-3	3.59160E-3
2.75388E-3	101.105E-12	662.971E-3	-50.9592E-3	100.274E-12	675.156E-3	-15.5028E-3
2.74887E-3	100.580E-12	666.327E-3	-30.8889E-3	100.650E-12	680.261E-3	-29.5327E-3
2.74387E-3	99.9350E-12	661.179E-3	2.09893E-3	100.953E-12	686.632E-3	-18.1130E-3
2.73887E-3	99.3330E-12	654.733E-3	7.50998E-3	100.692E-12	678.569E-3	-9.63119E-3
2.73387E-3	98.8657E-12	660.220E-3	-12.5258E-3	100.747E-12	665.359E-3	-10.8717E-3
2.72886E-3	98.5359E-12	671.590E-3	-20.0966E-3	100.578E-12	674.900E-3	-4.95972E-3
2.72386E-3	98.3943E-12	679.650E-3	-19.7290E-3	100.828E-12	694.425E-3	-5.81490E-3
2.71886E-3	98.0193E-12	682.594E-3	-32.6519E-3	100.560E-12	687.230E-3	-12.9758E-3
2.71386E-3	98.1074E-12	701.701E-3	-52.3201E-3	100.109E-12	668.088E-3	-9.55205E-3
2.70885E-3	98.1987E-12	723.628E-3	-56.7444E-3	99.7913E-12	663.885E-3	-6.68905E-3
2.70385E-3	98.2015E-12	709.549E-3	-26.4792E-3	99.3022E-12	672.891E-3	-11.0626E-3
2.69885E-3	98.1614E-12	685.138E-3	-1.99182E-3	99.0883E-12	684.595E-3	-9.53235E-3
2.69385E-3	98.2758E-12	692.073E-3	-2.04381E-3	98.4405E-12	686.807E-3	-4.53668E-3
2.68884E-3	98.4936E-12	714.325E-3	2.52503E-3	97.8888E-12	675.681E-3	-17.0050E-3
2.68384E-3	98.3989E-12	708.405E-3	-2.68677E-3	97.0452E-12	678.871E-3	-37.8025E-3
2.67884E-3	98.4934E-12	688.725E-3	-14.7614E-3	96.8615E-12	688.438E-3	-36.7108E-3
2.67384E-3	98.0507E-12	676.702E-3	1.72529E-3	96.5558E-12	673.808E-3	-26.6403E-3
2.66883E-3	97.7863E-12	679.670E-3	30.1600E-3	96.4172E-12	671.305E-3	-17.1916E-3
2.66383E-3	97.4566E-12	696.000E-3	20.5220E-3	96.0483E-12	686.528E-3	-7.34681E-3
2.65883E-3	97.2851E-12	693.956E-3	-23.5369E-3	95.7048E-12	689.404E-3	-10.2163E-3
2.65383E-3	96.4601E-12	681.548E-3	-60.0027E-3	95.9475E-12	699.471E-3	-11.5301E-3
2.64882E-3	95.9053E-12	686.707E-3	-55.2734E-3	95.9810E-12	706.667E-3	-2.65647E-3
2.64382E-3	95.5778E-12	702.323E-3	-14.2508E-3	96.1976E-12	702.091E-3	4.02570E-3
2.63882E-3	95.3056E-12	711.019E-3	-465.559E-6	95.7166E-12	699.359E-3	-6.06307E-3
2.63382E-3	94.7723E-12	713.599E-3	-29.2671E-3	95.7388E-12	680.275E-3	-20.0058E-3
2.62881E-3	94.4727E-12	706.852E-3	-37.5610E-3	95.8700E-12	660.685E-3	-11.1997E-3
2.62381E-3	94.3441E-12	700.658E-3	-8.50751E-3	95.7815E-12	681.119E-3	-10.2188E-3
2.61881E-3	93.7857E-12	704.977E-3	15.9080E-3	94.9411E-12	720.224E-3	-33.8447E-3
2.61381E-3	93.7484E-12	697.237E-3	6.70808E-3	94.7965E-12	728.266E-3	-49.4995E-3
2.60880E-3	93.3460E-12	681.229E-3	-13.7047E-3	94.6045E-12	715.713E-3	-38.7981E-3
2.60380E-3	93.2886E-12	677.585E-3	-21.1159E-3	94.6267E-12	718.792E-3	-14.6736E-3
2.59880E-3	93.5869E-12	673.302E-3	-19.2334E-3	94.2482E-12	726.630E-3	7.25503E-3
2.59380E-3	93.4386E-12	671.445E-3	-10.5050E-3	93.7918E-12	712.265E-3	6.52950E-3
2.58879E-3	93.2828E-12	692.853E-3	-13.9002E-3	93.4916E-12	694.875E-3	-18.6192E-3
2.58379E-3	93.0345E-12	705.349E-3	-23.3526E-3	93.5838E-12	695.020E-3	-32.1668E-3
2.57879E-3	93.2040E-12	689.636E-3	-19.5420E-3	93.1919E-12	699.268E-3	-26.8520E-3
2.57379E-3	92.8802E-12	689.241E-3	-4.11970E-3	92.6310E-12	699.244E-3	-23.4354E-3
2.56878E-3	92.6629E-12	709.963E-3	19.4514E-3	92.1909E-12	696.564E-3	-24.2159E-3
2.56378E-3	92.1599E-12	724.668E-3	25.3025E-3	91.8385E-12	702.549E-3	-13.7351E-3
2.55878E-3	91.8042E-12	726.125E-3	14.6767E-3	91.9618E-12	710.193E-3	-8.87807E-3
2.55378E-3	91.3488E-12	709.849E-3	10.8606E-3	91.2415E-12	698.835E-3	-28.0440E-3
2.54877E-3	90.6949E-12	684.564E-3	-2.46781E-3	90.8258E-12	691.740E-3	-37.9904E-3
2.54377E-3	90.6262E-12	680.236E-3	-19.7915E-3	90.5789E-12	692.910E-3	-8.45826E-3
2.53877E-3	89.7668E-12	701.167E-3	-16.9916E-3	90.4130E-12	691.706E-3	18.7156E-3
2.53377E-3	89.6360E-12	719.094E-3	-14.6460E-3	89.9772E-12	697.829E-3	-1.18857E-3
2.52876E-3	89.1325E-12	717.251E-3	-29.5807E-3	89.9385E-12	698.308E-3	-28.5722E-3
2.52376E-3	89.1252E-12	688.860E-3	-38.2621E-3	89.7982E-12	705.942E-3	-42.9183E-3
2.51876E-3	88.6316E-12	674.723E-3	-25.5850E-3	89.6408E-12	707.896E-3	-51.8088E-3
2.51376E-3	88.5218E-12	698.393E-3	-5.31196E-3	89.8142E-12	683.915E-3	-41.7222E-3
2.50875E-3	88.6724E-12	703.208E-3	-6.14464E-3	89.8608E-12	675.063E-3	-26.5654E-3
2.50375E-3	88.7835E-12	695.160E-3	-31.4928E-3	89.9303E-12	684.042E-3	-23.8358E-3
2.49875E-3	88.6671E-12	700.031E-3	-38.7111E-3	89.7911E-12	692.613E-3	-14.9200E-3
2.49375E-3	88.3991E-12	702.624E-3	-9.69815E-3	89.6096E-12	715.623E-3	-4.15511E-3
2.48874E-3	88.3820E-12	704.934E-3	15.6558E-3	89.6113E-12	725.862E-3	-17.1500E-3
2.48374E-3	88.5384E-12	713.589E-3	16.8289E-3	89.1011E-12	708.482E-3	-25.6956E-3
2.47874E-3	88.2418E-12	714.447E-3	-3.75657E-3	88.4285E-12	707.358E-3	-7.86720E-3
2.47374E-3	87.8446E-12	698.605E-3	-22.2832E-3	87.8884E-12	709.989E-3	-3.15505E-3
2.46873E-3	87.8417E-12	695.172E-3	-20.6719E-3	87.3324E-12	694.942E-3	-19.4072E-3
2.46373E-3	87.8191E-12	707.940E-3	-11.8782E-3	86.8954E-12	695.488E-3	-31.5769E-3
2.45873E-3	87.4087E-12	712.423E-3	-17.3723E-3	86.5284E-12	705.148E-3	-33.2132E-3
2.45373E-3	87.1238E-12	707.482E-3	-31.5472E-3	85.7791E-12	697.014E-3	-19.2084E-3
2.44872E-3	86.7156E-12	707.376E-3	-22.9788E-3	85.6936E-12	691.431E-3	-4.09658E-3
2.44372E-3	86.8865E-12	704.592E-3	-18.8725E-3	85.5811E-12	706.293E-3	-11.6713E-3
2.43872E-3	86.2739E-12	712.967E-3	-35.8195E-3	85.1727E-12	718.076E-3	-24.8772E-3
2.43372E-3	85.6690E-12	734.658E-3	-40.0026E-3	85.0403E-12	716.099E-3	-25.2271E-3
2.42871E-3	85.4298E-12	728.735E-3	-27.4195E-3	85.3050E-12	708.704E-3	-26.5924E-3
2.42371E-3	85.4784E-12	707.949E-3	-9.15308E-3	85.1703E-12	707.421E-3	-21.2277E-3
2.41871E-3	85.2072E-12	711.492E-3	-1.24837E-3	85.1929E-12	709.383E-3	1.43643E-3
2.41371E-3	84.3778E-12	727.420E-3	-15.0259E-3	84.9638E-12	700.924E-3	9.27941E-3
2.40870E-3	84.1827E-12	732.129E-3	-26.6124E-3	85.2829E-12	702.304E-3	-8.54326E-3
2.40370E-3	84.2860E-12	723.305E-3	-27.1029E-3	85.6311E-12	721.252E-3	-20.0428E-3
2.39870E-3	84.3960E-12	700.918E-3	-25.0847E-3	85.0724E-12	725.197E-3	-3.78945E-3
2.39370E-3	83.9498E-12	697.071E-3	-21.5970E-3	84.7626E-12	716.509E-3	10.4635E-3
2.38869E-3	83.5848E-12	725.799E-3	-10.9922E-3	84.5624E-12	717.292E-3	-9.97275E-3
2.38369E-3	83.7640E-12	747.140E-3	-4.02092E-3	84.1442E-12	717.561E-3	-33.9371E-3
2.37869E-3	83.6892E-12	741.451E-3	-6.94073E-3	83.3919E-12	723.760E-3	-28.9185E-3
2.37369E-3	83.6593E-12	725.396E-3	3.81817E-3	82.9378E-12	730.964E-3	-14.1520E-3
2.36868E-3	83.3126E-12	719.221E-3	20.0937E-3	82.1315E-12	724.976E-3	-9.23308E-3
2.36368E-3	83.3878E-12	732.425E-3	13.5492E-3	81.9844E-12	719.996E-3	1.35916E-3
2.35868E-3	83.0740E-12	741.492E-3	-15.1684E-3	81.6586E-12	720.483E-3	10.1359E-3
2.35368E-3	83.0613E-12	731.417E-3	-30.2310E-3	81.2583E-12	722.439E-3	-1.11396E-3
2.34867E-3	82.7932E-12	711.460E-3	-19.9178E-3	81.0410E-12	730.483E-3	-12.1806E-3
2.34367E-3	81.9868E-12	706.277E-3	-5.73829E-3	81.2342E-12	743.229E-3	-15.0600E-3
2.33867E-3	81.5218E-12	735.439E-3	2.59400E-3	81.2095E-12	742.881E-3	-17.1904E-3
2.33367E-3	81.3212E-12	763.023E-3	-6.71844E-3	81.1963E-12	719.248E-3	-21.1940E-3
2.32866E-3	80.8404E-12	748.097E-3	-28.3350E-3	81.1885E-12	703.720E-3	-21.3833E-3
2.32366E-3	79.9789E-12	712.048E-3	-31.9484E-3	80.9436E-12	722.238E-3	-15.1095E-3
2.31866E-3	79.6764E-12	703.251E-3	-13.5025E-3	81.1535E-12	736.760E-3	-16.3001E-3
2.31366E-3	79.3529E-12	720.708E-3	-5.50174E-3	81.4311E-12	730.044E-3	-13.2769E-3
2.30865E-3	79.2907E-12	732.284E-3	-17.1607E-3	81.0383E-12	731.731E-3	-5.89768E-3
2.30365E-3	78.6647E-12	726.958E-3	-31.7539E-3	80.7401E-12	740.346E-3	-13.9200E-3
2.29865E-3	78.5571E-12	719.107E-3	-28.3744E-3	80.8981E-12	737.842E-3	-21.4569E-3
2.29365E-3	78.3276E-12	719.241E-3	-6.64768E-3	80.5149E-12	732.581E-3	-19.7039E-3
2.28864E-3	78.3290E-12	721.646E-3	-4.77216E-3	80.0676E-12	723.893E-3	-17.1679E-3
2.28364E-3	78.1990E-12	719.921E-3	-22.7155E-3	79.5286E-12	711.950E-3	-7.21660E-3
2.27864E-3	78.2094E-12	721.435E-3	-29.5284E-3	79.3512E-12	717.062E-3	-315.874E-6
2.27364E-3	78.1821E-12	725.513E-3	-24.8968E-3	78.8661E-12	727.144E-3	-4.36926E-3
2.26863E-3	78.1354E-12	723.930E-3	-16.7054E-3	78.1392E-12	724.009E-3	-4.26379E-3
2.26363E-3	78.2899E-12	720.535E-3	-5.96194E-3	77.6654E-12	736.324E-3	-7.19503E-3
2.25863E-3	78.3304E-12	726.479E-3	-6.09550E-3	77.2966E-12	755.025E-3	-17.1607E-3
2.25363E-3	77.8195E-12	741.500E-3	-16.6056E-3	76.7777E-12	753.341E-3	-18.8583E-3
2.24862E-3	77.3208E-12	753.313E-3	-27.0686E-3	76.1826E-12	751.154E-3	-16.5599E-3
2.24362E-3	76.9377E-12	761.685E-3	-26.3096E-3	76.1512E-12	747.744E-3	-13.9592E-3
2.23862E-3	76.8089E-12	764.874E-3	-19.1830E-3	75.7074E-12	742.438E-3	-9.49873E-3
2.23362E-3	76.1413E-12	772.849E-3	-22.3335E-3	75.6194E-12	743.776E-3	-5.18934E-3
2.22861E-3	75.7751E-12	776.342E-3	-24.1759E-3	75.6204E-12	745.141E-3	1.08004E-3
2.22361E-3	75.6762E-12	758.570E-3	-21.4385E-3	75.6282E-12	747.111E-3	3.78666E-3
2.21861E-3	75.6418E-12	743.275E-3	-26.5202E-3	75.4110E-12	755.517E-3	-8.83377E-3
2.21361E-3	74.8158E-12	743.001E-3	-28.4220E-3	75.2431E-12	766.972E-3	-33.8798E-3
2.20860E-3	74.6221E-12	746.179E-3	-19.0009E-3	74.9490E-12	765.712E-3	-40.9725E-3
2.20360E-3	74.3842E-12	740.431E-3	-7.39285E-3	74.9659E-12	744.397E-3	-26.3503E-3
2.19860E-3	74.3077E-12	734.432E-3	6.47304E-3	74.6326E-12	724.678E-3	-10.4198E-3
2.19360E-3	74.1789E-12	738.276E-3	10.3418E-3	74.5449E-12	741.517E-3	4.68103E-3
2.18859E-3	74.0285E-12	744.835E-3	-4.71146E-3	74.6206E-12	768.172E-3	7.38388E-3
2.18359E-3	73.8612E-12	755.768E-3	-16.5909E-3	74.2673E-12	769.867E-3	-3.95885E-3
2.17859E-3	73.8124E-12	770.201E-3	-15.9296E-3	73.8678E-12	755.786E-3	-8.52503E-3
2.17359E-3	74.0774E-12	775.162E-3	-20.3598E-3	73.4324E-12	746.670E-3	-16.3646E-3
2.16858E-3	73.9251E-12	769.871E-3	-15.7546E-3	73.2421E-12	753.473E-3	-41.2888E-3
2.16358E-3	73.4936E-12	765.256E-3	-4.45428E-3	72.8975E-12	752.857E-3	-60.4283E-3
2.15858E-3	72.9130E-12	761.601E-3	-11.0690E-3	72.4353E-12	753.767E-3	-40.9180E-3
2.15358E-3	72.8038E-12	755.512E-3	-13.3005E-3	72.1466E-12	768.973E-3	-5.88359E-3
2.14857E-3	72.5030E-12	748.769E-3	2.53916E-3	71.7260E-12	767.933E-3	5.04341E-3
2.14357E-3	72.0765E-12	753.588E-3	10.5477E-3	71.1100E-12	757.422E-3	98.6854E-6
2.13857E-3	71.6398E-12	763.036E-3	-796.247E-6	70.7798E-12	766.730E-3	-4.63772E-3
2.13357E-3	71.4197E-12	758.429E-3	-12.4110E-3	70.4920E-12	779.644E-3	-7.37072E-3
2.12856E-3	70.8331E-12	740.376E-3	-16.6265E-3	70.4440E-12	770.676E-3	-20.1454E-3
2.12356E-3	70.4285E-12	736.140E-3	-8.73222E-3	69.9571E-12	752.285E-3	-36.1532E-3
2.11856E-3	70.1551E-12	747.013E-3	-4.73462E-3	69.7435E-12	749.216E-3	-39.7799E-3
2.11356E-3	70.0703E-12	750.531E-3	-16.6471E-3	69.6294E-12	754.487E-3	-36.7799E-3
2.10855E-3	69.4963E-12	753.998E-3	-23.3665E-3	69.8570E-12	750.862E-3	-28.3121E-3
2.10355E-3	69.2287E-12	751.137E-3	-25.8893E-3	69.5814E-12	752.170E-3	-17.8708E-3
2.09855E-3	69.4511E-12	746.420E-3	-32.5975E-3	69.2159E-12	765.324E-3	-17.4741E-3
2.09355E-3	69.3584E-12	761.399E-3	-32.4564E-3	69.1469E-12	778.576E-3	-18.6209E-3
2.08854E-3	68.8759E-12	774.082E-3	-29.2414E-3	69.2668E-12	784.512E-3	-10.6545E-3
2.08354E-3	68.7231E-12	765.860E-3	-27.9382E-3	69.3025E-12	779.307E-3	-18.2182E-3
2.07854E-3	69.0385E-12	764.447E-3	-17.8594E-3	69.1634E-12	776.569E-3	-44.5822E-3
2.07354E-3	68.9315E-12	765.805E-3	-16.2205E-3	68.8732E-12	786.631E-3	-44.2027E-3
2.06853E-3	68.4301E-12	765.048E-3	-23.8126E-3	68.8391E-12	787.088E-3	-19.5072E-3
2.06353E-3	68.0491E-12	772.766E-3	-26.6454E-3	68.5957E-12	779.595E-3	-8.01502E-3
2.05853E-3	68.1932E-12	772.273E-3	-35.7131E-3	67.9636E-12	775.458E-3	-15.7196E-3
2.05353E-3	68.0619E-12	766.832E-3	-40.3312E-3	67.5377E-12	761.643E-3	-23.9619E-3
2.04852E-3	67.3841E-12	768.024E-3	-24.4898E-3	66.9807E-12	757.000E-3	-12.8691E-3
2.04352E-3	66.6380E-12	780.262E-3	-7.26426E-3	66.3178E-12	766.761E-3	-600.403E-6
2.03852E-3	66.6290E-12	793.123E-3	-2.10753E-3	66.0223E-12	772.145E-3	-17.0577E-3
2.03352E-3	66.7456E-12	798.309E-3	-2.42085E-3	65.6751E-12	774.980E-3	-30.6953E-3
2.02851E-3	66.0553E-12	803.349E-3	-5.54288E-3	65.4572E-12	778.416E-3	-19.9160E-3
2.02351E-3	65.4373E-12	795.851E-3	-12.7160E-3	65.3624E-12	785.339E-3	-7.15421E-3
2.01851E-3	65.2983E-12	775.520E-3	-25.8027E-3	64.6887E-12	792.372E-3	7.23647E-3
2.01351E-3	65.1419E-12	767.709E-3	-27.7328E-3	64.6004E-12	800.681E-3	8.52413E-3
2.00850E-3	64.6701E-12	774.121E-3	-12.3160E-3	64.6867E-12	799.399E-3	-8.80730E-3
2.00350E-3	64.1859E-12	777.925E-3	210.964E-6	64.5166E-12	789.890E-3	-15.1612E-3
1.99850E-3	63.9804E-12	775.052E-3	1.54730E-3	64.2405E-12	798.433E-3	-12.7656E-3
1.99350E-3	63.7307E-12	784.409E-3	-3.30713E-3	64.1101E-12	805.933E-3	-12.8063E-3
1.98849E-3	63.2736E-12	805.948E-3	-8.93713E-3	64.4615E-12	801.138E-3	-22.2636E-3
1.98349E-3	62.8323E-12	808.201E-3	-5.54171E-3	64.6158E-12	803.627E-3	-23.0990E-3
1.97849E-3	62.7677E-12	798.351E-3	3.37293E-3	64.3662E-12	798.906E-3	-4.45533E-3
1.97349E-3	62.5476E-12	793.530E-3	119.297E-6	63.9942E-12	795.704E-3	1.93750E-3
1.96848E-3	62.0957E-12	784.118E-3	-16.2866E-3	63.8407E-12	814.982E-3	-10.2347E-3
1.96348E-3	62.2174E-12	783.228E-3	-29.8510E-3	63.4404E-12	826.371E-3	-26.0459E-3
1.95848E-3	62.0944E-12	796.448E-3	-33.9034E-3	62.8915E-12	813.715E-3	-22.0479E-3
1.95348E-3	62.0108E-12	801.612E-3	-38.3189E-3	62.3370E-12	805.467E-3	2.15467E-3
1.94847E-3	61.8393E-12	803.102E-3	-38.8006E-3	61.7585E-12	805.906E-3	17.5393E-3
1.94347E-3	61.7338E-12	804.103E-3	-32.2343E-3	61.2619E-12	791.691E-3	19.9040E-3
1.93847E-3	61.3810E-12	799.741E-3	-21.5284E-3	60.6226E-12	781.273E-3	11.1672E-3
1.93347E-3	61.1462E-12	804.135E-3	-10.5876E-3	60.1804E-12	799.186E-3	-10.5789E-3
1.92846E-3	60.7800E-12	810.751E-3	-10.4082E-3	59.8773E-12	818.796E-3	-26.3271E-3
1.92346E-3	60.2002E-12	812.942E-3	-30.1520E-3	59.4178E-12	827.788E-3	-25.8879E-3
1.91846E-3	59.9154E-12	819.114E-3	-47.2793E-3	59.3044E-12	817.914E-3	-20.0838E-3
1.91346E-3	59.4885E-12	826.234E-3	-28.9856E-3	58.9506E-12	794.402E-3	-23.6474E-3
1.90845E-3	59.1279E-12	819.427E-3	-230.207E-6	58.8899E-12	799.995E-3	-20.9120E-3
1.90345E-3	58.4364E-12	802.447E-3	3.64853E-3	58.9313E-12	822.043E-3	-11.1260E-3
1.89845E-3	58.2125E-12	802.828E-3	-13.8446E-3	58.8686E-12	828.402E-3	-20.1706E-3
1.89345E-3	57.7840E-12	817.925E-3	-24.3499E-3	58.6870E-12	832.371E-3	-30.0452E-3
1.88844E-3	57.3558E-12	817.621E-3	-17.3310E-3	58.5714E-12	846.347E-3	-30.1109E-3
1.88344E-3	56.9012E-12	800.279E-3	-14.6938E-3	58.5643E-12	853.659E-3	-34.1808E-3
1.87844E-3	56.6145E-12	796.886E-3	-19.5621E-3	58.1061E-12	846.611E-3	-33.2738E-3
1.87344E-3	56.5546E-12	815.035E-3	-17.3866E-3	57.7407E-12	842.868E-3	-23.4440E-3
1.86843E-3	56.6579E-12	834.690E-3	-19.9317E-3	57.5078E-12	850.843E-3	-14.6662E-3
1.86343E-3	56.6134E-12	845.136E-3	-24.2555E-3	57.1050E-12	855.461E-3	-9.39039E-3
1.85843E-3	56.2322E-12	844.605E-3	-14.7821E-3	56.4202E-12	851.031E-3	-6.30530E-3
1.85343E-3	56.0220E-12	839.970E-3	-9.60184E-3	56.1380E-12	849.273E-3	-8.11196E-3
1.84842E-3	56.2393E-12	841.560E-3	-15.8976E-3	55.6247E-12	857.772E-3	-16.3374E-3
1.84342E-3	56.2446E-12	840.617E-3	-12.7897E-3	55.1395E-12	881.797E-3	-25.2924E-3
1.83842E-3	55.6302E-12	839.694E-3	-1.74813E-3	54.9300E-12	887.962E-3	-29.2983E-3
1.83342E-3	55.3132E-12	847.478E-3	-6.57625E-3	54.8120E-12	870.865E-3	-28.6233E-3
1.82841E-3	55.3691E-12	851.416E-3	-18.7994E-3	54.4819E-12	861.038E-3	-26.0569E-3
1.82341E-3	55.4149E-12	849.263E-3	-24.4267E-3	54.2245E-12	860.494E-3	-29.3770E-3
1.81841E-3	54.5318E-12	856.376E-3	-18.9237E-3	54.0356E-12	863.384E-3	-29.1236E-3
1.81341E-3	53.7642E-12	873.394E-3	-13.4650E-3	53.7571E-12	873.594E-3	-16.3529E-3
1.80840E-3	53.4615E-12	881.848E-3	-20.2372E-3	53.5566E-12	882.535E-3	-13.0153E-3
1.80340E-3	53.2629E-12	883.721E-3	-21.9667E-3	53.4146E-12	874.777E-3	-23.8634E-3
1.79840E-3	52.7311E-12	881.008E-3	-15.0637E-3	53.4645E-12	871.882E-3	-30.8684E-3
1.79340E-3	52.2350E-12	872.325E-3	-11.3476E-3	53.1353E-12	883.605E-3	-31.7470E-3
1.78839E-3	52.1558E-12	870.785E-3	-7.34762E-3	52.6486E-12	886.842E-3	-19.8144E-3
1.78339E-3	52.2573E-12	878.616E-3	-6.70537E-3	52.3992E-12	878.392E-3	-5.37334E-3
1.77839E-3	52.1181E-12	888.758E-3	-15.9540E-3	52.5202E-12	884.786E-3	-6.56444E-3
1.77339E-3	51.8196E-12	885.510E-3	-20.3913E-3	52.0380E-12	906.512E-3	611.537E-6
1.76838E-3	51.4414E-12	883.161E-3	-10.7966E-3	51.6079E-12	922.638E-3	15.2743E-3
1.76338E-3	51.7240E-12	913.343E-3	-4.05041E-3	51.3820E-12	920.479E-3	12.1877E-3
1.75838E-3	51.2504E-12	937.873E-3	-10.5109E-3	50.8618E-12	905.972E-3	6.48022E-3
1.75338E-3	50.9541E-12	926.223E-3	-16.3532E-3	50.7925E-12	909.627E-3	11.8614E-3
1.74837E-3	50.8172E-12	916.515E-3	-23.3112E-3	50.3806E-12	924.119E-3	758.117E-6
1.74337E-3	50.6328E-12	925.584E-3	-25.2581E-3	50.0864E-12	929.857E-3	-18.9191E-3
1.73837E-3	50.3563E-12	934.933E-3	-27.9695E-3	49.9938E-12	937.803E-3	-16.8096E-3
1.73337E-3	49.8727E-12	937.996E-3	-40.1524E-3	49.9689E-12	934.686E-3	-10.7148E-3
1.72836E-3	49.7128E-12	938.793E-3	-33.4793E-3	49.4072E-12	914.907E-3	-11.7206E-3
1.72336E-3	49.0750E-12	933.978E-3	-20.2935E-3	49.0136E-12	907.440E-3	-19.6600E-3
1.71836E-3	48.4934E-12	931.677E-3	-14.6098E-3	48.6906E-12	917.374E-3	-29.6023E-3
1.71336E-3	48.1417E-12	938.952E-3	-6.74261E-3	48.3789E-12	927.193E-3	-28.7777E-3
1.70835E-3	47.7943E-12	943.259E-3	-10.2264E-3	47.9497E-12	936.748E-3	-25.1342E-3
1.70335E-3	47.2241E-12	946.211E-3	-23.2837E-3	47.4510E-12	952.542E-3	-27.0971E-3
1.69835E-3	46.6039E-12	941.783E-3	-27.4935E-3	46.8863E-12	955.995E-3	-21.8421E-3
1.69335E-3	46.3576E-12	927.117E-3	-17.8364E-3	46.5161E-12	950.298E-3	-4.00595E-3
1.68834E-3	46.0072E-12	929.677E-3	1.44410E-3	46.0250E-12	959.699E-3	-2.29320E-3
1.68334E-3	45.7656E-12	947.345E-3	15.3365E-3	45.7358E-12	973.388E-3	-16.5327E-3
1.67834E-3	45.3900E-12	961.294E-3	8.39409E-3	45.3148E-12	975.158E-3	-18.2104E-3
1.67334E-3	45.2870E-12	974.799E-3	-534.686E-6	45.1913E-12	971.451E-3	-18.5992E-3
1.66833E-3	45.1068E-12	976.623E-3	1.90669E-3	44.9363E-12	972.960E-3	-24.8371E-3
1.66333E-3	45.1511E-12	970.232E-3	-9.87975E-3	45.0295E-12	996.655E-3	-22.4182E-3
1.65833E-3	44.5954E-12	977.939E-3	-28.3945E-3	44.6112E-12	1.02478E+0	-21.0147E-3
1.65333E-3	44.3408E-12	987.708E-3	-26.3718E-3	44.4474E-12	1.01878E+0	-25.8026E-3
1.64832E-3	43.9989E-12	991.046E-3	-16.1970E-3	44.2708E-12	1.00852E+0	-19.3153E-3
1.64332E-3	43.8122E-12	999.191E-3	-4.15610E-3	44.1372E-12	1.02208E+0	-5.66595E-3
1.63832E-3	43.4872E-12	1.01107E+0	4.07132E-3	43.7658E-12	1.03822E+0	602.757E-6
1.63332E-3	43.0008E-12	1.01313E+0	-3.12412E-3	43.3622E-12	1.04669E+0	-794.241E-6
1.62831E-3	42.9483E-12	1.01177E+0	-7.02946E-3	43.1926E-12	1.05504E+0	-3.07155E-3
1.62331E-3	42.3015E-12	1.02643E+0	-7.41039E-3	42.7450E-12	1.06420E+0	-9.07049E-3
1.61831E-3	41.7942E-12	1.04712E+0	-22.3936E-3	42.0742E-12	1.05492E+0	-17.6868E-3
1.61331E-3	41.2980E-12	1.04775E+0	-28.4947E-3	41.4591E-12	1.03527E+0	-28.0307E-3
1.60830E-3	41.2029E-12	1.02479E+0	-13.3944E-3	40.9547E-12	1.02806E+0	-46.0939E-3
1.60330E-3	40.6318E-12	1.00992E+0	696.228E-6	40.5386E-12	1.03595E+0	-48.0885E-3
1.59830E-3	40.1349E-12	1.01702E+0	-1.82823E-3	40.0295E-12	1.05102E+0	-23.4952E-3
1.59330E-3	39.7426E-12	1.02830E+0	-14.0479E-3	39.9788E-12	1.05426E+0	-4.53637E-3
1.58829E-3	39.3456E-12	1.03750E+0	-13.4283E-3	39.5005E-12	1.04871E+0	5.79436E-3
1.58329E-3	39.3165E-12	1.03933E+0	-15.9760E-3	39.0047E-12	1.05847E+0	2.15608E-3
1.57829E-3	38.7867E-12	1.04089E+0	-32.1895E-3	38.8866E-12	1.08356E+0	-13.4723E-3
1.57329E-3	38.4933E-12	1.04952E+0	-33.2051E-3	39.0858E-12	1.10046E+0	-13.7345E-3
1.56828E-3	38.0298E-12	1.05447E+0	-23.7786E-3	38.6376E-12	1.10650E+0	-8.14492E-3
1.56328E-3	37.7653E-12	1.04949E+0	-26.9168E-3	38.2384E-12	1.10889E+0	-13.7797E-3
1.55828E-3	37.6200E-12	1.05554E+0	-26.1705E-3	37.7315E-12	1.10126E+0	-23.5415E-3
1.55328E-3	37.2847E-12	1.06876E+0	-10.9098E-3	37.4679E-12	1.09139E+0	-20.7363E-3
1.54827E-3	36.7647E-12	1.06576E+0	-3.09854E-3	37.3443E-12	1.09523E+0	-15.5258E-3
1.54327E-3	36.2025E-12	1.06934E+0	-4.43270E-3	36.7574E-12	1.11411E+0	-17.9592E-3
1.53827E-3	36.1945E-12	1.08195E+0	-1.00149E-3	36.0302E-12	1.12326E+0	-10.2477E-3
1.53327E-3	36.2518E-12	1.09663E+0	2.56048E-3	35.6247E-12	1.10865E+0	-10.4811E-3
1.52826E-3	35.6381E-12	1.11619E+0	-5.56247E-3	35.3243E-12	1.09429E+0	-23.6032E-3
1.52326E-3	35.0496E-12	1.11918E+0	-14.3145E-3	34.4881E-12	1.09041E+0	-15.5702E-3
1.51826E-3	34.7088E-12	1.11375E+0	-13.0408E-3	33.9073E-12	1.09642E+0	2.90072E-3
1.51326E-3	34.5154E-12	1.11991E+0	-17.4679E-3	33.6884E-12	1.10009E+0	-322.754E-6
1.50825E-3	34.2573E-12	1.12800E+0	-29.7341E-3	33.4569E-12	1.09547E+0	-15.3997E-3
1.50325E-3	33.8212E-12	1.12975E+0	-29.7307E-3	33.0730E-12	1.11032E+0	-20.3504E-3
1.49825E-3	33.1898E-12	1.12653E+0	-30.6192E-3	32.5359E-12	1.13342E+0	-13.4382E-3
1.49325E-3	32.7665E-12	1.12255E+0	-37.6581E-3	32.1624E-12	1.13519E+0	-1.91344E-3
1.48824E-3	32.5822E-12	1.12189E+0	-29.5845E-3	31.9808E-12	1.13232E+0	-14.3625E-3
1.48324E-3	32.2020E-12	1.11799E+0	-7.13584E-3	32.1592E-12	1.12758E+0	-26.1748E-3
1.47824E-3	31.7018E-12	1.11434E+0	6.36520E-3	31.6874E-12	1.11769E+0	-6.92119E-3
1.47324E-3	31.2614E-12	1.11597E+0	-5.96032E-3	31.2071E-12	1.11996E+0	-1.25096E-3
1.46823E-3	30.7761E-12	1.11635E+0	-22.0472E-3	30.9628E-12	1.12899E+0	-14.8486E-3
1.46323E-3	30.5792E-12	1.12070E+0	-24.7453E-3	30.7615E-12	1.13043E+0	-21.8173E-3
1.45823E-3	30.1381E-12	1.13208E+0	-17.7359E-3	30.4369E-12	1.13015E+0	-19.1667E-3
1.45323E-3	29.8788E-12	1.13793E+0	-8.18826E-3	29.7514E-12	1.13222E+0	-15.4097E-3
1.44822E-3	29.4130E-12	1.11858E+0	-4.89074E-3	29.5118E-12	1.12646E+0	-11.5044E-3
1.44322E-3	29.0509E-12	1.09905E+0	-8.63144E-3	29.1501E-12	1.11658E+0	-4.60198E-3
1.43822E-3	28.7755E-12	1.10470E+0	-17.7304E-3	28.6847E-12	1.10376E+0	-16.2872E-3
1.43322E-3	28.5522E-12	1.11502E+0	-25.6303E-3	28.0474E-12	1.08274E+0	-27.5320E-3
1.42821E-3	28.1288E-12	1.11736E+0	-17.7559E-3	27.5807E-12	1.07664E+0	-21.2557E-3
1.42321E-3	27.7944E-12	1.11683E+0	-226.466E-6	27.0960E-12	1.09380E+0	-22.3607E-3
1.41821E-3	27.4014E-12	1.12451E+0	2.19254E-3	26.6969E-12	1.10017E+0	-28.3101E-3
1.41321E-3	27.0530E-12	1.13331E+0	-7.40414E-3	26.3659E-12	1.08895E+0	-27.4902E-3
1.40820E-3	26.7503E-12	1.13089E+0	-21.7176E-3	26.0090E-12	1.08419E+0	-22.4378E-3
1.40320E-3	26.4446E-12	1.12356E+0	-30.2954E-3	25.7368E-12	1.08597E+0	-10.2874E-3
1.39820E-3	26.1264E-12	1.11739E+0	-21.7789E-3	25.4998E-12	1.08717E+0	4.63245E-3
1.39320E-3	25.7523E-12	1.11709E+0	-8.89404E-3	25.3810E-12	1.08768E+0	-3.05170E-3
1.38819E-3	25.4304E-12	1.12215E+0	-7.29171E-3	24.8007E-12	1.07943E+0	-18.5881E-3
1.38319E-3	24.8200E-12	1.10790E+0	-11.9050E-3	24.4082E-12	1.06451E+0	-20.0031E-3
1.37819E-3	24.2658E-12	1.07742E+0	-3.64295E-3	24.0702E-12	1.06024E+0	-20.2728E-3
1.37319E-3	23.9337E-12	1.06799E+0	3.71948E-3	24.1118E-12	1.05135E+0	-20.3606E-3
1.36818E-3	23.7513E-12	1.07177E+0	-3.37943E-3	23.6301E-12	1.02783E+0	-9.06728E-3
1.36318E-3	23.2983E-12	1.05889E+0	-3.79161E-3	22.9900E-12	1.01151E+0	-5.60029E-3
1.35818E-3	22.8791E-12	1.04305E+0	-9.75662E-3	22.6259E-12	998.194E-3	-26.5398E-3
1.35318E-3	22.3820E-12	1.04215E+0	-29.9710E-3	22.7421E-12	994.831E-3	-36.9620E-3
1.34817E-3	22.2324E-12	1.03707E+0	-26.6105E-3	22.3002E-12	1.00904E+0	-20.0928E-3
1.34317E-3	22.1326E-12	1.02642E+0	-8.17680E-3	21.5807E-12	998.357E-3	-1.84482E-3
1.33817E-3	21.6008E-12	1.02296E+0	3.81403E-3	21.2127E-12	968.860E-3	7.02762E-3
1.33317E-3	21.3756E-12	1.02298E+0	7.79223E-3	21.2907E-12	967.573E-3	3.72642E-3
1.32816E-3	21.4645E-12	1.01765E+0	-1.67460E-3	21.2263E-12	968.693E-3	-11.0764E-3
1.32316E-3	21.0383E-12	1.00657E+0	-8.18423E-3	20.3956E-12	948.149E-3	-15.4379E-3
1.31816E-3	20.5920E-12	998.438E-3	-10.9347E-3	19.9670E-12	930.880E-3	-14.6682E-3
1.31316E-3	20.3638E-12	994.843E-3	-24.7099E-3	20.1399E-12	914.441E-3	-26.8202E-3
1.30815E-3	20.3372E-12	991.307E-3	-33.2685E-3	20.1760E-12	889.455E-3	-26.2546E-3
1.30315E-3	19.8556E-12	982.061E-3	-23.0249E-3	19.5857E-12	872.327E-3	-9.95347E-3
1.29815E-3	19.2101E-12	953.200E-3	-7.51725E-3	19.0838E-12	864.518E-3	-4.75252E-3
1.29315E-3	18.9323E-12	919.132E-3	1.81237E-3	18.8842E-12	851.829E-3	-1.11103E-3
1.28814E-3	18.5047E-12	906.839E-3	1.56743E-3	18.6335E-12	837.386E-3	-1.69717E-3
1.28314E-3	18.4866E-12	903.809E-3	-10.1987E-3	18.2048E-12	818.355E-3	-20.5943E-3
1.27814E-3	18.0422E-12	899.571E-3	-24.9612E-3	17.7580E-12	800.744E-3	-34.1645E-3
1.27314E-3	17.6890E-12	881.743E-3	-27.1519E-3	17.5250E-12	801.938E-3	-31.2792E-3
1.26813E-3	17.0878E-12	849.447E-3	-18.1749E-3	17.2445E-12	805.849E-3	-19.6534E-3
1.26313E-3	16.7059E-12	834.584E-3	-12.2246E-3	16.9247E-12	792.255E-3	-4.90184E-3
1.25813E-3	16.6262E-12	823.058E-3	-16.8150E-3	16.7153E-12	774.584E-3	-781.721E-6
1.25313E-3	16.4644E-12	800.991E-3	-29.4055E-3	16.3120E-12	760.745E-3	-11.9546E-3
1.24812E-3	16.3106E-12	781.282E-3	-36.8046E-3	15.9839E-12	739.302E-3	-20.1706E-3
1.24312E-3	15.8572E-12	756.314E-3	-25.9568E-3	15.6208E-12	718.183E-3	-12.3263E-3
1.23812E-3	15.8026E-12	742.171E-3	-17.6356E-3	15.7275E-12	704.879E-3	-6.26077E-3
1.23312E-3	15.9451E-12	737.956E-3	-23.1911E-3	15.4923E-12	684.394E-3	-17.7901E-3
1.22811E-3	15.5179E-12	720.410E-3	-24.4393E-3	15.0282E-12	659.996E-3	-32.3378E-3
1.22311E-3	15.2193E-12	702.522E-3	-16.9721E-3	14.7423E-12	648.241E-3	-36.5786E-3
1.21811E-3	15.0921E-12	705.495E-3	-7.53673E-3	14.7884E-12	640.788E-3	-29.5162E-3
1.21311E-3	15.1476E-12	710.365E-3	-7.32224E-3	14.5239E-12	618.246E-3	-18.0252E-3
1.20810E-3	14.9045E-12	695.937E-3	-9.67903E-3	14.1262E-12	581.264E-3	-19.1882E-3
1.20310E-3	14.6102E-12	675.196E-3	-3.96411E-3	13.8522E-12	554.290E-3	-21.2945E-3
1.19810E-3	14.1406E-12	652.601E-3	-835.492E-6	13.7754E-12	546.175E-3	-17.2925E-3
1.19310E-3	14.1794E-12	620.395E-3	-3.74533E-3	13.8128E-12	543.340E-3	-20.2272E-3
1.18809E-3	13.9044E-12	599.538E-3	-11.0848E-3	13.5911E-12	530.992E-3	-15.7700E-3
1.18309E-3	13.5061E-12	598.346E-3	-18.8794E-3	13.0162E-12	512.408E-3	-10.8399E-3
1.17809E-3	13.4332E-12	584.139E-3	-24.3205E-3	12.9528E-12	496.546E-3	-20.9636E-3
1.17309E-3	13.1074E-12	557.327E-3	-23.9296E-3	12.9310E-12	480.444E-3	-31.0497E-3
1.16808E-3	13.0387E-12	544.810E-3	-8.32294E-3	12.6646E-12	470.767E-3	-24.1018E-3
1.16308E-3	12.8801E-12	545.159E-3	1.02044E-3	12.3073E-12	475.800E-3	-16.6199E-3
1.15808E-3	12.7987E-12	533.752E-3	-1.65796E-3	12.3697E-12	467.132E-3	-30.0625E-3
1.15308E-3	12.3403E-12	508.929E-3	3.17640E-3	12.3117E-12	434.621E-3	-33.3399E-3
1.14807E-3	12.2591E-12	485.461E-3	-5.27533E-3	12.2175E-12	414.110E-3	-14.7603E-3
1.14307E-3	12.2016E-12	460.928E-3	-25.8352E-3	11.9602E-12	404.774E-3	-7.54472E-3
1.13807E-3	12.0529E-12	445.128E-3	-29.2960E-3	11.8863E-12	389.948E-3	-18.5575E-3
1.13307E-3	11.8414E-12	442.188E-3	-16.2826E-3	11.6745E-12	382.991E-3	-29.3776E-3
1.12806E-3	11.4254E-12	434.129E-3	-3.50595E-3	11.5299E-12	376.019E-3	-29.7260E-3
1.12306E-3	11.6024E-12	414.161E-3	-7.24935E-3	11.6915E-12	352.616E-3	-20.8984E-3
1.11806E-3	11.4684E-12	389.235E-3	-14.4180E-3	11.3276E-12	337.947E-3	-8.68838E-3
1.11306E-3	11.5370E-12	377.015E-3	-14.5780E-3	11.0867E-12	336.634E-3	-14.1481E-3
1.10805E-3	11.0865E-12	375.432E-3	-13.0198E-3	10.9457E-12	320.787E-3	-32.3886E-3
1.10305E-3	10.9650E-12	366.185E-3	-15.9282E-3	10.8199E-12	301.562E-3	-31.5807E-3
1.09805E-3	11.0660E-12	356.207E-3	-22.2740E-3	10.8577E-12	290.943E-3	-21.1392E-3
1.09305E-3	11.0987E-12	347.927E-3	-21.5544E-3	10.4643E-12	273.802E-3	-19.2262E-3
1.08804E-3	10.6860E-12	331.751E-3	-19.8509E-3	10.2187E-12	262.043E-3	-7.01400E-3
1.08304E-3	10.6239E-12	313.501E-3	-16.0657E-3	10.3226E-12	259.698E-3	9.69563E-3
1.07804E-3	10.5529E-12	303.728E-3	-11.3393E-3	10.3381E-12	252.799E-3	3.56707E-3
1.07304E-3	10.7337E-12	304.826E-3	-19.4525E-3	10.2119E-12	247.090E-3	-12.1613E-3
1.06803E-3	10.7407E-12	301.990E-3	-24.5046E-3	9.83747E-12	245.481E-3	-19.8449E-3
1.06303E-3	10.1772E-12	282.271E-3	-13.9642E-3	9.91802E-12	234.843E-3	-23.3502E-3
1.05803E-3	10.0741E-12	263.236E-3	-7.65529E-3	10.1948E-12	225.107E-3	-19.0103E-3
1.05303E-3	10.1059E-12	256.615E-3	-7.38715E-3	10.3083E-12	229.679E-3	-12.9006E-3
1.04802E-3	10.0578E-12	246.508E-3	-1.01906E-3	9.84512E-12	225.711E-3	-16.6877E-3
1.04302E-3	10.1435E-12	231.969E-3	1.10215E-3	9.79680E-12	208.530E-3	-5.58453E-3
1.03802E-3	9.73783E-12	231.257E-3	-5.23784E-3	10.1132E-12	201.317E-3	6.59549E-3
1.03302E-3	9.47684E-12	236.867E-3	-3.10345E-3	10.1919E-12	193.179E-3	-11.6721E-3
1.02801E-3	9.52123E-12	224.202E-3	4.02101E-3	9.65227E-12	169.147E-3	-20.7383E-3
1.02301E-3	9.56493E-12	206.128E-3	4.20878E-3	9.34153E-12	157.302E-3	-6.33601E-3
1.01801E-3	9.38438E-12	205.912E-3	2.38204E-3	9.41014E-12	156.714E-3	1.55177E-3
1.01301E-3	8.92728E-12	200.119E-3	-2.45565E-3	9.48146E-12	152.536E-3	1.87646E-3
1.00800E-3	8.97770E-12	173.412E-3	-6.16679E-3	9.21216E-12	155.837E-3	-5.04687E-3
1.00300E-3	9.25405E-12	160.237E-3	-43.7881E-6	8.96154E-12	159.671E-3	-16.5853E-3
997.999E-6	9.28051E-12	166.854E-3	-482.082E-6	8.93893E-12	146.226E-3	-16.7141E-3
992.997E-6	8.83650E-12	152.556E-3	-16.8073E-3	8.86718E-12	132.738E-3	-23.2286E-3
987.994E-6	8.55510E-12	132.823E-3	-33.0955E-3	8.83039E-12	133.680E-3	-36.2437E-3
982.991E-6	8.78847E-12	135.130E-3	-35.0549E-3	8.70535E-12	127.518E-3	-23.1841E-3
977.989E-6	9.15095E-12	138.380E-3	-26.2335E-3	8.54678E-12	128.348E-3	-941.127E-6
972.986E-6	9.02243E-12	135.766E-3	-26.2300E-3	8.50399E-12	140.905E-3	-4.07681E-3
967.984E-6	8.45950E-12	141.346E-3	-32.5002E-3	8.64905E-12	133.915E-3	-22.0007E-3
962.981E-6	8.44936E-12	151.569E-3	-28.3559E-3	8.59833E-12	127.797E-3	-32.6212E-3
957.979E-6	8.59444E-12	154.956E-3	-18.1930E-3	8.33556E-12	130.666E-3	-34.5674E-3
952.976E-6	8.67694E-12	144.457E-3	-12.5955E-3	8.35807E-12	114.373E-3	-30.3932E-3
947.974E-6	8.42092E-12	121.387E-3	-8.92506E-3	8.63615E-12	104.991E-3	-28.1253E-3
942.971E-6	8.26867E-12	107.282E-3	-5.73797E-3	8.73524E-12	130.023E-3	-35.4388E-3
937.969E-6	8.40485E-12	105.608E-3	-5.27501E-3	8.44570E-12	149.078E-3	-37.4772E-3
932.966E-6	8.49974E-12	110.983E-3	-10.0371E-3	8.24624E-12	140.700E-3	-29.9020E-3
927.964E-6	8.45853E-12	119.717E-3	-20.6299E-3	8.35490E-12	134.241E-3	-27.7269E-3
922.961E-6	8.12782E-12	116.308E-3	-25.3219E-3	8.51618E-12	138.739E-3	-29.7615E-3
917.959E-6	8.24361E-12	103.541E-3	-20.3516E-3	8.11031E-12	132.853E-3	-24.2575E-3
912.956E-6	8.32510E-12	98.2002E-3	-16.1825E-3	7.92660E-12	118.870E-3	-17.3284E-3
907.954E-6	8.27754E-12	105.728E-3	-25.2213E-3	8.03773E-12	112.269E-3	-11.3761E-3
902.951E-6	8.26812E-12	108.412E-3	-40.7817E-3	8.26826E-12	102.528E-3	-14.6569E-3
897.949E-6	8.05137E-12	98.3218E-3	-45.7885E-3	7.84977E-12	89.7462E-3	-29.7836E-3
892.946E-6	8.20620E-12	95.3940E-3	-33.1032E-3	7.62834E-12	89.1291E-3	-32.4410E-3
887.944E-6	8.13213E-12	101.705E-3	-9.62757E-3	7.87122E-12	107.712E-3	-18.8772E-3
882.941E-6	8.18577E-12	108.197E-3	4.56914E-3	7.90741E-12	128.889E-3	-10.6938E-3
877.939E-6	7.94914E-12	119.493E-3	7.62952E-3	7.70079E-12	143.280E-3	-18.2022E-3
872.936E-6	8.04794E-12	126.731E-3	798.898E-6	7.60748E-12	155.141E-3	-17.4267E-3
867.934E-6	7.81504E-12	127.853E-3	-16.2091E-3	7.80994E-12	149.083E-3	-7.27801E-3
862.931E-6	7.88135E-12	140.201E-3	-19.8310E-3	7.62213E-12	134.061E-3	-8.73764E-3
857.929E-6	7.79157E-12	149.425E-3	-12.9717E-3	7.56973E-12	124.100E-3	-9.74588E-3
852.926E-6	7.49650E-12	145.239E-3	-17.4306E-3	7.56438E-12	110.164E-3	-12.6695E-3
847.924E-6	7.50556E-12	143.715E-3	-24.4041E-3	7.51533E-12	103.292E-3	-24.9041E-3
842.921E-6	7.53444E-12	134.465E-3	-25.3239E-3	7.54225E-12	113.950E-3	-22.3448E-3
837.919E-6	7.54923E-12	113.186E-3	-23.6328E-3	7.38923E-12	134.033E-3	-10.4771E-3
832.916E-6	7.26161E-12	108.657E-3	-26.9953E-3	7.35291E-12	137.231E-3	-6.78340E-3
827.914E-6	7.34381E-12	121.831E-3	-20.7654E-3	7.35933E-12	125.680E-3	-328.509E-6
822.911E-6	7.58614E-12	129.789E-3	-11.6520E-3	7.38563E-12	137.327E-3	48.5920E-6
817.909E-6	7.48588E-12	128.506E-3	-20.4742E-3	7.20096E-12	159.914E-3	-23.1180E-3
812.906E-6	7.16596E-12	133.580E-3	-19.3390E-3	7.15920E-12	163.601E-3	-41.8304E-3
807.904E-6	7.23349E-12	147.593E-3	-6.42279E-3	7.27161E-12	158.100E-3	-31.9470E-3
802.901E-6	7.34072E-12	160.915E-3	3.25045E-3	7.11607E-12	162.091E-3	-17.2371E-3
797.899E-6	7.16257E-12	166.719E-3	-115.749E-6	6.94900E-12	166.612E-3	-14.6640E-3
792.896E-6	7.10704E-12	150.005E-3	-15.9351E-3	6.95536E-12	164.804E-3	-14.0230E-3
787.894E-6	7.16389E-12	145.701E-3	-23.4391E-3	7.08451E-12	170.867E-3	-20.4914E-3
782.891E-6	7.07070E-12	159.960E-3	-22.3645E-3	6.97624E-12	175.822E-3	-29.5745E-3
777.889E-6	7.00054E-12	159.213E-3	-25.5381E-3	6.86860E-12	171.601E-3	-29.7023E-3
772.886E-6	7.01790E-12	161.314E-3	-28.8968E-3	6.74389E-12	176.180E-3	-20.3729E-3
767.884E-6	6.86594E-12	168.457E-3	-25.4836E-3	6.70138E-12	186.046E-3	-6.32867E-3
762.881E-6	6.73772E-12	167.761E-3	-24.7850E-3	6.67561E-12	186.446E-3	-7.61989E-3
757.879E-6	6.69151E-12	170.975E-3	-25.0176E-3	6.62103E-12	183.722E-3	-21.8706E-3
752.876E-6	6.72614E-12	175.526E-3	-11.0122E-3	6.62021E-12	181.464E-3	-23.6823E-3
747.874E-6	6.49713E-12	174.301E-3	-1.48951E-3	6.45829E-12	182.532E-3	-11.1689E-3
742.871E-6	6.46427E-12	185.127E-3	-12.7057E-3	6.47210E-12	193.031E-3	-9.31414E-3
737.869E-6	6.46540E-12	192.449E-3	-16.4291E-3	6.45548E-12	202.325E-3	-13.2395E-3
732.866E-6	6.45977E-12	174.781E-3	-12.9157E-3	6.47408E-12	201.908E-3	-8.38666E-3
727.864E-6	6.22013E-12	169.598E-3	-25.2712E-3	6.23895E-12	201.799E-3	-9.73586E-3
722.861E-6	6.18786E-12	188.027E-3	-38.8158E-3	6.11228E-12	209.432E-3	-21.2643E-3
717.859E-6	6.21343E-12	198.249E-3	-35.6756E-3	6.22071E-12	221.756E-3	-18.8192E-3
712.856E-6	6.18292E-12	197.729E-3	-22.3717E-3	6.32204E-12	231.356E-3	-7.42754E-3
707.854E-6	6.04707E-12	200.459E-3	-13.8281E-3	6.29495E-12	230.513E-3	-11.8589E-3
702.851E-6	5.79265E-12	199.167E-3	-15.3690E-3	5.93939E-12	221.508E-3	-13.7238E-3
697.849E-6	5.81434E-12	200.950E-3	-23.4986E-3	5.90614E-12	211.970E-3	-6.71050E-3
692.846E-6	5.73476E-12	209.423E-3	-27.6071E-3	6.12122E-12	207.678E-3	-8.48737E-3
687.844E-6	5.66145E-12	203.326E-3	-18.4432E-3	5.92390E-12	210.678E-3	-7.98387E-3
682.841E-6	5.58095E-12	195.244E-3	-11.5605E-3	5.61807E-12	224.781E-3	-2.02911E-3
677.839E-6	5.61188E-12	204.610E-3	-14.0666E-3	5.49912E-12	238.062E-3	-4.24775E-3
672.836E-6	5.60943E-12	211.595E-3	-17.7994E-3	5.68650E-12	224.659E-3	-1.99175E-3
667.834E-6	5.37568E-12	202.750E-3	-30.7182E-3	5.71031E-12	216.880E-3	969.962E-6
662.831E-6	5.24632E-12	201.825E-3	-40.1913E-3	5.42277E-12	229.486E-3	-12.4476E-3
657.829E-6	5.27608E-12	211.630E-3	-15.5381E-3	5.11013E-12	221.391E-3	-19.3728E-3
652.826E-6	5.28508E-12	223.915E-3	10.3562E-3	5.25984E-12	205.109E-3	-12.2965E-3
647.824E-6	5.06378E-12	235.242E-3	-3.63279E-3	5.33055E-12	205.069E-3	-16.5636E-3
642.821E-6	5.08967E-12	228.684E-3	-21.8136E-3	5.15793E-12	215.487E-3	-22.9183E-3
637.819E-6	5.13903E-12	218.467E-3	-13.8634E-3	5.10506E-12	232.261E-3	-15.1987E-3
632.816E-6	5.04840E-12	229.951E-3	-10.0796E-3	4.82638E-12	240.167E-3	-15.9046E-3
627.814E-6	4.89204E-12	246.360E-3	-15.4026E-3	4.95817E-12	237.491E-3	-28.9687E-3
622.811E-6	4.77697E-12	249.525E-3	-15.5076E-3	4.94376E-12	239.755E-3	-30.5605E-3
617.809E-6	4.68158E-12	248.425E-3	-19.3124E-3	4.79075E-12	246.156E-3	-23.4468E-3
612.806E-6	4.59609E-12	239.767E-3	-15.8833E-3	4.46982E-12	246.977E-3	-19.7577E-3
607.804E-6	4.68078E-12	227.496E-3	-2.90023E-3	4.42853E-12	240.816E-3	-10.1117E-3
602.801E-6	4.47102E-12	236.133E-3	1.47088E-3	4.69614E-12	233.556E-3	1.82598E-3
597.799E-6	4.36019E-12	242.671E-3	-5.18190E-3	4.58198E-12	226.831E-3	3.78510E-3
592.796E-6	4.37163E-12	226.471E-3	-11.0657E-3	4.27966E-12	229.020E-3	-810.913E-6
587.794E-6	4.43852E-12	220.225E-3	-17.8702E-3	4.06735E-12	246.299E-3	-10.2350E-3
582.791E-6	4.24501E-12	233.462E-3	-19.0972E-3	4.20295E-12	256.304E-3	-20.5157E-3
577.789E-6	4.01835E-12	241.762E-3	-8.74948E-3	4.31665E-12	248.680E-3	-21.9179E-3
572.786E-6	4.00129E-12	242.491E-3	-7.05466E-3	4.16197E-12	248.515E-3	-18.7427E-3
567.784E-6	4.03611E-12	246.854E-3	-12.6143E-3	3.85371E-12	253.230E-3	-16.9008E-3
562.781E-6	4.01501E-12	244.343E-3	-10.6467E-3	3.88122E-12	242.979E-3	-14.1423E-3
557.779E-6	3.81594E-12	246.507E-3	-11.8695E-3	3.89842E-12	235.090E-3	-18.7772E-3
552.776E-6	3.59418E-12	265.662E-3	-21.4517E-3	3.78296E-12	236.314E-3	-19.8985E-3
547.774E-6	3.54475E-12	262.289E-3	-25.7625E-3	3.59178E-12	237.886E-3	-7.77071E-3
542.771E-6	3.60834E-12	240.952E-3	-25.6438E-3	3.49858E-12	241.447E-3	-8.29475E-3
537.769E-6	3.49703E-12	243.137E-3	-26.3440E-3	3.58366E-12	234.801E-3	-23.6236E-3
532.766E-6	3.28787E-12	246.361E-3	-26.7506E-3	3.47273E-12	220.979E-3	-23.0244E-3
527.764E-6	3.34844E-12	234.392E-3	-23.9912E-3	3.30700E-12	222.630E-3	-10.2054E-3
522.761E-6	3.23356E-12	235.186E-3	-18.6987E-3	3.19044E-12	239.382E-3	-16.8702E-3
517.759E-6	3.22453E-12	233.535E-3	-17.4165E-3	3.08128E-12	250.450E-3	-27.1542E-3
512.756E-6	3.09903E-12	223.752E-3	-22.1114E-3	3.02382E-12	241.618E-3	-17.2593E-3
507.754E-6	2.91199E-12	235.294E-3	-24.1350E-3	3.05926E-12	227.982E-3	-15.2532E-3
502.751E-6	2.87746E-12	249.147E-3	-16.8039E-3	2.96171E-12	214.735E-3	-19.7373E-3
497.749E-6	2.90000E-12	243.738E-3	-13.5262E-3	2.70553E-12	201.398E-3	-16.7130E-3
492.746E-6	2.88170E-12	233.682E-3	-24.2793E-3	2.67458E-12	200.257E-3	-23.7609E-3
487.744E-6	2.67247E-12	223.017E-3	-34.7391E-3	2.81059E-12	198.946E-3	-26.0657E-3
482.741E-6	2.59033E-12	202.654E-3	-32.8026E-3	2.72507E-12	196.897E-3	-22.4241E-3
477.739E-6	2.61443E-12	196.466E-3	-24.2996E-3	2.46232E-12	209.161E-3	-31.5810E-3
472.736E-6	2.55932E-12	214.714E-3	-18.1674E-3	2.43012E-12	213.199E-3	-34.1726E-3
467.734E-6	2.31393E-12	219.895E-3	-21.9403E-3	2.47515E-12	200.691E-3	-21.7293E-3
462.731E-6	2.32066E-12	208.689E-3	-27.3724E-3	2.43098E-12	194.545E-3	-11.7450E-3
457.729E-6	2.31191E-12	201.320E-3	-25.2425E-3	2.23500E-12	194.033E-3	-9.90275E-3
452.726E-6	2.27269E-12	193.968E-3	-23.8771E-3	2.13662E-12	190.720E-3	-7.70630E-3
447.724E-6	2.14582E-12	196.590E-3	-26.7438E-3	2.18604E-12	188.249E-3	-3.58338E-3
442.721E-6	1.93592E-12	209.861E-3	-27.8189E-3	2.16624E-12	189.760E-3	-3.64728E-3
437.719E-6	1.95462E-12	199.972E-3	-23.0619E-3	2.06082E-12	192.409E-3	-4.01515E-3
432.716E-6	1.92725E-12	179.279E-3	-16.0184E-3	1.93953E-12	190.134E-3	-3.02233E-3
427.714E-6	1.82964E-12	184.186E-3	-6.28002E-3	1.96319E-12	186.805E-3	-10.8117E-3
422.711E-6	1.74949E-12	195.625E-3	-285.069E-6	1.86195E-12	177.723E-3	-23.8033E-3
417.709E-6	1.73116E-12	197.332E-3	-11.2729E-3	1.80381E-12	174.933E-3	-29.8287E-3
412.706E-6	1.65486E-12	191.215E-3	-25.8802E-3	1.70336E-12	194.612E-3	-27.0125E-3
407.704E-6	1.61334E-12	171.097E-3	-30.7912E-3	1.68012E-12	207.440E-3	-12.9618E-3
402.701E-6	1.46824E-12	157.574E-3	-33.2728E-3	1.59537E-12	194.059E-3	-1.68835E-3
397.699E-6	1.39376E-12	163.810E-3	-39.0324E-3	1.53385E-12	170.120E-3	-4.81799E-3
392.696E-6	1.42213E-12	155.717E-3	-39.4211E-3	1.42754E-12	154.291E-3	-12.8069E-3
387.694E-6	1.42247E-12	139.015E-3	-24.9406E-3	1.40948E-12	146.147E-3	-21.3252E-3
382.691E-6	1.30622E-12	148.938E-3	-8.35053E-3	1.32036E-12	142.014E-3	-18.9529E-3
377.689E-6	1.13686E-12	166.420E-3	-4.13174E-3	1.21380E-12	147.975E-3	-8.69816E-3
372.686E-6	1.20857E-12	170.806E-3	-10.1833E-3	1.20009E-12	155.749E-3	-7.64401E-3
367.684E-6	1.19775E-12	165.537E-3	-20.0049E-3	1.25213E-12	151.542E-3	-16.4453E-3
362.681E-6	1.12939E-12	151.446E-3	-26.1252E-3	1.15620E-12	133.940E-3	-26.1158E-3
357.679E-6	1.02127E-12	145.343E-3	-25.7161E-3	1.03038E-12	115.702E-3	-32.3325E-3
352.676E-6	1.01154E-12	150.074E-3	-15.4086E-3	969.751E-15	114.747E-3	-32.2588E-3
347.674E-6	1.04844E-12	140.389E-3	-7.97564E-3	1.05681E-12	117.392E-3	-22.3768E-3
342.671E-6	1.01349E-12	115.233E-3	-18.6103E-3	924.829E-15	116.360E-3	-16.3281E-3
337.669E-6	965.966E-15	100.915E-3	-23.5984E-3	820.912E-15	119.319E-3	-21.0055E-3
332.666E-6	856.077E-15	103.097E-3	-3.48499E-3	829.300E-15	117.137E-3	-22.6634E-3
327.664E-6	880.221E-15	97.1745E-3	13.7956E-3	858.815E-15	111.064E-3	-19.8301E-3
322.661E-6	801.328E-15	91.4299E-3	8.27306E-3	795.347E-15	108.199E-3	-27.0648E-3
317.659E-6	763.469E-15	100.169E-3	-3.09912E-3	689.250E-15	95.8572E-3	-32.7970E-3
312.656E-6	751.524E-15	101.286E-3	-11.3518E-3	730.179E-15	82.9600E-3	-16.0700E-3
307.654E-6	726.648E-15	97.0808E-3	-20.0497E-3	704.736E-15	87.8069E-3	682.373E-6
302.651E-6	698.877E-15	98.8239E-3	-18.9996E-3	609.757E-15	86.2666E-3	-5.89780E-3
297.649E-6	658.593E-15	91.8737E-3	-7.20444E-3	572.525E-15	77.4652E-3	-15.6888E-3
292.646E-6	605.964E-15	82.4414E-3	-6.18787E-3	606.905E-15	85.5654E-3	-9.57690E-3
287.644E-6	575.123E-15	84.6964E-3	-10.3948E-3	559.847E-15	85.2653E-3	-3.95120E-3
282.641E-6	540.490E-15	83.3651E-3	-13.3691E-3	495.647E-15	73.2073E-3	-10.8121E-3
277.639E-6	526.757E-15	74.7562E-3	-20.6355E-3	464.005E-15	76.3109E-3	-15.3135E-3
272.636E-6	509.807E-15	77.0087E-3	-16.8881E-3	502.893E-15	68.0496E-3	-10.3455E-3
267.634E-6	453.402E-15	81.5188E-3	-23.2726E-3	522.912E-15	55.6370E-3	-12.3385E-3
262.631E-6	372.827E-15	79.5951E-3	-41.8402E-3	381.372E-15	66.8495E-3	-22.5258E-3
257.629E-6	388.940E-15	76.4870E-3	-33.1833E-3	375.216E-15	69.7277E-3	-29.0341E-3
252.626E-6	427.837E-15	63.3099E-3	-13.1661E-3	429.424E-15	57.5978E-3	-33.5274E-3
247.624E-6	414.967E-15	50.1716E-3	-19.2215E-3	385.967E-15	59.8071E-3	-28.3752E-3
242.621E-6	266.338E-15	55.6559E-3	-27.7232E-3	296.385E-15	66.1747E-3	-23.7508E-3
237.619E-6	333.215E-15	57.9019E-3	-23.3600E-3	256.790E-15	53.1261E-3	-28.3237E-3
232.616E-6	359.634E-15	58.6278E-3	-26.6475E-3	321.243E-15	32.4848E-3	-16.8237E-3
227.614E-6	349.067E-15	76.8001E-3	-22.7431E-3	312.088E-15	30.1776E-3	-5.24614E-3
222.611E-6	206.166E-15	83.1675E-3	-11.4739E-3	167.993E-15	42.2048E-3	-11.5522E-3
217.609E-6	184.690E-15	72.4418E-3	-15.9403E-3	220.884E-15	48.4813E-3	-14.7525E-3
212.606E-6	260.417E-15	62.0363E-3	-19.7368E-3	263.565E-15	47.7297E-3	-23.9762E-3
207.604E-6	240.939E-15	52.8034E-3	-8.94400E-3	211.110E-15	44.0671E-3	-40.0403E-3
202.601E-6	151.644E-15	45.0182E-3	-10.3261E-3	120.263E-15	43.6539E-3	-38.6967E-3
197.599E-6	194.229E-15	48.2474E-3	-24.5714E-3	148.714E-15	49.1286E-3	-22.8638E-3
192.596E-6	162.822E-15	54.4218E-3	-30.1445E-3	196.453E-15	52.3759E-3	-13.0005E-3
187.594E-6	137.100E-15	47.4547E-3	-25.2528E-3	119.548E-15	48.8013E-3	-16.1541E-3
182.591E-6	89.6062E-15	37.8192E-3	-17.3267E-3	69.1769E-15	34.6742E-3	-23.5115E-3
177.589E-6	102.014E-15	38.8437E-3	-14.4765E-3	116.305E-15	24.8110E-3	-26.4150E-3
172.586E-6	98.4999E-15	47.4987E-3	-24.4767E-3	116.627E-15	30.2372E-3	-28.5894E-3
167.584E-6	87.4090E-15	49.5526E-3	-32.1434E-3	45.2075E-15	34.1248E-3	-27.7183E-3
162.581E-6	65.9420E-15	37.6531E-3	-18.0959E-3	26.0425E-15	21.4577E-3	-22.9700E-3
157.579E-6	40.3247E-15	23.6724E-3	-9.63202E-3	74.8096E-15	9.93046E-3	-19.4714E-3
152.576E-6	31.9803E-15	26.4397E-3	-14.3270E-3	64.5208E-15	17.6366E-3	-17.8429E-3
147.574E-6	30.5504E-15	30.4854E-3	175.877E-6	8.66489E-15	26.2990E-3	-22.2602E-3
142.571E-6	58.5655E-15	25.4839E-3	4.25480E-3	-9.52359E-15	22.4839E-3	-20.3311E-3
137.569E-6	46.2189E-15	18.2022E-3	-19.5048E-3	12.5537E-15	17.4542E-3	-11.5258E-3
132.566E-6	-12.3574E-15	13.8566E-3	-26.2279E-3	17.8289E-15	14.4138E-3	-13.8430E-3
127.564E-6	-59.2149E-15	9.49077E-3	-21.8336E-3	-35.9693E-15	11.3119E-3	-18.6267E-3
122.561E-6	-22.6723E-15	7.75888E-3	-24.5239E-3	-19.7862E-15	16.4604E-3	-9.50422E-3
117.559E-6	18.4305E-15	19.9632E-3	-21.7056E-3	2.53521E-15	17.0904E-3	-4.76671E-3
112.556E-6	5.30795E-15	27.4172E-3	-17.3043E-3	-29.8309E-15	7.76726E-3	-13.0650E-3
107.554E-6	-84.8148E-15	18.4654E-3	-22.4510E-3	-95.7837E-15	6.88410E-3	-17.7582E-3
102.551E-6	-69.5735E-15	19.2942E-3	-20.1120E-3	-86.0094E-15	8.93616E-3	-15.5293E-3
97.5488E-6	-11.2239E-15	30.9108E-3	-11.8312E-3	-29.9704E-15	6.97330E-3	-8.79480E-3
92.5463E-6	-52.4226E-15	29.9773E-3	-21.8450E-3	-40.8085E-15	9.55106E-3	-5.47025E-3
87.5438E-6	-119.430E-15	25.3604E-3	-27.3628E-3	-138.456E-15	12.1978E-3	-21.9110E-3
82.5413E-6	-89.8284E-15	19.3332E-3	-11.3485E-3	-127.191E-15	15.2676E-3	-36.3559E-3
77.5388E-6	-25.9246E-15	8.44003E-3	-9.52842E-3	-35.0973E-15	17.3751E-3	-29.4837E-3
72.5363E-6	-96.0714E-15	10.8611E-3	-22.6881E-3	-74.5783E-15	11.9735E-3	-30.7292E-3
67.5338E-6	-104.302E-15	21.0891E-3	-18.5276E-3	-169.811E-15	9.09412E-3	-33.8692E-3
62.5313E-6	-103.561E-15	23.2957E-3	-10.8488E-3	-87.2911E-15	8.48179E-3	-21.3378E-3
57.5288E-6	-130.495E-15	27.0043E-3	-14.8356E-3	-117.582E-15	14.0900E-3	-7.95991E-3
52.5263E-6	-76.6274E-15	34.3220E-3	-18.5877E-3	-130.164E-15	18.9527E-3	-6.98695E-3
47.5238E-6	-132.309E-15	34.2586E-3	-21.7113E-3	-125.238E-15	17.5307E-3	-15.4527E-3
42.5213E-6	-122.212E-15	34.3328E-3	-24.7148E-3	-148.710E-15	25.8528E-3	-24.7456E-3
37.5188E-6	-119.832E-15	28.4504E-3	-18.0483E-3	-97.7020E-15	23.8164E-3	-26.7139E-3
32.5163E-6	-141.944E-15	12.2388E-3	-9.68321E-3	-149.024E-15	8.29024E-3	-23.8757E-3
27.5138E-6	-163.071E-15	15.3958E-3	-10.2347E-3	-189.080E-15	7.11066E-3	-32.1650E-3
22.5113E-6	-124.331E-15	23.5269E-3	-10.5269E-3	-151.762E-15	15.8627E-3	-41.6304E-3
17.5088E-6	-166.044E-15	17.2601E-3	-9.80052E-3	-123.485E-15	17.4545E-3	-33.5069E-3
12.5063E-6	-170.098E-15	12.1659E-3	-14.2064E-3	-179.262E-15	6.28550E-3	-15.5437E-3
7.50375E-6	-178.242E-15	5.16715E-3	-8.82971E-3	-219.136E-15	-5.42522E-3	-7.19474E-3
2.50125E-6	-135.422E-15	-657.427E-6	-2.80607E-3	-134.314E-15	-2.88378E-3	-18.0282E-3
-2.50125E-6	-199.360E-15	-2.00279E-3	-16.7412E-3	-149.198E-15	11.9368E-3	-29.4765E-3
-7.50375E-6	-214.148E-15	1.22384E-3	-22.8574E-3	-227.864E-15	23.6902E-3	-25.0726E-3
-12.5063E-6	-188.836E-15	724.034E-6	-20.4693E-3	-235.528E-15	27.3754E-3	-17.4909E-3
-17.5088E-6	-139.659E-15	-4.29757E-3	-25.0676E-3	-136.180E-15	27.4399E-3	-15.6833E-3
-22.5113E-6	-178.600E-15	1.60785E-3	-13.2246E-3	-188.130E-15	31.0571E-3	-20.2917E-3
-27.5138E-6	-279.316E-15	4.75486E-3	6.39034E-3	-259.681E-15	39.8647E-3	-15.3921E-3
-32.5163E-6	-268.827E-15	-1.14777E-3	3.43065E-3	-232.476E-15	37.5844E-3	-2.04374E-3
-37.5188E-6	-206.257E-15	469.814E-6	-9.29475E-3	-162.914E-15	18.6013E-3	-11.9278E-3
-42.5213E-6	-261.015E-15	9.25524E-3	-8.09773E-3	-212.343E-15	2.41266E-3	-29.6624E-3
-47.5238E-6	-259.576E-15	15.4990E-3	-5.44795E-3	-294.165E-15	16.6751E-3	-26.3849E-3
-52.5263E-6	-234.761E-15	23.0638E-3	-10.6800E-3	-249.749E-15	37.0191E-3	-14.8042E-3
-57.5288E-6	-226.076E-15	20.8868E-3	-13.3632E-3	-207.007E-15	32.4732E-3	-11.6171E-3
-62.5313E-6	-275.837E-15	7.11862E-3	-16.0224E-3	-272.271E-15	23.2413E-3	-19.9927E-3
-67.5338E-6	-266.673E-15	11.8109E-3	-20.1057E-3	-316.836E-15	18.1148E-3	-30.3719E-3
-72.5363E-6	-331.510E-15	18.3276E-3	-10.9932E-3	-267.755E-15	8.98613E-3	-27.7736E-3
-77.5388E-6	-274.312E-15	12.2677E-3	-2.98259E-3	-260.988E-15	-1.32111E-3	-16.4202E-3
-82.5413E-6	-259.402E-15	18.0880E-3	-5.32125E-3	-327.979E-15	-1.75628E-3	-16.7167E-3
-87.5438E-6	-334.117E-15	22.7959E-3	-2.08817E-3	-326.244E-15	4.72433E-3	-23.2704E-3
-92.5463E-6	-274.573E-15	13.4900E-3	-5.32080E-3	-307.602E-15	17.3921E-3	-24.7916E-3
-97.5488E-6	-382.012E-15	18.8294E-3	-12.2039E-3	-302.719E-15	35.3400E-3	-20.8422E-3
-102.551E-6	-363.484E-15	29.3676E-3	-8.67828E-3	-360.310E-15	45.4970E-3	-9.52205E-3
-107.554E-6	-363.632E-15	14.9526E-3	-10.1661E-3	-424.162E-15	47.0508E-3	686.140E-6
-112.556E-6	-347.004E-15	14.5385E-3	-23.1394E-3	-287.225E-15	41.1242E-3	-461.531E-6
-117.559E-6	-389.136E-15	30.9464E-3	-23.3364E-3	-354.625E-15	35.2045E-3	-13.4737E-3
-122.561E-6	-440.737E-15	16.4775E-3	-8.86118E-3	-407.638E-15	45.7292E-3	-23.6474E-3
-127.564E-6	-424.981E-15	2.69600E-3	-9.89915E-3	-452.307E-15	54.7610E-3	-19.6530E-3
-132.566E-6	-440.066E-15	20.8438E-3	-20.5944E-3	-386.860E-15	44.7322E-3	-20.8532E-3
-137.569E-6	-436.011E-15	36.6492E-3	-21.9887E-3	-395.763E-15	42.8271E-3	-29.6523E-3
-142.571E-6	-505.844E-15	39.1416E-3	-19.6110E-3	-487.080E-15	50.2537E-3	-33.9842E-3
-147.574E-6	-499.078E-15	48.1868E-3	-16.8597E-3	-483.924E-15	55.8960E-3	-36.0527E-3
-152.576E-6	-474.559E-15	56.6657E-3	-13.4282E-3	-420.761E-15	59.3927E-3	-28.9448E-3
-157.579E-6	-435.340E-15	57.9726E-3	-16.4696E-3	-444.417E-15	57.0872E-3	-17.4723E-3
-162.581E-6	-520.510E-15	57.1131E-3	-18.1848E-3	-566.940E-15	55.7170E-3	-13.4914E-3
-167.584E-6	-562.807E-15	44.9260E-3	-4.23995E-3	-538.602E-15	54.0842E-3	-13.0064E-3
-172.586E-6	-508.495E-15	32.1079E-3	9.61033E-3	-500.133E-15	58.2396E-3	-1.92951E-3
-177.589E-6	-604.172E-15	34.6626E-3	6.16840E-3	-561.011E-15	62.0138E-3	12.2193E-3
-182.591E-6	-567.795E-15	42.6605E-3	545.776E-6	-660.246E-15	60.0354E-3	9.72188E-3
-187.594E-6	-624.889E-15	53.9032E-3	-4.39482E-3	-615.088E-15	65.3058E-3	2.93826E-3
-192.596E-6	-637.418E-15	70.2011E-3	-12.8921E-3	-613.083E-15	68.1288E-3	-2.38691E-3
-197.599E-6	-639.241E-15	76.1292E-3	-13.2234E-3	-702.177E-15	69.8293E-3	-17.3669E-3
-202.601E-6	-693.388E-15	69.9089E-3	-7.38360E-3	-702.020E-15	89.5609E-3	-29.7603E-3
-207.604E-6	-698.637E-15	64.3036E-3	1.44358E-3	-676.838E-15	109.878E-3	-29.0896E-3
-212.606E-6	-723.984E-15	61.1521E-3	9.92081E-3	-708.908E-15	105.413E-3	-21.8381E-3
-217.609E-6	-800.748E-15	56.3160E-3	4.43921E-3	-804.506E-15	91.0961E-3	-18.1771E-3
-222.611E-6	-776.090E-15	63.1121E-3	-2.90710E-3	-795.691E-15	93.9255E-3	-25.4521E-3
-227.614E-6	-799.109E-15	80.8629E-3	-4.52424E-3	-785.001E-15	107.056E-3	-33.1860E-3
-232.616E-6	-811.229E-15	87.2665E-3	-17.4534E-3	-828.746E-15	112.956E-3	-27.8520E-3
-237.619E-6	-947.407E-15	88.0258E-3	-31.5975E-3	-967.523E-15	107.870E-3	-11.0311E-3
-242.621E-6	-936.630E-15	88.5664E-3	-30.4681E-3	-967.898E-15	102.784E-3	3.14135E-3
-247.624E-6	-947.425E-15	85.6529E-3	-23.2728E-3	-906.950E-15	106.163E-3	286.795E-6
-252.626E-6	-1.01508E-12	102.077E-3	-17.9822E-3	-981.875E-15	110.524E-3	-10.9576E-3
-257.629E-6	-1.13597E-12	128.343E-3	-14.9410E-3	-1.09401E-12	117.291E-3	-5.77744E-3
-262.631E-6	-1.09816E-12	126.621E-3	-20.2194E-3	-1.17087E-12	127.758E-3	10.8999E-3
-267.634E-6	-1.16942E-12	112.509E-3	-27.2660E-3	-1.10938E-12	132.086E-3	5.62618E-3
-272.636E-6	-1.18845E-12	113.398E-3	-24.2730E-3	-1.13289E-12	132.175E-3	-18.4168E-3
-277.639E-6	-1.31633E-12	128.603E-3	-17.8708E-3	-1.27799E-12	137.898E-3	-36.5288E-3
-282.641E-6	-1.27269E-12	142.145E-3	-18.4308E-3	-1.36988E-12	150.846E-3	-34.9435E-3
-287.644E-6	-1.29240E-12	143.694E-3	-19.4986E-3	-1.27549E-12	163.591E-3	-18.1556E-3
-292.646E-6	-1.46546E-12	143.139E-3	-15.5011E-3	-1.34309E-12	164.990E-3	-3.74453E-3
-297.649E-6	-1.49503E-12	146.481E-3	-18.5759E-3	-1.47077E-12	166.387E-3	-3.74661E-3
-302.651E-6	-1.48870E-12	149.842E-3	-25.7624E-3	-1.56255E-12	183.130E-3	-17.6872E-3
-307.654E-6	-1.48688E-12	149.072E-3	-22.4955E-3	-1.51802E-12	199.828E-3	-24.1742E-3
-312.656E-6	-1.66921E-12	150.493E-3	-16.2905E-3	-1.59190E-12	203.182E-3	-18.1578E-3
-317.659E-6	-1.80159E-12	163.772E-3	-15.9982E-3	-1.70395E-12	201.293E-3	-18.8407E-3
-322.661E-6	-1.85585E-12	174.501E-3	-12.1413E-3	-1.66296E-12	208.853E-3	-22.5026E-3
-327.664E-6	-1.79057E-12	174.943E-3	-8.71572E-3	-1.72279E-12	226.391E-3	-17.2588E-3
-332.666E-6	-1.83137E-12	178.293E-3	-16.6938E-3	-1.82889E-12	242.951E-3	-14.2661E-3
-337.669E-6	-2.06396E-12	181.165E-3	-31.1396E-3	-1.92417E-12	245.417E-3	-16.7596E-3
-342.671E-6	-2.07647E-12	190.081E-3	-42.3589E-3	-2.01760E-12	235.047E-3	-16.7043E-3
-347.674E-6	-2.12366E-12	215.154E-3	-36.6380E-3	-2.02859E-12	233.335E-3	-21.4124E-3
-352.676E-6	-2.15589E-12	228.809E-3	-13.6906E-3	-2.14440E-12	247.013E-3	-25.5572E-3
-357.679E-6	-2.26622E-12	225.885E-3	-3.94351E-3	-2.18735E-12	256.741E-3	-11.1497E-3
-362.681E-6	-2.44027E-12	235.774E-3	-9.79136E-3	-2.21496E-12	260.153E-3	3.20785E-3
-367.684E-6	-2.43142E-12	250.145E-3	-3.77784E-3	-2.38228E-12	262.716E-3	-4.72900E-3
-372.686E-6	-2.51585E-12	246.940E-3	-1.62206E-3	-2.43035E-12	258.450E-3	-20.2201E-3
-377.689E-6	-2.64323E-12	243.177E-3	-7.03239E-3	-2.47441E-12	266.464E-3	-29.8134E-3
-382.691E-6	-2.80876E-12	252.199E-3	-6.97088E-3	-2.58931E-12	282.942E-3	-28.1965E-3
-387.694E-6	-2.76994E-12	265.871E-3	-10.0030E-3	-2.65968E-12	290.940E-3	-15.7195E-3
-392.696E-6	-2.88890E-12	275.632E-3	-10.4225E-3	-2.76730E-12	295.436E-3	-12.9196E-3
-397.699E-6	-2.94150E-12	278.287E-3	-11.0288E-3	-2.76870E-12	290.600E-3	-25.4466E-3
-402.701E-6	-3.01464E-12	283.163E-3	-14.6478E-3	-2.89936E-12	294.569E-3	-28.3788E-3
-407.704E-6	-3.16767E-12	292.834E-3	-8.89698E-3	-3.04131E-12	318.398E-3	-8.55899E-3
-412.706E-6	-3.32187E-12	305.101E-3	-579.093E-6	-3.30369E-12	332.986E-3	10.8356E-3
-417.709E-6	-3.46769E-12	318.133E-3	-4.64149E-3	-3.31941E-12	334.747E-3	6.32300E-3
-422.711E-6	-3.46789E-12	323.815E-3	-15.3736E-3	-3.39608E-12	347.399E-3	-15.5499E-3
-427.714E-6	-3.73274E-12	325.409E-3	-22.9508E-3	-3.47456E-12	363.124E-3	-32.9815E-3
-432.716E-6	-3.93651E-12	340.143E-3	-29.5404E-3	-3.66450E-12	369.273E-3	-28.2813E-3
-437.719E-6	-4.05901E-12	365.916E-3	-28.8086E-3	-3.84671E-12	382.431E-3	-15.8475E-3
-442.721E-6	-4.09518E-12	378.831E-3	-19.8855E-3	-3.94141E-12	397.540E-3	-15.3491E-3
-447.724E-6	-4.13131E-12	374.568E-3	-11.9686E-3	-4.03287E-12	392.467E-3	-23.7396E-3
-452.726E-6	-4.27469E-12	366.762E-3	-4.88090E-3	-4.14107E-12	386.404E-3	-29.1300E-3
-457.729E-6	-4.53089E-12	371.123E-3	6.43169E-3	-4.46288E-12	390.463E-3	-25.9112E-3
-462.731E-6	-4.61678E-12	389.081E-3	5.60678E-3	-4.56664E-12	397.445E-3	-20.7457E-3
-467.734E-6	-4.76003E-12	405.140E-3	-10.5657E-3	-4.61744E-12	409.664E-3	-9.86244E-3
-472.736E-6	-4.72164E-12	409.352E-3	-16.7454E-3	-4.64119E-12	416.569E-3	-5.25992E-3
-477.739E-6	-4.76425E-12	395.136E-3	-7.45034E-3	-4.84744E-12	419.247E-3	-15.7938E-3
-482.741E-6	-4.94204E-12	384.041E-3	-4.59591E-3	-5.08557E-12	422.574E-3	-12.5306E-3
-487.744E-6	-5.32671E-12	393.876E-3	-22.5590E-3	-5.26791E-12	435.638E-3	4.85039E-3
-492.746E-6	-5.43849E-12	412.560E-3	-36.3209E-3	-5.30973E-12	455.165E-3	12.9560E-3
-497.749E-6	-5.24072E-12	426.745E-3	-29.3504E-3	-5.32897E-12	462.589E-3	7.60535E-3
-502.751E-6	-5.33440E-12	430.180E-3	-13.8846E-3	-5.54520E-12	469.179E-3	-12.7551E-3
-507.754E-6	-6.08137E-12	425.312E-3	347.717E-6	-5.83198E-12	484.748E-3	-27.9771E-3
-512.756E-6	-6.50144E-12	423.128E-3	3.09589E-3	-6.22065E-12	485.025E-3	-14.2085E-3
-517.759E-6	-6.00078E-12	441.307E-3	-16.8817E-3	-6.20695E-12	473.808E-3	-745.667E-6
-522.761E-6	-5.96073E-12	460.857E-3	-32.5410E-3	-6.33141E-12	476.855E-3	-13.4124E-3
-527.764E-6	-6.74105E-12	449.502E-3	-27.2563E-3	-6.31237E-12	483.781E-3	-20.6431E-3
-532.766E-6	-7.18303E-12	434.091E-3	-18.4669E-3	-6.70065E-12	481.501E-3	-17.5523E-3
-537.769E-6	-7.03551E-12	453.017E-3	-11.6353E-3	-6.80220E-12	474.762E-3	-25.3775E-3
-542.771E-6	-6.72666E-12	481.978E-3	-10.3399E-3	-6.83781E-12	464.002E-3	-27.4135E-3
-547.774E-6	-7.05108E-12	481.811E-3	-16.8266E-3	-6.93905E-12	465.652E-3	-25.5042E-3
-552.776E-6	-7.55628E-12	467.779E-3	-17.4980E-3	-6.92241E-12	481.514E-3	-43.9344E-3
-557.779E-6	-7.48845E-12	476.016E-3	-7.95820E-3	-7.12478E-12	493.039E-3	-56.1569E-3
-562.781E-6	-7.52359E-12	501.398E-3	-5.42237E-3	-7.48670E-12	500.901E-3	-34.8924E-3
-567.784E-6	-7.76933E-12	505.441E-3	-13.1839E-3	-7.74542E-12	501.210E-3	-16.7255E-3
-572.786E-6	-8.20602E-12	492.188E-3	-22.6516E-3	-7.67478E-12	489.833E-3	-18.5723E-3
-577.789E-6	-8.63357E-12	491.713E-3	-23.0311E-3	-8.02852E-12	486.334E-3	-9.08553E-3
-582.791E-6	-8.92325E-12	501.256E-3	-10.3368E-3	-8.43326E-12	491.204E-3	-1.81471E-3
-587.794E-6	-8.59473E-12	504.038E-3	-9.43009E-3	-8.60672E-12	484.514E-3	-23.7841E-3
-592.796E-6	-8.53100E-12	493.881E-3	-21.8704E-3	-8.63382E-12	469.536E-3	-39.0654E-3
-597.799E-6	-9.11517E-12	478.371E-3	-13.4334E-3	-8.56391E-12	461.255E-3	-30.4960E-3
-602.801E-6	-9.37168E-12	473.671E-3	-2.35527E-3	-8.95920E-12	463.127E-3	-31.3428E-3
-607.804E-6	-9.24534E-12	485.738E-3	-8.93699E-3	-9.00750E-12	475.534E-3	-38.1144E-3
-612.806E-6	-9.07522E-12	501.203E-3	-15.4728E-3	-9.11512E-12	488.009E-3	-28.2052E-3
-617.809E-6	-9.32473E-12	497.312E-3	-14.1964E-3	-9.35007E-12	478.513E-3	-14.3814E-3
-622.811E-6	-9.94715E-12	484.769E-3	-9.67503E-3	-9.57911E-12	465.083E-3	-10.5713E-3
-627.814E-6	-9.90268E-12	487.119E-3	-5.39656E-3	-9.43037E-12	477.235E-3	-12.6332E-3
-632.816E-6	-9.43666E-12	497.292E-3	135.699E-6	-9.51305E-12	484.865E-3	-24.8408E-3
-637.819E-6	-9.64763E-12	492.907E-3	-5.00874E-3	-10.1162E-12	462.917E-3	-33.9275E-3
-642.821E-6	-10.4997E-12	473.240E-3	-5.64267E-3	-10.0830E-12	441.686E-3	-24.2235E-3
-647.824E-6	-10.3239E-12	458.799E-3	4.55616E-3	-9.89304E-12	435.859E-3	-19.6711E-3
-652.826E-6	-10.2261E-12	456.413E-3	-9.30281E-3	-9.95027E-12	436.878E-3	-20.7011E-3
-657.829E-6	-10.1744E-12	458.558E-3	-37.8796E-3	-10.4706E-12	436.619E-3	-13.0786E-3
-662.831E-6	-10.8475E-12	456.627E-3	-40.4084E-3	-10.9286E-12	432.156E-3	-8.18755E-3
-667.834E-6	-10.8175E-12	449.271E-3	-28.3075E-3	-10.5460E-12	430.223E-3	-964.451E-6
-672.836E-6	-11.0850E-12	443.311E-3	-18.8652E-3	-10.4928E-12	430.043E-3	1.35716E-3
-677.839E-6	-11.6286E-12	443.812E-3	-5.38337E-3	-11.0045E-12	429.667E-3	-19.1907E-3
-682.841E-6	-11.1946E-12	444.035E-3	4.87570E-3	-11.5311E-12	429.318E-3	-34.2516E-3
-687.844E-6	-11.3935E-12	442.265E-3	-3.12956E-3	-11.3793E-12	424.634E-3	-25.9901E-3
-692.846E-6	-11.4494E-12	436.565E-3	-23.9085E-3	-11.1900E-12	414.160E-3	-19.3967E-3
-697.849E-6	-11.9293E-12	428.435E-3	-41.5870E-3	-11.7632E-12	401.060E-3	-17.1474E-3
-702.851E-6	-11.7865E-12	428.694E-3	-53.5333E-3	-12.2738E-12	393.725E-3	-9.42777E-3
-707.854E-6	-12.0011E-12	432.914E-3	-46.1210E-3	-12.0778E-12	388.849E-3	-11.5398E-3
-712.856E-6	-11.9362E-12	426.903E-3	-28.0280E-3	-11.9624E-12	382.837E-3	-27.2784E-3
-717.859E-6	-12.1310E-12	417.647E-3	-23.5504E-3	-12.5704E-12	383.480E-3	-32.8356E-3
-722.861E-6	-12.6711E-12	413.931E-3	-23.7574E-3	-12.7948E-12	386.213E-3	-28.6733E-3
-727.864E-6	-12.4009E-12	409.385E-3	-29.5593E-3	-12.6613E-12	383.698E-3	-29.4128E-3
-732.866E-6	-12.5689E-12	396.574E-3	-33.2772E-3	-12.4995E-12	382.462E-3	-28.1818E-3
-737.869E-6	-12.3497E-12	377.166E-3	-17.7271E-3	-12.5062E-12	375.583E-3	-24.3341E-3
-742.871E-6	-12.6973E-12	369.933E-3	-6.43508E-3	-12.7436E-12	357.580E-3	-17.2767E-3
-747.874E-6	-12.7967E-12	370.554E-3	-10.4400E-3	-13.1775E-12	343.911E-3	-5.50643E-3
-752.876E-6	-12.9453E-12	362.173E-3	-14.4585E-3	-13.1740E-12	336.777E-3	-3.21988E-3
-757.879E-6	-13.1259E-12	355.954E-3	-14.2131E-3	-13.0835E-12	332.890E-3	-5.05244E-3
-762.881E-6	-12.9143E-12	355.909E-3	-19.7266E-3	-13.1847E-12	320.586E-3	10.1112E-3
-767.884E-6	-13.1605E-12	353.090E-3	-33.9369E-3	-13.3535E-12	305.577E-3	16.5324E-3
-772.886E-6	-13.7025E-12	343.147E-3	-40.3234E-3	-13.5053E-12	301.386E-3	-9.85985E-3
-777.889E-6	-13.8560E-12	331.645E-3	-30.8003E-3	-13.3663E-12	291.642E-3	-27.7292E-3
-782.891E-6	-13.8158E-12	330.380E-3	-17.5133E-3	-13.4541E-12	279.196E-3	-18.3542E-3
-787.894E-6	-13.6581E-12	334.828E-3	-15.7425E-3	-13.5031E-12	275.933E-3	-14.1004E-3
-792.896E-6	-14.1213E-12	327.708E-3	-27.5368E-3	-13.8565E-12	282.456E-3	-10.6736E-3
-797.899E-6	-14.2044E-12	310.628E-3	-35.8141E-3	-13.9337E-12	288.444E-3	-9.27821E-3
-802.901E-6	-14.4807E-12	298.359E-3	-28.2719E-3	-14.0228E-12	279.010E-3	-23.3221E-3
-807.904E-6	-14.5232E-12	287.724E-3	-23.0613E-3	-14.0703E-12	263.405E-3	-33.6845E-3
-812.906E-6	-14.5010E-12	283.984E-3	-21.3140E-3	-14.1329E-12	260.063E-3	-29.1906E-3
-817.909E-6	-14.7378E-12	289.672E-3	-7.02789E-3	-14.0519E-12	258.103E-3	-18.2872E-3
-822.911E-6	-15.0674E-12	280.208E-3	-4.66634E-3	-14.1490E-12	242.067E-3	-15.8037E-3
-827.914E-6	-15.4035E-12	264.917E-3	-18.2458E-3	-14.2122E-12	232.435E-3	-16.0332E-3
-832.916E-6	-14.9356E-12	256.931E-3	-27.0177E-3	-14.1832E-12	240.128E-3	-17.3692E-3
-837.919E-6	-15.0479E-12	252.352E-3	-33.1866E-3	-14.4827E-12	242.932E-3	-19.9472E-3
-842.921E-6	-15.3178E-12	259.390E-3	-39.3183E-3	-14.2438E-12	232.656E-3	-11.3064E-3
-847.924E-6	-15.6012E-12	265.777E-3	-32.5973E-3	-14.4255E-12	218.775E-3	-5.46906E-3
-852.926E-6	-15.7843E-12	250.293E-3	-14.8521E-3	-14.5936E-12	212.463E-3	-15.8109E-3
-857.929E-6	-15.7172E-12	227.956E-3	-5.82196E-3	-14.8855E-12	216.813E-3	-24.6986E-3
-862.931E-6	-16.0759E-12	227.319E-3	-1.22775E-3	-15.0514E-12	217.250E-3	-18.6784E-3
-867.934E-6	-16.2745E-12	231.292E-3	6.73154E-3	-14.9685E-12	201.518E-3	-3.07683E-3
-872.936E-6	-16.2842E-12	219.080E-3	-2.68648E-3	-14.9757E-12	178.407E-3	1.49823E-3
-877.939E-6	-15.9974E-12	207.239E-3	-15.8789E-3	-15.5959E-12	172.023E-3	-16.9626E-3
-882.941E-6	-16.3207E-12	203.099E-3	-10.8361E-3	-15.9830E-12	182.043E-3	-36.3068E-3
-887.944E-6	-16.5587E-12	199.853E-3	-11.3943E-3	-15.1583E-12	192.831E-3	-28.4849E-3
-892.946E-6	-17.1551E-12	211.588E-3	-11.7259E-3	-15.0745E-12	194.870E-3	-7.05807E-3
-897.949E-6	-16.6827E-12	223.196E-3	1.47035E-3	-15.4890E-12	182.401E-3	-5.49350E-3
-902.951E-6	-16.1235E-12	208.238E-3	-6.61519E-3	-15.9857E-12	163.612E-3	-20.2241E-3
-907.954E-6	-16.2787E-12	194.736E-3	-23.1392E-3	-15.8137E-12	158.843E-3	-35.2887E-3
-912.956E-6	-17.0762E-12	184.978E-3	-3.01807E-3	-15.2568E-12	178.641E-3	-42.1047E-3
-917.959E-6	-17.6571E-12	166.475E-3	8.32194E-3	-15.5684E-12	199.768E-3	-29.2806E-3
-922.961E-6	-16.5548E-12	171.543E-3	-17.2380E-3	-16.3355E-12	205.312E-3	-14.4283E-3
-927.964E-6	-16.3262E-12	184.966E-3	-32.8693E-3	-16.7146E-12	193.190E-3	-18.7295E-3
-932.966E-6	-16.4766E-12	162.919E-3	-37.0425E-3	-16.0773E-12	179.358E-3	-27.2604E-3
-937.969E-6	-16.7812E-12	147.204E-3	-33.8111E-3	-15.7858E-12	182.423E-3	-31.3405E-3
-942.971E-6	-17.1182E-12	165.730E-3	-8.37674E-3	-16.2033E-12	172.144E-3	-28.5350E-3
-947.974E-6	-16.8682E-12	176.856E-3	-1.50609E-3	-16.9491E-12	150.306E-3	-11.6354E-3
-952.976E-6	-16.4816E-12	177.590E-3	-30.7272E-3	-16.7950E-12	157.719E-3	-8.34992E-3
-957.979E-6	-16.4295E-12	181.144E-3	-40.4354E-3	-16.1648E-12	168.399E-3	-31.7627E-3
-962.981E-6	-16.6110E-12	173.916E-3	-10.6824E-3	-16.1546E-12	162.595E-3	-38.5853E-3
-967.984E-6	-16.8258E-12	166.065E-3	4.45272E-3	-16.5642E-12	174.760E-3	-17.5972E-3
-972.986E-6	-16.9275E-12	177.982E-3	-13.2078E-3	-17.0448E-12	179.374E-3	-10.2672E-3
-977.989E-6	-16.6385E-12	186.605E-3	-30.1124E-3	-16.4527E-12	162.126E-3	-16.5671E-3
-982.991E-6	-16.8323E-12	171.025E-3	-34.2721E-3	-16.3586E-12	166.407E-3	-16.0360E-3
-987.994E-6	-16.8162E-12	160.598E-3	-31.4117E-3	-16.6135E-12	184.488E-3	-14.4924E-3
-992.997E-6	-17.1303E-12	170.450E-3	-26.2458E-3	-17.3824E-12	192.780E-3	-3.04460E-3
-997.999E-6	-16.6880E-12	183.781E-3	-29.5269E-3	-16.9797E-12	195.508E-3	5.04058E-3
-1.00300E-3	-17.1694E-12	189.326E-3	-33.5334E-3	-16.7678E-12	191.284E-3	-7.70581E-3
-1.00800E-3	-17.3959E-12	171.287E-3	-22.1501E-3	-16.9820E-12	181.773E-3	-18.1542E-3
-1.01301E-3	-17.6258E-12	152.267E-3	-9.60615E-3	-17.4547E-12	191.025E-3	-11.5706E-3
-1.01801E-3	-17.7497E-12	166.534E-3	-2.05162E-3	-17.3972E-12	208.685E-3	-15.0699E-3
-1.02301E-3	-17.6876E-12	182.352E-3	11.2515E-3	-17.2139E-12	197.618E-3	-30.0092E-3
-1.02801E-3	-17.8856E-12	178.257E-3	8.79148E-3	-17.2064E-12	177.963E-3	-19.8546E-3
-1.03302E-3	-17.8909E-12	182.111E-3	-13.8201E-3	-16.9915E-12	186.597E-3	-6.68732E-3
-1.03802E-3	-18.0062E-12	188.490E-3	-16.8596E-3	-17.0353E-12	200.000E-3	-2.67178E-3
-1.04302E-3	-17.6237E-12	185.255E-3	-9.19235E-3	-17.4641E-12	198.467E-3	17.1536E-3
-1.04802E-3	-17.4620E-12	187.655E-3	-16.4277E-3	-17.6337E-12	196.896E-3	25.9147E-3
-1.05303E-3	-18.0969E-12	192.102E-3	-25.7896E-3	-17.0777E-12	198.143E-3	5.00989E-3
-1.05803E-3	-18.0881E-12	197.994E-3	-30.6228E-3	-17.0437E-12	209.926E-3	-7.11892E-3
-1.06303E-3	-17.6578E-12	204.669E-3	-23.3699E-3	-17.2912E-12	238.031E-3	-14.3091E-3
-1.06803E-3	-17.3602E-12	210.944E-3	-3.07027E-3	-17.4148E-12	256.498E-3	-23.1156E-3
-1.07304E-3	-18.1383E-12	216.347E-3	11.2387E-3	-18.0106E-12	250.501E-3	-12.9536E-3
-1.07804E-3	-17.9288E-12	223.660E-3	2.75267E-3	-17.4596E-12	255.474E-3	-10.2691E-3
-1.08304E-3	-17.6553E-12	235.075E-3	-14.5060E-3	-17.6146E-12	282.084E-3	-20.5681E-3
-1.08804E-3	-17.6898E-12	234.788E-3	-15.5136E-3	-17.8832E-12	297.562E-3	-17.3919E-3
-1.09305E-3	-17.8231E-12	233.413E-3	-12.5156E-3	-18.2760E-12	308.952E-3	-4.39314E-3
-1.09805E-3	-18.5366E-12	249.006E-3	-14.3028E-3	-18.1617E-12	308.017E-3	-4.25510E-3
-1.10305E-3	-18.6651E-12	267.631E-3	-22.8977E-3	-18.0880E-12	279.871E-3	-14.4723E-3
-1.10805E-3	-18.4416E-12	274.880E-3	-28.6624E-3	-18.1587E-12	275.170E-3	-23.0594E-3
-1.11306E-3	-18.2075E-12	284.304E-3	-13.2324E-3	-18.4385E-12	305.752E-3	-35.8969E-3
-1.11806E-3	-18.8428E-12	299.339E-3	-3.09550E-3	-18.9755E-12	334.843E-3	-35.6768E-3
-1.12306E-3	-19.3123E-12	315.823E-3	-16.9207E-3	-18.8164E-12	354.268E-3	-14.5538E-3
-1.12806E-3	-19.0525E-12	325.309E-3	-23.4449E-3	-18.4769E-12	366.529E-3	-6.50339E-3
-1.13307E-3	-19.0001E-12	316.851E-3	-16.8934E-3	-18.5958E-12	365.586E-3	-11.8912E-3
-1.13807E-3	-19.1909E-12	317.572E-3	-20.3719E-3	-19.3076E-12	372.689E-3	-10.1205E-3
-1.14307E-3	-19.6559E-12	334.710E-3	-24.7102E-3	-19.5913E-12	394.681E-3	-10.5199E-3
-1.14807E-3	-19.6862E-12	353.746E-3	-17.4972E-3	-18.9908E-12	407.386E-3	-11.0322E-3
-1.15308E-3	-19.5591E-12	372.166E-3	-21.7549E-3	-19.0527E-12	419.698E-3	-7.94986E-3
-1.15808E-3	-18.9328E-12	377.146E-3	-22.9478E-3	-19.4745E-12	436.203E-3	-13.5671E-3
-1.16308E-3	-19.8066E-12	379.060E-3	1.39764E-3	-20.1542E-12	446.752E-3	-17.9017E-3
-1.16808E-3	-20.4531E-12	397.392E-3	7.15191E-3	-20.0927E-12	467.897E-3	-11.0975E-3
-1.17309E-3	-20.1820E-12	427.897E-3	-14.4964E-3	-19.8254E-12	496.582E-3	-10.5057E-3
-1.17809E-3	-20.0664E-12	446.111E-3	-22.5430E-3	-20.3686E-12	508.817E-3	-12.4056E-3
-1.18309E-3	-20.0340E-12	443.593E-3	-18.0757E-3	-20.9709E-12	515.484E-3	-10.8271E-3
-1.18809E-3	-21.1270E-12	461.238E-3	-13.1371E-3	-20.6264E-12	532.231E-3	-15.7953E-3
-1.19310E-3	-21.6209E-12	486.251E-3	-6.94953E-6	-20.6759E-12	546.806E-3	-17.0143E-3
-1.19810E-3	-21.5440E-12	491.938E-3	-6.36589E-3	-21.6207E-12	554.966E-3	-8.62150E-3
-1.20310E-3	-20.6544E-12	511.384E-3	-31.7330E-3	-22.0155E-12	562.513E-3	-8.95418E-3
-1.20810E-3	-21.6185E-12	532.029E-3	-27.8119E-3	-21.6575E-12	574.103E-3	-25.2869E-3
-1.21311E-3	-22.2181E-12	539.487E-3	-8.61114E-3	-22.1991E-12	600.818E-3	-31.4281E-3
-1.21811E-3	-21.9609E-12	557.458E-3	2.44659E-3	-22.6676E-12	630.787E-3	-16.9217E-3
-1.22311E-3	-21.9880E-12	580.197E-3	5.95687E-3	-22.4675E-12	640.062E-3	-13.7491E-3
-1.22811E-3	-22.0660E-12	585.824E-3	-8.42746E-3	-22.5605E-12	641.238E-3	-19.4581E-3
-1.23312E-3	-23.2382E-12	588.993E-3	-29.4288E-3	-22.8785E-12	655.211E-3	-18.5371E-3
-1.23812E-3	-22.8877E-12	595.389E-3	-27.1587E-3	-22.6194E-12	681.317E-3	-25.8060E-3
-1.24312E-3	-22.6403E-12	594.224E-3	-14.9996E-3	-22.4119E-12	706.324E-3	-26.0221E-3
-1.24812E-3	-22.6404E-12	620.342E-3	-21.5153E-3	-23.3314E-12	725.431E-3	-20.5662E-3
-1.25313E-3	-23.8687E-12	668.980E-3	-16.8856E-3	-23.7414E-12	728.198E-3	-30.8405E-3
-1.25813E-3	-24.4612E-12	685.884E-3	-1.16868E-3	-24.0015E-12	723.012E-3	-40.4936E-3
-1.26313E-3	-23.8937E-12	678.222E-3	-6.03240E-3	-23.3322E-12	751.176E-3	-39.7766E-3
-1.26813E-3	-23.5358E-12	686.752E-3	-7.49332E-3	-23.4230E-12	787.429E-3	-39.9961E-3
-1.27314E-3	-24.6433E-12	710.995E-3	-3.17910E-3	-24.6923E-12	788.816E-3	-36.5109E-3
-1.27814E-3	-25.7401E-12	740.195E-3	-17.5216E-3	-25.2294E-12	794.075E-3	-16.6571E-3
-1.28314E-3	-25.6482E-12	762.891E-3	-34.4397E-3	-24.2144E-12	829.408E-3	-12.1019E-3
-1.28814E-3	-25.3649E-12	760.587E-3	-42.8680E-3	-24.1467E-12	863.903E-3	-23.0901E-3
-1.29315E-3	-25.8079E-12	767.068E-3	-47.0654E-3	-25.8304E-12	883.650E-3	-5.00609E-3
-1.29815E-3	-26.4908E-12	802.926E-3	-36.6557E-3	-26.4624E-12	899.757E-3	4.47474E-3
-1.30315E-3	-26.9438E-12	828.523E-3	-22.0373E-3	-25.9178E-12	899.987E-3	-17.8535E-3
-1.30815E-3	-26.3627E-12	826.061E-3	-22.9785E-3	-25.5956E-12	904.206E-3	-18.5677E-3
-1.31316E-3	-26.4571E-12	833.203E-3	-18.8559E-3	-26.8557E-12	936.132E-3	-8.57002E-3
-1.31816E-3	-27.3291E-12	864.324E-3	-5.49690E-3	-27.0834E-12	949.795E-3	-16.3121E-3
-1.32316E-3	-27.6277E-12	879.204E-3	-6.01115E-3	-27.1750E-12	937.953E-3	-18.2209E-3
-1.32816E-3	-27.3589E-12	885.819E-3	-13.7376E-3	-26.9515E-12	937.316E-3	-10.9117E-3
-1.33317E-3	-27.8327E-12	898.508E-3	-15.7839E-3	-27.1854E-12	944.663E-3	-16.2266E-3
-1.33817E-3	-28.2200E-12	903.215E-3	-17.9401E-3	-28.0263E-12	957.896E-3	-26.6589E-3
-1.34317E-3	-28.4210E-12	922.091E-3	-24.2232E-3	-27.7420E-12	989.501E-3	-25.1983E-3
-1.34817E-3	-28.5218E-12	957.092E-3	-19.7481E-3	-27.5471E-12	1.00885E+0	-21.5069E-3
-1.35318E-3	-28.7936E-12	970.025E-3	-7.92474E-3	-27.9086E-12	1.00775E+0	-9.16005E-3
-1.35818E-3	-29.4189E-12	972.458E-3	-12.7026E-3	-29.0852E-12	1.03247E+0	135.550E-6
-1.36318E-3	-30.1445E-12	987.835E-3	-20.3537E-3	-29.5953E-12	1.06802E+0	-20.6420E-3
-1.36818E-3	-30.1335E-12	990.322E-3	-9.84740E-3	-29.4172E-12	1.07163E+0	-38.6468E-3
-1.37319E-3	-30.5442E-12	992.234E-3	-5.65494E-3	-29.7346E-12	1.07137E+0	-33.4429E-3
-1.37819E-3	-31.1903E-12	1.02524E+0	-17.3002E-3	-30.6123E-12	1.07861E+0	-25.4637E-3
-1.38319E-3	-32.8729E-12	1.04968E+0	-23.3067E-3	-31.5694E-12	1.07613E+0	-24.8518E-3
-1.38819E-3	-32.8361E-12	1.04884E+0	-17.4458E-3	-31.7021E-12	1.08715E+0	-31.8271E-3
-1.39320E-3	-32.2561E-12	1.05716E+0	-2.12804E-3	-31.8264E-12	1.10764E+0	-39.4392E-3
-1.39820E-3	-32.3668E-12	1.07218E+0	7.58200E-3	-32.2300E-12	1.11418E+0	-31.6624E-3
-1.40320E-3	-33.4643E-12	1.08545E+0	-5.30345E-3	-32.9204E-12	1.11202E+0	-13.2532E-3
-1.40820E-3	-34.6698E-12	1.10810E+0	-25.6292E-3	-33.0535E-12	1.10292E+0	-17.0529E-3
-1.41321E-3	-33.4952E-12	1.12585E+0	-31.2490E-3	-33.4983E-12	1.09111E+0	-25.7240E-3
-1.41821E-3	-33.5307E-12	1.11929E+0	-24.1260E-3	-33.3271E-12	1.09718E+0	-19.3669E-3
-1.42321E-3	-33.8806E-12	1.10942E+0	-8.71174E-3	-33.4369E-12	1.11313E+0	-17.6465E-3
-1.42821E-3	-35.5244E-12	1.11579E+0	-1.24404E-3	-34.2561E-12	1.10799E+0	-11.1894E-3
-1.43322E-3	-35.2871E-12	1.12467E+0	-10.8524E-3	-34.7297E-12	1.10994E+0	-6.16446E-3
-1.43822E-3	-35.0803E-12	1.13050E+0	-19.1398E-3	-34.6625E-12	1.13609E+0	-26.4956E-3
-1.44322E-3	-35.2738E-12	1.13634E+0	-11.2987E-3	-35.1162E-12	1.14997E+0	-45.5221E-3
-1.44822E-3	-36.0053E-12	1.14364E+0	5.87749E-3	-36.0427E-12	1.15496E+0	-27.0743E-3
-1.45323E-3	-36.8745E-12	1.15345E+0	1.86998E-3	-36.6408E-12	1.16274E+0	-9.53510E-3
-1.45823E-3	-36.2881E-12	1.14787E+0	-18.5041E-3	-36.4927E-12	1.16700E+0	-18.1094E-3
-1.46323E-3	-36.6051E-12	1.13584E+0	-24.9163E-3	-36.9958E-12	1.18191E+0	-21.0246E-3
-1.46823E-3	-37.0645E-12	1.14759E+0	-17.7649E-3	-38.0489E-12	1.20025E+0	-19.8255E-3
-1.47324E-3	-38.7256E-12	1.15693E+0	-3.82265E-3	-38.7736E-12	1.18288E+0	-23.6208E-3
-1.47824E-3	-38.4495E-12	1.15274E+0	-737.802E-6	-38.6322E-12	1.15368E+0	-20.9586E-3
-1.48324E-3	-38.4086E-12	1.16207E+0	-14.3098E-3	-38.8629E-12	1.16322E+0	-14.7150E-3
-1.48824E-3	-38.2002E-12	1.16369E+0	-16.1194E-3	-39.6760E-12	1.17912E+0	-23.5479E-3
-1.49325E-3	-39.0014E-12	1.15461E+0	-1.26177E-3	-40.2732E-12	1.16967E+0	-25.8655E-3
-1.49825E-3	-39.6102E-12	1.16367E+0	11.2958E-3	-39.8665E-12	1.17019E+0	-15.4893E-3
-1.50325E-3	-39.0983E-12	1.17758E+0	19.3376E-3	-40.0434E-12	1.17772E+0	-23.7959E-3
-1.50825E-3	-39.4643E-12	1.17793E+0	10.5379E-3	-40.9313E-12	1.16616E+0	-34.6539E-3
-1.51326E-3	-40.1215E-12	1.16733E+0	-14.2486E-3	-41.6869E-12	1.14918E+0	-33.4585E-3
-1.51826E-3	-40.9366E-12	1.16498E+0	-17.6145E-3	-41.4775E-12	1.13642E+0	-34.8658E-3
-1.52326E-3	-41.0810E-12	1.17596E+0	-7.93032E-3	-41.6426E-12	1.13371E+0	-22.2319E-3
-1.52826E-3	-41.5179E-12	1.17597E+0	-19.3502E-3	-42.6729E-12	1.13896E+0	1.33542E-3
-1.53327E-3	-41.9646E-12	1.15765E+0	-32.3704E-3	-43.1357E-12	1.14226E+0	5.61522E-3
-1.53827E-3	-42.1433E-12	1.13839E+0	-33.9882E-3	-43.3984E-12	1.14476E+0	6.07219E-3
-1.54327E-3	-42.7713E-12	1.13949E+0	-32.2065E-3	-43.6823E-12	1.14932E+0	9.12646E-3
-1.54827E-3	-43.3489E-12	1.16314E+0	-11.6938E-3	-44.4085E-12	1.15155E+0	2.66026E-3
-1.55328E-3	-43.7313E-12	1.17945E+0	-491.272E-6	-44.7819E-12	1.14467E+0	-8.50306E-3
-1.55828E-3	-43.9826E-12	1.17214E+0	-23.7807E-3	-44.8038E-12	1.14926E+0	-11.7869E-3
-1.56328E-3	-44.9888E-12	1.15323E+0	-36.4747E-3	-45.0140E-12	1.15528E+0	-10.6475E-3
-1.56828E-3	-45.2781E-12	1.13723E+0	-25.3080E-3	-45.1760E-12	1.12536E+0	-13.4560E-3
-1.57329E-3	-45.1717E-12	1.13948E+0	-16.0744E-3	-45.0447E-12	1.09218E+0	-9.51968E-3
-1.57829E-3	-45.7612E-12	1.14936E+0	-10.4760E-3	-45.9411E-12	1.09180E+0	-5.85904E-3
-1.58329E-3	-46.1480E-12	1.14925E+0	-10.4893E-3	-46.1827E-12	1.09249E+0	-6.83168E-3
-1.58829E-3	-46.6793E-12	1.14537E+0	-20.9353E-3	-46.0568E-12	1.08874E+0	-2.92257E-3
-1.59330E-3	-46.8157E-12	1.14692E+0	-21.0998E-3	-46.2689E-12	1.09708E+0	-9.84652E-3
-1.59830E-3	-46.8867E-12	1.15214E+0	-9.12535E-3	-46.8359E-12	1.10787E+0	-23.0439E-3
-1.60330E-3	-47.5654E-12	1.14537E+0	-10.7420E-3	-47.8386E-12	1.11451E+0	-17.8576E-3
-1.60830E-3	-48.5911E-12	1.13129E+0	-22.1882E-3	-48.3209E-12	1.10850E+0	-8.00229E-3
-1.61331E-3	-48.9974E-12	1.11469E+0	-24.6921E-3	-48.2840E-12	1.09275E+0	-24.5904E-3
-1.61831E-3	-49.0160E-12	1.09533E+0	-28.7669E-3	-48.3897E-12	1.08444E+0	-43.6576E-3
-1.62331E-3	-49.9938E-12	1.09190E+0	-35.7252E-3	-49.4545E-12	1.08850E+0	-36.7592E-3
-1.62831E-3	-50.5754E-12	1.10099E+0	-26.0686E-3	-50.1261E-12	1.08686E+0	-22.1188E-3
-1.63332E-3	-50.7585E-12	1.10512E+0	-15.1091E-3	-50.2119E-12	1.07497E+0	-12.1814E-3
-1.63832E-3	-50.9767E-12	1.10476E+0	-11.6751E-3	-50.0603E-12	1.07019E+0	-18.0419E-3
-1.64332E-3	-51.2403E-12	1.09700E+0	-5.14724E-3	-50.7971E-12	1.05487E+0	-27.4664E-3
-1.64832E-3	-51.7207E-12	1.09345E+0	-4.20255E-3	-51.2832E-12	1.02971E+0	-3.31470E-3
-1.65333E-3	-52.1063E-12	1.10326E+0	-6.96261E-3	-51.2925E-12	1.03095E+0	18.9077E-3
-1.65833E-3	-52.3438E-12	1.10425E+0	-4.12005E-3	-51.4523E-12	1.03162E+0	1.58124E-3
-1.66333E-3	-51.9991E-12	1.08903E+0	-11.0629E-3	-51.4903E-12	1.01121E+0	-4.43714E-3
-1.66833E-3	-52.2625E-12	1.07092E+0	-30.2476E-3	-51.8567E-12	1.01155E+0	2.86947E-3
-1.67334E-3	-52.3809E-12	1.05947E+0	-31.4268E-3	-51.8204E-12	1.02778E+0	-8.86891E-3
-1.67834E-3	-52.8444E-12	1.04176E+0	-12.1072E-3	-52.3703E-12	1.02494E+0	-13.6539E-3
-1.68334E-3	-53.1271E-12	1.01947E+0	-2.70229E-3	-52.3740E-12	1.01612E+0	-12.5387E-3
-1.68834E-3	-53.2003E-12	1.00578E+0	-21.0886E-3	-52.8897E-12	1.01205E+0	-25.4522E-3
-1.69335E-3	-53.1195E-12	984.477E-3	-44.6821E-3	-53.3654E-12	1.00197E+0	-33.2180E-3
-1.69835E-3	-53.6151E-12	970.959E-3	-43.8361E-3	-54.0089E-12	991.113E-3	-30.6372E-3
-1.70335E-3	-54.9394E-12	977.826E-3	-22.5232E-3	-54.2970E-12	993.750E-3	-36.8164E-3
-1.70835E-3	-55.0628E-12	981.115E-3	709.944E-6	-54.7790E-12	993.113E-3	-39.5531E-3
-1.71336E-3	-54.8039E-12	984.616E-3	-1.92802E-3	-55.6303E-12	982.237E-3	-30.3868E-3
-1.71836E-3	-55.5029E-12	984.212E-3	-19.5987E-3	-56.3964E-12	987.193E-3	-32.0289E-3
-1.72336E-3	-56.0574E-12	973.681E-3	-15.6509E-3	-56.4971E-12	991.756E-3	-27.8590E-3
-1.72836E-3	-56.2023E-12	971.767E-3	-5.67749E-3	-56.5646E-12	984.556E-3	-8.45537E-3
-1.73337E-3	-56.3127E-12	983.390E-3	-8.35834E-3	-57.2424E-12	985.463E-3	-10.3251E-3
-1.73837E-3	-56.9172E-12	979.128E-3	-15.9398E-3	-57.5122E-12	979.017E-3	-16.6910E-3
-1.74337E-3	-57.2890E-12	964.365E-3	-26.2581E-3	-57.9257E-12	959.047E-3	4.39096E-3
-1.74837E-3	-57.1973E-12	978.769E-3	-29.1785E-3	-57.0050E-12	937.060E-3	18.5608E-3
-1.75338E-3	-57.1594E-12	986.009E-3	-8.74719E-3	-56.8132E-12	919.845E-3	10.4827E-3
-1.75838E-3	-57.2369E-12	973.964E-3	6.43994E-3	-57.7268E-12	925.113E-3	2.82056E-3
-1.76338E-3	-57.3452E-12	976.613E-3	-887.399E-6	-57.5856E-12	929.875E-3	-11.8705E-3
-1.76838E-3	-57.6436E-12	970.446E-3	-4.40877E-3	-57.3371E-12	903.313E-3	-28.9036E-3
-1.77339E-3	-57.8929E-12	948.950E-3	-2.78178E-3	-57.2034E-12	886.514E-3	-19.3879E-3
-1.77839E-3	-57.8480E-12	937.865E-3	-5.18368E-3	-58.4120E-12	902.500E-3	-5.35598E-3
-1.78339E-3	-57.7624E-12	931.854E-3	-14.8528E-3	-58.8552E-12	912.645E-3	-14.0757E-3
-1.78839E-3	-58.4975E-12	921.012E-3	-34.6085E-3	-58.8779E-12	912.460E-3	-19.4949E-3
-1.79340E-3	-59.8678E-12	918.794E-3	-51.7408E-3	-58.8792E-12	917.653E-3	-24.9643E-3
-1.79840E-3	-59.6330E-12	919.755E-3	-40.0032E-3	-59.9153E-12	916.167E-3	-28.5759E-3
-1.80340E-3	-59.4826E-12	917.138E-3	-20.0101E-3	-61.2748E-12	915.686E-3	-11.6176E-3
-1.80840E-3	-60.8212E-12	925.364E-3	-17.1580E-3	-61.3420E-12	917.540E-3	-8.80647E-3
-1.81341E-3	-62.0711E-12	927.135E-3	-9.23304E-3	-61.7550E-12	912.352E-3	-28.8491E-3
-1.81841E-3	-62.0542E-12	906.158E-3	-11.5801E-3	-62.2680E-12	913.525E-3	-33.8299E-3
-1.82341E-3	-62.2270E-12	889.358E-3	-24.5968E-3	-62.9897E-12	920.818E-3	-32.9248E-3
-1.82841E-3	-63.0794E-12	891.450E-3	-18.2691E-3	-63.3347E-12	919.259E-3	-37.2642E-3
-1.83342E-3	-63.3430E-12	910.349E-3	-15.1326E-3	-63.7851E-12	906.512E-3	-21.9963E-3
-1.83842E-3	-64.3413E-12	929.083E-3	-28.6674E-3	-63.7692E-12	896.302E-3	-3.91562E-3
-1.84342E-3	-63.8528E-12	929.659E-3	-33.7919E-3	-63.5809E-12	877.031E-3	-11.5879E-3
-1.84842E-3	-63.9271E-12	926.083E-3	-16.7804E-3	-63.7892E-12	847.838E-3	-16.7752E-3
-1.85343E-3	-63.9479E-12	927.238E-3	2.77386E-3	-63.7543E-12	847.494E-3	-5.80792E-3
-1.85843E-3	-64.1431E-12	930.114E-3	2.84771E-3	-63.9660E-12	870.137E-3	-8.43453E-3
-1.86343E-3	-63.9737E-12	919.359E-3	-18.6792E-3	-63.9415E-12	872.244E-3	-17.4452E-3
-1.86843E-3	-64.1939E-12	888.209E-3	-42.1272E-3	-64.1351E-12	860.693E-3	-26.3233E-3
-1.87344E-3	-64.6665E-12	868.125E-3	-33.4493E-3	-64.8014E-12	855.904E-3	-36.9138E-3
-1.87844E-3	-64.7800E-12	876.486E-3	-4.39307E-3	-65.1539E-12	846.801E-3	-25.1396E-3
-1.88344E-3	-65.1406E-12	881.567E-3	-5.09697E-3	-65.0659E-12	844.570E-3	1.61783E-3
-1.88844E-3	-65.2184E-12	867.339E-3	-23.7475E-3	-65.7620E-12	865.029E-3	11.4227E-3
-1.89345E-3	-65.9298E-12	855.830E-3	-20.9329E-3	-66.5404E-12	873.942E-3	16.3903E-3
-1.89845E-3	-66.2951E-12	852.480E-3	-11.4421E-3	-67.1625E-12	857.041E-3	32.0294E-3
-1.90345E-3	-66.6293E-12	853.903E-3	-17.6304E-3	-66.9583E-12	856.835E-3	25.3714E-3
-1.90845E-3	-66.8341E-12	849.527E-3	-16.7210E-3	-67.4173E-12	859.414E-3	-168.954E-6
-1.91346E-3	-67.7995E-12	837.754E-3	-9.27482E-3	-68.0488E-12	846.889E-3	-7.44230E-3
-1.91846E-3	-68.4607E-12	834.938E-3	-14.6670E-3	-68.5812E-12	848.088E-3	-5.90614E-3
-1.92346E-3	-68.3774E-12	834.504E-3	-11.4704E-3	-68.5689E-12	850.440E-3	-16.6080E-3
-1.92846E-3	-68.6100E-12	837.372E-3	-21.1008E-6	-68.4304E-12	839.857E-3	-36.0212E-3
-1.93347E-3	-69.6805E-12	851.648E-3	-8.47254E-3	-68.4408E-12	833.598E-3	-45.1812E-3
-1.93847E-3	-70.1299E-12	864.347E-3	-29.6820E-3	-68.7395E-12	831.749E-3	-36.4330E-3
-1.94347E-3	-70.5037E-12	858.814E-3	-22.7970E-3	-69.5042E-12	822.771E-3	-21.4000E-3
-1.94847E-3	-70.1812E-12	838.522E-3	-1.36691E-3	-69.4116E-12	823.189E-3	-9.99820E-3
-1.95348E-3	-70.2421E-12	823.085E-3	-4.39249E-3	-69.1945E-12	833.046E-3	-4.79443E-3
-1.95848E-3	-71.0389E-12	826.928E-3	-19.2829E-3	-69.7221E-12	833.354E-3	2.26423E-3
-1.96348E-3	-71.5452E-12	852.413E-3	-31.9413E-3	-69.9953E-12	830.239E-3	7.14533E-3
-1.96848E-3	-71.4701E-12	878.559E-3	-41.3194E-3	-70.2705E-12	829.716E-3	1.94885E-3
-1.97349E-3	-71.5257E-12	871.018E-3	-44.2322E-3	-70.0538E-12	815.941E-3	-3.54153E-3
-1.97849E-3	-72.0267E-12	844.771E-3	-44.1530E-3	-70.7020E-12	799.816E-3	-5.87518E-3
-1.98349E-3	-72.0717E-12	829.450E-3	-31.6076E-3	-71.1471E-12	791.983E-3	-11.0908E-3
-1.98849E-3	-72.4733E-12	830.868E-3	-12.0808E-3	-71.4528E-12	779.005E-3	-10.9671E-3
-1.99350E-3	-72.4159E-12	843.136E-3	-4.57267E-3	-71.4833E-12	793.420E-3	2.86687E-3
-1.99850E-3	-72.1184E-12	851.465E-3	-1.92303E-3	-71.5720E-12	822.385E-3	3.45118E-3
-2.00350E-3	-72.2912E-12	841.584E-3	-10.1946E-3	-72.0662E-12	812.473E-3	-5.87863E-3
-2.00850E-3	-73.1204E-12	817.819E-3	-24.6895E-3	-72.7265E-12	785.701E-3	6.83410E-3
-2.01351E-3	-73.0526E-12	813.121E-3	-36.3642E-3	-72.9238E-12	779.272E-3	7.02580E-3
-2.01851E-3	-72.9205E-12	819.946E-3	-37.9320E-3	-73.0811E-12	788.978E-3	-16.8959E-3
-2.02351E-3	-73.5837E-12	804.573E-3	-29.7716E-3	-73.5354E-12	795.145E-3	-26.4563E-3
-2.02851E-3	-73.5663E-12	776.810E-3	-30.0034E-3	-74.2578E-12	786.750E-3	-17.3670E-3
-2.03352E-3	-73.6531E-12	783.540E-3	-38.3461E-3	-74.7997E-12	773.581E-3	-16.1188E-3
-2.03852E-3	-74.3198E-12	815.425E-3	-36.1770E-3	-74.5030E-12	770.270E-3	-30.5309E-3
-2.04352E-3	-74.5409E-12	818.501E-3	-27.3248E-3	-74.7690E-12	792.701E-3	-41.7302E-3
-2.04852E-3	-74.3441E-12	795.398E-3	-25.0966E-3	-75.7497E-12	817.702E-3	-37.5899E-3
-2.05353E-3	-74.5532E-12	785.044E-3	-25.5785E-3	-75.5683E-12	812.966E-3	-22.3842E-3
-2.05853E-3	-75.2187E-12	801.202E-3	-29.9349E-3	-75.3519E-12	804.045E-3	-18.4980E-3
-2.06353E-3	-75.6615E-12	817.275E-3	-39.1194E-3	-75.9244E-12	794.528E-3	-26.7752E-3
-2.06853E-3	-76.4947E-12	812.033E-3	-41.7044E-3	-76.1025E-12	781.153E-3	-34.3586E-3
-2.07354E-3	-75.8894E-12	793.453E-3	-31.6737E-3	-76.1385E-12	772.415E-3	-30.5538E-3
-2.07854E-3	-75.8235E-12	777.535E-3	-23.5659E-3	-76.1767E-12	758.539E-3	-23.7154E-3
-2.08354E-3	-75.4963E-12	771.298E-3	-22.5704E-3	-76.3124E-12	765.947E-3	-26.8746E-3
-2.08854E-3	-76.4800E-12	772.446E-3	-20.0872E-3	-76.2392E-12	787.422E-3	-27.2086E-3
-2.09355E-3	-75.8269E-12	773.272E-3	-9.00017E-3	-76.2456E-12	783.765E-3	-20.7629E-3
-2.09855E-3	-75.3304E-12	768.659E-3	989.668E-6	-76.1180E-12	775.322E-3	-7.41065E-3
-2.10355E-3	-75.8167E-12	767.976E-3	-7.79437E-3	-76.2516E-12	776.851E-3	-4.85893E-3
-2.10855E-3	-76.3757E-12	769.703E-3	-21.9689E-3	-76.5143E-12	776.921E-3	-28.8677E-3
-2.11356E-3	-76.5001E-12	765.921E-3	-14.0175E-3	-77.0650E-12	780.059E-3	-51.3004E-3
-2.11856E-3	-76.2528E-12	765.161E-3	2.11507E-3	-77.0286E-12	780.125E-3	-47.3597E-3
-2.12356E-3	-76.6420E-12	756.865E-3	5.58207E-3	-77.5883E-12	762.935E-3	-24.0907E-3
-2.12856E-3	-77.6923E-12	740.238E-3	-3.10204E-3	-78.4268E-12	745.143E-3	-7.79726E-3
-2.13357E-3	-78.6869E-12	739.502E-3	-14.7761E-3	-78.6607E-12	745.368E-3	-17.9069E-3
-2.13857E-3	-78.6716E-12	757.712E-3	-3.70716E-3	-78.9803E-12	752.401E-3	-36.3515E-3
-2.14357E-3	-78.5349E-12	773.496E-3	19.0775E-3	-79.6373E-12	771.966E-3	-32.0374E-3
-2.14857E-3	-79.1813E-12	784.021E-3	22.7059E-3	-80.2312E-12	801.491E-3	-5.39117E-3
-2.15358E-3	-80.2886E-12	806.336E-3	15.9778E-3	-80.8445E-12	796.648E-3	3.14244E-3
-2.15858E-3	-81.2982E-12	804.282E-3	9.46114E-3	-81.4807E-12	766.264E-3	-17.5128E-3
-2.16358E-3	-81.6394E-12	773.762E-3	-6.93121E-3	-81.7449E-12	756.390E-3	-29.6778E-3
-2.16858E-3	-81.7015E-12	770.553E-3	-29.6199E-3	-81.7659E-12	767.932E-3	-31.9196E-3
-2.17359E-3	-82.4165E-12	779.930E-3	-30.7082E-3	-81.7615E-12	767.001E-3	-20.3130E-3
-2.17859E-3	-82.8718E-12	765.766E-3	-9.63843E-3	-82.4323E-12	748.746E-3	-6.40179E-3
-2.18359E-3	-82.4323E-12	757.589E-3	5.55359E-3	-82.3036E-12	739.416E-3	-15.5981E-3
-2.18859E-3	-81.7814E-12	774.897E-3	3.13318E-3	-81.0786E-12	741.668E-3	-12.6591E-3
-2.19360E-3	-82.9502E-12	789.698E-3	-9.65181E-3	-80.7851E-12	750.226E-3	-7.54741E-3
-2.19860E-3	-83.9586E-12	783.195E-3	-27.0216E-3	-81.0144E-12	756.273E-3	-33.2691E-3
-2.20360E-3	-83.2583E-12	768.708E-3	-36.1408E-3	-82.0205E-12	747.709E-3	-42.0549E-3
-2.20860E-3	-82.1127E-12	763.913E-3	-14.6462E-3	-81.4157E-12	729.994E-3	-22.7490E-3
-2.21361E-3	-82.4776E-12	764.838E-3	19.5494E-3	-81.2111E-12	725.307E-3	-23.3606E-3
-2.21861E-3	-83.6828E-12	767.615E-3	20.0033E-3	-81.9639E-12	734.850E-3	-32.5047E-3
-2.22361E-3	-84.0070E-12	759.408E-3	-8.23014E-3	-83.3059E-12	746.900E-3	-23.6115E-3
-2.22861E-3	-83.7750E-12	746.118E-3	-16.3397E-3	-84.2474E-12	751.477E-3	-10.5049E-3
-2.23362E-3	-84.0727E-12	745.310E-3	1.63035E-3	-84.1461E-12	751.735E-3	-9.25704E-3
-2.23862E-3	-85.4586E-12	746.115E-3	11.5280E-3	-84.9096E-12	765.786E-3	-14.1817E-3
-2.24362E-3	-86.2514E-12	753.082E-3	8.31732E-3	-85.7808E-12	773.467E-3	-17.6117E-3
-2.24862E-3	-86.0584E-12	759.238E-3	5.55190E-3	-86.4643E-12	758.861E-3	-18.9517E-3
-2.25363E-3	-86.3034E-12	763.141E-3	-5.90213E-3	-87.2448E-12	748.553E-3	-13.6140E-3
-2.25863E-3	-86.8533E-12	776.205E-3	-13.3779E-3	-87.2368E-12	748.800E-3	-7.20339E-3
-2.26363E-3	-88.5504E-12	787.726E-3	2.40228E-3	-87.5418E-12	748.626E-3	2.26824E-3
-2.26863E-3	-88.0065E-12	788.203E-3	15.3448E-3	-87.6454E-12	747.677E-3	21.5813E-3
-2.27364E-3	-87.8068E-12	774.282E-3	-1.09276E-3	-88.2807E-12	747.842E-3	23.3986E-3
-2.27864E-3	-87.8069E-12	764.993E-3	-22.2498E-3	-87.6985E-12	745.504E-3	4.13323E-3
-2.28364E-3	-88.6018E-12	756.223E-3	-16.8474E-3	-87.3577E-12	729.783E-3	-8.92074E-3
-2.28864E-3	-88.9641E-12	751.113E-3	-24.8655E-3	-86.5287E-12	718.835E-3	-5.58995E-3
-2.29365E-3	-87.7445E-12	775.928E-3	-45.2508E-3	-87.4120E-12	722.704E-3	-2.21354E-3
-2.29865E-3	-87.8636E-12	799.369E-3	-33.8956E-3	-87.2814E-12	723.379E-3	-14.3487E-3
-2.30365E-3	-88.0755E-12	795.858E-3	-19.6895E-3	-86.8037E-12	726.196E-3	-8.82959E-3
-2.30865E-3	-88.4864E-12	778.750E-3	-18.6555E-3	-87.1985E-12	728.022E-3	5.35305E-3
-2.31366E-3	-88.4338E-12	747.878E-3	-8.77242E-3	-87.4528E-12	725.118E-3	-8.17272E-3
-2.31866E-3	-88.5572E-12	733.628E-3	4.65504E-3	-88.3027E-12	736.630E-3	-17.3391E-3
-2.32366E-3	-88.5110E-12	751.815E-3	8.95289E-3	-88.1103E-12	751.145E-3	-18.4131E-3
-2.32866E-3	-89.4563E-12	765.284E-3	5.96817E-3	-88.8431E-12	750.831E-3	-28.1033E-3
-2.33367E-3	-90.3545E-12	752.693E-3	-6.18841E-3	-89.0757E-12	739.979E-3	-24.3884E-3
-2.33867E-3	-88.9722E-12	740.078E-3	-26.1358E-3	-90.0690E-12	734.780E-3	-22.3071E-3
-2.34367E-3	-89.1535E-12	747.775E-3	-36.4183E-3	-90.5993E-12	744.688E-3	-32.9610E-3
-2.34867E-3	-90.0047E-12	748.725E-3	-38.4730E-3	-90.5451E-12	750.681E-3	-28.8967E-3
-2.35368E-3	-90.8510E-12	746.863E-3	-35.8702E-3	-91.2719E-12	743.604E-3	-8.04696E-3
-2.35868E-3	-89.8543E-12	751.884E-3	-19.0656E-3	-91.7335E-12	737.774E-3	2.44671E-3
-2.36368E-3	-89.9300E-12	740.696E-3	-15.9954E-3	-91.4923E-12	734.772E-3	-7.68618E-3
-2.36868E-3	-90.7998E-12	716.664E-3	-35.3009E-3	-91.5583E-12	724.885E-3	-19.0529E-3
-2.37369E-3	-91.3402E-12	700.568E-3	-44.6657E-3	-93.0226E-12	717.023E-3	-8.23827E-3
-2.37869E-3	-91.4080E-12	706.910E-3	-36.0057E-3	-92.3928E-12	718.497E-3	13.9122E-3
-2.38369E-3	-91.1670E-12	718.337E-3	-15.9363E-3	-92.2464E-12	728.738E-3	11.5793E-3
-2.38869E-3	-91.2321E-12	717.539E-3	-2.73884E-3	-92.0132E-12	738.519E-3	6.88906E-3
-2.39370E-3	-92.0370E-12	715.735E-3	-18.2608E-3	-92.4623E-12	722.287E-3	9.97106E-3
-2.39870E-3	-92.4521E-12	715.911E-3	-31.2493E-3	-92.6178E-12	706.667E-3	-2.91004E-3
-2.40370E-3	-91.9773E-12	731.090E-3	-20.9274E-3	-92.3511E-12	712.385E-3	-23.3262E-3
-2.40870E-3	-92.0209E-12	736.721E-3	-9.94555E-3	-92.6555E-12	707.565E-3	-40.2188E-3
-2.41371E-3	-92.8075E-12	721.669E-3	-11.5418E-3	-93.3943E-12	705.059E-3	-47.9600E-3
-2.41871E-3	-93.0055E-12	716.343E-3	-30.5225E-3	-94.1020E-12	720.340E-3	-48.8820E-3
-2.42371E-3	-93.3873E-12	719.150E-3	-42.1976E-3	-93.7057E-12	730.254E-3	-36.4496E-3
-2.42871E-3	-93.4308E-12	723.304E-3	-38.6306E-3	-93.6161E-12	722.637E-3	-16.2593E-3
-2.43372E-3	-93.4361E-12	714.224E-3	-36.2098E-3	-94.5637E-12	708.331E-3	-17.6726E-3
-2.43872E-3	-93.6405E-12	702.762E-3	-37.3223E-3	-95.3444E-12	698.803E-3	-18.6431E-3
-2.44372E-3	-94.2142E-12	713.320E-3	-33.8012E-3	-95.0913E-12	685.144E-3	-12.4085E-3
-2.44872E-3	-94.2328E-12	734.342E-3	-27.0490E-3	-94.7639E-12	677.336E-3	-19.4533E-3
-2.45373E-3	-93.9901E-12	742.343E-3	-22.7187E-3	-95.0974E-12	705.997E-3	-21.4363E-3
-2.45873E-3	-93.7474E-12	727.344E-3	-17.3166E-3	-96.3948E-12	724.411E-3	-17.8857E-3
-2.46373E-3	-94.8122E-12	713.577E-3	-20.1392E-3	-96.3898E-12	698.246E-3	-19.3277E-3
-2.46873E-3	-94.8634E-12	711.636E-3	-15.1630E-3	-96.1009E-12	694.016E-3	-37.2071E-3
-2.47374E-3	-94.7364E-12	706.042E-3	-6.33397E-3	-96.2440E-12	720.746E-3	-54.3215E-3
-2.47874E-3	-94.4608E-12	707.975E-3	-17.7258E-3	-96.7622E-12	725.412E-3	-24.9871E-3
-2.48374E-3	-95.3535E-12	702.342E-3	-24.8054E-3	-98.0834E-12	718.432E-3	9.33638E-3
-2.48874E-3	-96.6588E-12	679.607E-3	-16.9780E-3	-97.8517E-12	715.302E-3	6.39220E-3
-2.49375E-3	-96.6355E-12	687.390E-3	-12.5156E-3	-97.7174E-12	724.494E-3	-3.52411E-3
-2.49875E-3	-96.3078E-12	713.689E-3	-18.6064E-3	-97.6006E-12	736.195E-3	-11.9163E-3
-2.50375E-3	-97.1873E-12	727.030E-3	-31.6148E-3	-98.7269E-12	741.363E-3	-27.6003E-3
-2.50875E-3	-98.3278E-12	720.715E-3	-44.5097E-3	-99.7472E-12	737.398E-3	-39.4799E-3
-2.51376E-3	-98.9760E-12	694.507E-3	-39.6762E-3	-98.6680E-12	711.266E-3	-44.0718E-3
-2.51876E-3	-99.2317E-12	679.156E-3	-14.8833E-3	-98.1949E-12	701.699E-3	-42.1010E-3
-2.52376E-3	-98.8319E-12	693.607E-3	-4.79570E-3	-98.5648E-12	703.406E-3	-30.6005E-3
-2.52876E-3	-99.8335E-12	713.020E-3	-17.9693E-3	-99.3495E-12	694.913E-3	-28.4795E-3
-2.53377E-3	-99.1464E-12	713.977E-3	-29.9690E-3	-98.9333E-12	700.379E-3	-32.9950E-3
-2.53877E-3	-99.7427E-12	712.368E-3	-33.1435E-3	-98.0983E-12	705.205E-3	-23.6414E-3
-2.54377E-3	-99.5587E-12	720.666E-3	-29.1896E-3	-97.9877E-12	705.869E-3	-11.8541E-3
-2.54877E-3	-100.055E-12	727.765E-3	-16.9291E-3	-99.0725E-12	698.817E-3	-2.42217E-3
-2.55378E-3	-99.8276E-12	725.059E-3	-12.2040E-3	-99.6280E-12	680.064E-3	-6.76508E-3
-2.55878E-3	-100.701E-12	713.361E-3	-15.3311E-3	-99.2939E-12	681.732E-3	-33.2862E-3
-2.56378E-3	-100.475E-12	694.911E-3	-13.0811E-3	-99.8064E-12	705.956E-3	-44.7383E-3
-2.56878E-3	-100.261E-12	686.883E-3	-19.8122E-3	-100.733E-12	726.642E-3	-25.4952E-3
-2.57379E-3	-101.772E-12	693.307E-3	-16.9434E-3	-102.101E-12	730.947E-3	-5.73604E-3
-2.57879E-3	-102.305E-12	689.877E-3	1.83776E-3	-102.127E-12	716.560E-3	-1.96118E-3
-2.58379E-3	-102.212E-12	677.872E-3	-6.73136E-3	-102.192E-12	704.436E-3	2.99676E-3
-2.58879E-3	-102.531E-12	691.312E-3	-34.4932E-3	-102.600E-12	707.754E-3	15.5641E-3
-2.59380E-3	-103.828E-12	727.594E-3	-36.8275E-3	-103.622E-12	713.844E-3	15.4020E-3
-2.59880E-3	-104.529E-12	737.644E-3	-25.2032E-3	-103.646E-12	712.637E-3	4.34532E-3
-2.60380E-3	-104.525E-12	735.115E-3	-26.6696E-3	-103.488E-12	705.692E-3	-9.19855E-3
-2.60880E-3	-104.586E-12	741.836E-3	-16.1547E-3	-103.548E-12	704.665E-3	-29.6077E-3
-2.61381E-3	-105.369E-12	735.997E-3	-11.0134E-3	-103.253E-12	705.526E-3	-42.0357E-3
-2.61881E-3	-105.891E-12	738.702E-3	-16.2675E-3	-102.797E-12	696.836E-3	-37.8228E-3
-2.62381E-3	-105.101E-12	746.168E-3	-870.945E-6	-102.680E-12	679.885E-3	-26.5338E-3
-2.62881E-3	-104.661E-12	725.652E-3	-4.46330E-3	-102.264E-12	676.582E-3	-13.3323E-3
-2.63382E-3	-104.712E-12	716.543E-3	-36.4074E-3	-101.847E-12	697.476E-3	-11.9668E-3
-2.63882E-3	-105.841E-12	727.331E-3	-42.4282E-3	-102.132E-12	718.288E-3	-27.1385E-3
-2.64382E-3	-105.279E-12	711.456E-3	-25.0300E-3	-102.377E-12	718.596E-3	-35.2698E-3
-2.64882E-3	-105.431E-12	691.555E-3	-15.9357E-3	-102.801E-12	710.056E-3	-26.0805E-3
-2.65383E-3	-105.001E-12	709.749E-3	2.09630E-3	-103.543E-12	711.383E-3	-9.68753E-3
-2.65883E-3	-105.229E-12	735.774E-3	5.09313E-3	-103.418E-12	716.279E-3	5.86482E-3
-2.66383E-3	-105.813E-12	739.474E-3	-33.3735E-3	-104.154E-12	714.488E-3	8.69402E-3
-2.66883E-3	-106.774E-12	729.583E-3	-49.8131E-3	-105.351E-12	702.443E-3	1.93063E-3
-2.67384E-3	-105.973E-12	708.580E-3	-32.1761E-3	-106.258E-12	692.759E-3	-12.5940E-3
-2.67884E-3	-105.884E-12	692.705E-3	-39.7184E-3	-105.929E-12	699.707E-3	-28.4644E-3
-2.68384E-3	-106.205E-12	697.266E-3	-41.4472E-3	-106.568E-12	714.033E-3	-21.0536E-3
-2.68884E-3	-106.599E-12	705.718E-3	-5.31430E-3	-107.247E-12	724.658E-3	-10.3177E-3
-2.69385E-3	-107.038E-12	713.863E-3	1.77445E-3	-108.695E-12	725.508E-3	-15.0937E-3
-2.69885E-3	-107.208E-12	736.291E-3	-6.77414E-3	-108.801E-12	714.072E-3	-16.5167E-3
-2.70385E-3	-107.219E-12	748.577E-3	8.90284E-3	-108.047E-12	701.299E-3	-10.9477E-3
-2.70885E-3	-107.443E-12	727.883E-3	-955.096E-6	-108.051E-12	698.120E-3	-1.45738E-3
-2.71386E-3	-107.062E-12	706.457E-3	-12.1029E-3	-107.908E-12	698.084E-3	697.056E-6
-2.71886E-3	-106.845E-12	701.618E-3	5.25545E-3	-108.431E-12	698.809E-3	-16.1052E-3
-2.72386E-3	-106.969E-12	695.288E-3	-3.76329E-3	-107.463E-12	704.586E-3	-30.5252E-3
-2.72886E-3	-107.599E-12	701.591E-3	-29.4563E-3	-107.271E-12	713.449E-3	-28.4610E-3
-2.73387E-3	-106.982E-12	697.038E-3	-31.3845E-3	-107.056E-12	710.169E-3	-22.1698E-3
-2.73887E-3	-107.099E-12	661.587E-3	-32.2847E-3	-107.927E-12	686.534E-3	-24.7752E-3
-2.74387E-3	-107.370E-12	666.398E-3	-36.8826E-3	-108.053E-12	669.878E-3	-35.7833E-3
-2.74887E-3	-107.650E-12	692.992E-3	-30.0246E-3	-108.009E-12	673.572E-3	-53.4820E-3
-2.75388E-3	-107.943E-12	687.932E-3	-28.9609E-3	-108.657E-12	678.314E-3	-61.0495E-3
-2.75888E-3	-108.484E-12	688.618E-3	-25.9641E-3	-109.194E-12	676.022E-3	-36.0331E-3
-2.76388E-3	-109.202E-12	698.535E-3	-11.7323E-3	-110.482E-12	673.971E-3	-13.4238E-3
-2.76888E-3	-109.267E-12	682.114E-3	3.23849E-3	-110.526E-12	692.125E-3	-16.2803E-3
-2.77389E-3	-110.061E-12	668.010E-3	5.75866E-3	-110.694E-12	717.033E-3	-34.5899E-3
-2.77889E-3	-110.241E-12	683.560E-3	-7.27993E-3	-111.350E-12	717.601E-3	-41.4042E-3
-2.78389E-3	-110.296E-12	684.169E-3	-20.2071E-3	-111.717E-12	699.179E-3	-25.5950E-3
-2.78889E-3	-110.401E-12	659.751E-3	-26.9155E-3	-112.338E-12	679.695E-3	-22.3976E-3
-2.79390E-3	-111.252E-12	653.919E-3	-15.0425E-3	-111.938E-12	680.336E-3	-25.8914E-3
-2.79890E-3	-111.906E-12	661.144E-3	-4.01020E-3	-112.046E-12	690.532E-3	-23.1981E-3
-2.80390E-3	-111.616E-12	679.355E-3	-25.2587E-3	-111.959E-12	703.720E-3	-13.4550E-3
-2.80890E-3	-111.779E-12	704.569E-3	-35.5356E-3	-112.570E-12	708.329E-3	6.31180E-3
-2.81391E-3	-111.866E-12	696.088E-3	-8.86743E-3	-111.882E-12	691.687E-3	5.62880E-3
-2.81891E-3	-112.300E-12	666.690E-3	12.5843E-3	-111.532E-12	682.613E-3	-16.3982E-3
-2.82391E-3	-112.306E-12	672.230E-3	3.02645E-3	-110.928E-12	676.458E-3	-30.4296E-3
-2.82891E-3	-112.803E-12	692.166E-3	-16.0575E-3	-111.719E-12	669.335E-3	-28.2513E-3
-2.83392E-3	-113.185E-12	700.567E-3	-18.8658E-3	-111.872E-12	674.524E-3	-22.6885E-3
-2.83892E-3	-113.285E-12	725.794E-3	-13.3512E-3	-111.659E-12	684.321E-3	-33.3895E-3
-2.84392E-3	-113.488E-12	730.669E-3	-13.3412E-3	-112.169E-12	677.538E-3	-38.6711E-3
-2.84892E-3	-114.158E-12	699.647E-3	-13.6886E-3	-112.615E-12	659.504E-3	-19.0743E-3
-2.85393E-3	-114.907E-12	693.164E-3	-10.7670E-3	-113.015E-12	667.126E-3	375.497E-6
-2.85893E-3	-114.794E-12	708.223E-3	-4.63097E-3	-113.848E-12	688.238E-3	14.4640E-3
-2.86393E-3	-115.270E-12	702.418E-3	-10.4884E-3	-113.464E-12	680.485E-3	19.7100E-3
-2.86893E-3	-115.435E-12	691.987E-3	-24.1806E-3	-114.219E-12	663.056E-3	25.2717E-3
-2.87394E-3	-115.612E-12	697.195E-3	-9.10706E-3	-115.070E-12	659.753E-3	17.5905E-3
-2.87894E-3	-115.667E-12	708.864E-3	12.2494E-3	-115.661E-12	664.784E-3	-17.9677E-3
-2.88394E-3	-115.543E-12	718.654E-3	-13.5930E-3	-115.202E-12	668.980E-3	-28.1062E-3
-2.88894E-3	-116.214E-12	715.544E-3	-43.7948E-3	-116.161E-12	664.056E-3	-4.92805E-3
-2.89395E-3	-116.018E-12	702.174E-3	-32.8986E-3	-115.277E-12	661.437E-3	-3.68122E-3
-2.89895E-3	-115.183E-12	688.789E-3	-23.1019E-3	-115.262E-12	672.870E-3	-41.2828E-3
-2.90395E-3	-115.317E-12	677.389E-3	-16.8682E-3	-115.430E-12	688.749E-3	-63.1910E-3
-2.90895E-3	-116.036E-12	684.686E-3	-10.9667E-3	-115.451E-12	694.186E-3	-37.7665E-3
-2.91396E-3	-116.131E-12	699.759E-3	-12.2775E-3	-115.379E-12	683.840E-3	-2.79228E-3
-2.91896E-3	-115.943E-12	697.737E-3	2.03551E-3	-115.654E-12	663.263E-3	-3.08773E-3
-2.92396E-3	-116.619E-12	689.023E-3	5.34594E-3	-116.073E-12	650.796E-3	-16.7296E-3
-2.92896E-3	-116.948E-12	695.554E-3	-16.6415E-3	-116.391E-12	672.131E-3	-11.2576E-3
-2.93397E-3	-117.278E-12	708.675E-3	-25.0165E-3	-116.021E-12	717.235E-3	-16.6116E-3
-2.93897E-3	-117.723E-12	702.284E-3	-18.6728E-3	-116.150E-12	728.493E-3	-35.7192E-3
-2.94397E-3	-119.165E-12	687.809E-3	-35.7674E-3	-116.777E-12	702.198E-3	-41.7478E-3
-2.94897E-3	-119.385E-12	685.219E-3	-47.1830E-3	-117.672E-12	690.216E-3	-32.6847E-3
-2.95398E-3	-119.116E-12	692.291E-3	-12.9523E-3	-117.926E-12	691.124E-3	-25.0534E-3
-2.95898E-3	-119.463E-12	704.064E-3	11.4521E-3	-117.619E-12	685.595E-3	-21.4773E-3
-2.96398E-3	-119.743E-12	711.061E-3	-831.098E-6	-118.210E-12	687.773E-3	-3.45188E-3
-2.96898E-3	-119.465E-12	704.611E-3	-17.2064E-3	-119.094E-12	690.441E-3	6.75196E-3
-2.97399E-3	-119.104E-12	690.506E-3	-27.3725E-3	-119.552E-12	691.028E-3	-14.6912E-3
-2.97899E-3	-118.971E-12	691.249E-3	-33.7657E-3	-119.772E-12	701.669E-3	-30.8158E-3
-2.98399E-3	-119.079E-12	701.906E-3	-29.4487E-3	-119.770E-12	693.113E-3	-30.3944E-3
-2.98899E-3	-120.001E-12	690.513E-3	-13.8159E-3	-120.245E-12	667.613E-3	-40.8926E-3
-2.99400E-3	-119.272E-12	674.373E-3	-1.06754E-3	-120.738E-12	661.252E-3	-51.0793E-3
-2.99900E-3	-119.332E-12	662.854E-3	11.0489E-3	-121.265E-12	689.801E-3	-46.5031E-3
-3.00400E-3	-119.066E-12	647.314E-3	17.4103E-3	-121.657E-12	715.587E-3	-33.5644E-3
-3.00900E-3	-120.463E-12	658.719E-3	6.92452E-3	-122.343E-12	699.212E-3	-19.3575E-3
-3.01401E-3	-121.922E-12	681.723E-3	-15.3065E-3	-122.782E-12	676.125E-3	-14.6500E-3
-3.01901E-3	-121.289E-12	672.220E-3	-39.6588E-3	-123.436E-12	665.078E-3	-23.3368E-3
-3.02401E-3	-121.717E-12	668.495E-3	-35.9844E-3	-124.061E-12	671.142E-3	-22.1462E-3
-3.02901E-3	-122.821E-12	689.260E-3	-10.6305E-3	-124.647E-12	690.791E-3	-10.5040E-3
-3.03402E-3	-123.475E-12	685.019E-3	2.79099E-3	-125.038E-12	682.912E-3	-15.2857E-3
-3.03902E-3	-123.153E-12	673.128E-3	-100.185E-6	-124.720E-12	669.939E-3	-16.9220E-3
-3.04402E-3	-123.115E-12	673.449E-3	-11.7320E-3	-125.049E-12	678.138E-3	-21.3515E-3
-3.04902E-3	-123.684E-12	669.204E-3	-24.4750E-3	-124.647E-12	673.994E-3	-26.4361E-3
-3.05403E-3	-123.727E-12	682.138E-3	-26.6679E-3	-124.306E-12	671.888E-3	-1.31233E-3
-3.05903E-3	-123.728E-12	703.418E-3	-11.2308E-3	-124.492E-12	687.859E-3	20.9876E-3
-3.06403E-3	-123.790E-12	697.941E-3	4.94366E-3	-124.335E-12	691.197E-3	8.16835E-3
-3.06903E-3	-123.037E-12	695.936E-3	2.02846E-3	-123.973E-12	688.479E-3	-10.3150E-3
-3.07404E-3	-123.178E-12	707.712E-3	10.0846E-3	-123.610E-12	692.937E-3	-10.4720E-3
-3.07904E-3	-122.982E-12	703.145E-3	38.4343E-3	-123.999E-12	682.578E-3	-9.86157E-3
-3.08404E-3	-123.044E-12	704.109E-3	22.6777E-3	-124.861E-12	666.608E-3	-6.91680E-3
-3.08904E-3	-122.955E-12	714.957E-3	-7.74400E-3	-125.407E-12	688.712E-3	-1.96574E-3
-3.09405E-3	-123.439E-12	703.113E-3	-8.02327E-3	-125.324E-12	724.380E-3	-9.01507E-3
-3.09905E-3	-123.744E-12	675.101E-3	-8.34576E-3	-125.185E-12	724.790E-3	-20.1550E-3
-3.10405E-3	-123.917E-12	658.476E-3	-2.40638E-3	-126.452E-12	695.062E-3	-36.7588E-3
-3.10905E-3	-124.023E-12	653.020E-3	4.84469E-3	-127.792E-12	673.880E-3	-44.4399E-3
-3.11406E-3	-124.206E-12	655.510E-3	-18.3733E-3	-128.017E-12	691.359E-3	-21.8979E-3
-3.11906E-3	-125.969E-12	676.354E-3	-41.9338E-3	-127.355E-12	709.236E-3	-2.30954E-3
-3.12406E-3	-126.526E-12	682.864E-3	-24.2003E-3	-128.143E-12	696.010E-3	-10.1986E-3
-3.12906E-3	-126.364E-12	667.711E-3	-7.56810E-3	-128.698E-12	691.385E-3	-11.2354E-3
-3.13407E-3	-126.545E-12	671.882E-3	-9.42808E-3	-128.495E-12	695.126E-3	-1.82258E-3
-3.13907E-3	-127.468E-12	685.017E-3	-12.6993E-3	-127.414E-12	668.032E-3	-15.9446E-3
-3.14407E-3	-127.415E-12	683.694E-3	-29.7041E-3	-126.955E-12	639.341E-3	-13.0043E-3
-3.14907E-3	-127.746E-12	683.608E-3	-34.2152E-3	-126.762E-12	644.135E-3	11.1475E-3
-3.15408E-3	-127.700E-12	690.852E-3	839.887E-6	-126.727E-12	664.972E-3	-9.90262E-3
-3.15908E-3	-127.761E-12	702.708E-3	30.5788E-3	-127.173E-12	675.924E-3	-24.4809E-3
-3.16408E-3	-127.686E-12	696.223E-3	20.5552E-3	-125.964E-12	670.015E-3	-343.767E-6
-3.16908E-3	-127.677E-12	666.482E-3	-14.0208E-3	-126.095E-12	651.456E-3	-5.48124E-3
-3.17409E-3	-127.648E-12	654.887E-3	-47.7138E-3	-126.244E-12	634.524E-3	-28.1911E-3
-3.17909E-3	-128.276E-12	662.631E-3	-54.4866E-3	-127.420E-12	643.684E-3	-31.3977E-3
-3.18409E-3	-128.672E-12	667.096E-3	-30.1690E-3	-127.560E-12	651.982E-3	-23.2852E-3
-3.18909E-3	-128.547E-12	659.169E-3	-24.0803E-3	-127.905E-12	641.559E-3	-14.4619E-3
-3.19410E-3	-128.145E-12	648.623E-3	-58.4655E-3	-128.062E-12	652.234E-3	6.77693E-3
-3.19910E-3	-129.865E-12	650.989E-3	-54.3763E-3	-128.995E-12	664.267E-3	27.2714E-3
-3.20410E-3	-130.569E-12	659.062E-3	-7.28195E-3	-130.126E-12	654.780E-3	20.7071E-3
-3.20910E-3	-130.243E-12	676.542E-3	5.93067E-3	-130.436E-12	660.550E-3	12.9207E-3
-3.21411E-3	-130.973E-12	698.283E-3	-4.15790E-3	-130.950E-12	683.993E-3	8.43286E-3
-3.21911E-3	-131.875E-12	688.154E-3	-2.22730E-3	-131.455E-12	681.669E-3	-1.94723E-3
-3.22411E-3	-132.416E-12	662.788E-3	-6.90801E-3	-132.119E-12	660.458E-3	-6.88467E-3
-3.22911E-3	-132.439E-12	661.533E-3	-22.5058E-3	-131.742E-12	670.734E-3	-7.27457E-3
-3.23412E-3	-132.291E-12	669.885E-3	-22.8218E-3	-131.629E-12	688.858E-3	-13.0606E-3
-3.23912E-3	-132.648E-12	668.952E-3	-17.0681E-3	-131.161E-12	670.881E-3	-17.7140E-3
-3.24412E-3	-132.450E-12	677.871E-3	-19.1236E-3	-130.774E-12	643.099E-3	-9.86965E-3
-3.24912E-3	-132.563E-12	683.242E-3	-26.0092E-3	-130.316E-12	641.228E-3	-24.5646E-3
-3.25413E-3	-132.383E-12	665.466E-3	-36.5820E-3	-130.043E-12	665.482E-3	-43.6555E-3
-3.25913E-3	-132.497E-12	663.951E-3	-18.4221E-3	-130.222E-12	683.449E-3	-28.8222E-3
-3.26413E-3	-132.250E-12	668.354E-3	11.4706E-3	-129.780E-12	674.384E-3	-20.0759E-3
-3.26913E-3	-132.348E-12	664.735E-3	-14.9041E-3	-129.972E-12	661.495E-3	-18.2145E-3
-3.27414E-3	-132.634E-12	680.273E-3	-45.2125E-3	-130.968E-12	659.267E-3	-6.01240E-3
-3.27914E-3	-132.967E-12	682.458E-3	-26.6146E-3	-131.430E-12	660.174E-3	-17.8129E-3
-3.28414E-3	-133.062E-12	668.554E-3	-9.82676E-3	-132.251E-12	655.359E-3	-40.7921E-3
-3.28914E-3	-133.217E-12	676.032E-3	-2.09917E-3	-132.562E-12	646.389E-3	-32.6109E-3
-3.29415E-3	-133.691E-12	681.577E-3	4.58913E-3	-133.396E-12	652.064E-3	-11.8284E-3
-3.29915E-3	-133.737E-12	675.037E-3	-8.70193E-3	-134.273E-12	666.384E-3	-2.70701E-3
-3.30415E-3	-134.301E-12	681.652E-3	-22.1628E-3	-135.152E-12	685.502E-3	4.19994E-3
-3.30915E-3	-134.288E-12	681.991E-3	-13.6197E-3	-135.286E-12	695.287E-3	-705.183E-6
-3.31416E-3	-134.529E-12	658.041E-3	-10.4146E-3	-136.411E-12	686.186E-3	-7.90049E-3
-3.31916E-3	-134.461E-12	657.394E-3	-31.5668E-3	-136.353E-12	671.435E-3	-4.15564E-3
-3.32416E-3	-135.408E-12	692.061E-3	-36.3223E-3	-136.041E-12	651.356E-3	-5.78906E-3
-3.32916E-3	-135.807E-12	696.447E-3	-26.9595E-3	-136.975E-12	653.250E-3	-2.55464E-3
-3.33417E-3	-134.987E-12	679.469E-3	-27.5459E-3	-136.995E-12	685.798E-3	1.15973E-3
-3.33917E-3	-134.641E-12	674.545E-3	-19.3178E-3	-137.458E-12	714.240E-3	-11.4798E-3
-3.34417E-3	-134.929E-12	657.610E-3	-16.2365E-3	-137.214E-12	706.681E-3	-26.2467E-3
-3.34917E-3	-135.769E-12	650.388E-3	-36.4104E-3	-137.566E-12	690.689E-3	-26.3039E-3
-3.35418E-3	-135.595E-12	671.561E-3	-25.8195E-3	-137.656E-12	689.024E-3	-23.5296E-3
-3.35918E-3	-135.897E-12	677.134E-3	13.1374E-3	-137.790E-12	680.400E-3	-18.7736E-3
-3.36418E-3	-137.024E-12	667.411E-3	13.0294E-3	-137.447E-12	685.906E-3	3.03461E-3
-3.36918E-3	-138.098E-12	663.299E-3	-15.8928E-3	-137.752E-12	695.080E-3	-1.61940E-3
-3.37419E-3	-138.250E-12	667.658E-3	-25.2432E-3	-139.481E-12	682.432E-3	-40.3910E-3
-3.37919E-3	-138.472E-12	676.244E-3	-19.1808E-3	-138.816E-12	660.336E-3	-51.8978E-3
-3.38419E-3	-138.682E-12	679.688E-3	-24.9439E-3	-139.110E-12	646.523E-3	-51.4139E-3
-3.38919E-3	-139.698E-12	677.811E-3	-36.7748E-3	-138.783E-12	657.537E-3	-52.6968E-3
-3.39420E-3	-139.737E-12	675.023E-3	-58.4887E-3	-140.252E-12	678.621E-3	-27.3991E-3
-3.39920E-3	-139.322E-12	677.575E-3	-61.8547E-3	-140.769E-12	701.576E-3	-396.197E-6
-3.40420E-3	-139.170E-12	660.812E-3	-34.5388E-3	-140.426E-12	700.874E-3	974.626E-6
-3.40920E-3	-139.033E-12	645.559E-3	-19.2563E-3	-139.774E-12	670.954E-3	-11.3746E-3
-3.41421E-3	-139.531E-12	670.790E-3	-22.2405E-3	-139.882E-12	664.459E-3	-12.1143E-3
-3.41921E-3	-139.820E-12	677.985E-3	-25.9593E-3	-140.571E-12	674.942E-3	-11.5262E-3
-3.42421E-3	-139.400E-12	642.609E-3	-22.4332E-3	-140.058E-12	683.493E-3	-9.97629E-3
-3.42921E-3	-139.272E-12	623.232E-3	-8.82894E-3	-140.058E-12	685.637E-3	-7.48733E-3
-3.43422E-3	-139.460E-12	643.658E-3	-6.73123E-3	-139.815E-12	671.468E-3	-36.0291E-3
-3.43922E-3	-140.242E-12	674.758E-3	-22.8216E-3	-140.326E-12	662.057E-3	-58.4422E-3
-3.44422E-3	-140.617E-12	694.762E-3	-24.6432E-3	-140.343E-12	669.465E-3	-29.9981E-3
-3.44922E-3	-141.365E-12	680.095E-3	-10.6079E-3	-141.436E-12	686.325E-3	-9.26448E-3
-3.45423E-3	-141.550E-12	642.692E-3	777.972E-6	-141.866E-12	694.719E-3	-12.5270E-3
-3.45923E-3	-142.125E-12	638.983E-3	-3.12621E-3	-141.591E-12	697.688E-3	-4.27192E-3
-3.46423E-3	-143.055E-12	653.964E-3	-25.7541E-3	-142.070E-12	707.016E-3	-12.8004E-3
-3.46923E-3	-143.901E-12	651.876E-3	-40.1614E-3	-142.930E-12	682.213E-3	-30.8424E-3
-3.47424E-3	-143.856E-12	657.113E-3	-30.7413E-3	-143.095E-12	657.781E-3	-24.4120E-3
-3.47924E-3	-143.901E-12	660.366E-3	-18.6019E-3	-142.699E-12	669.564E-3	-13.9633E-3
-3.48424E-3	-143.538E-12	650.937E-3	-19.9015E-3	-143.015E-12	664.589E-3	-11.0251E-3
-3.48924E-3	-143.677E-12	668.275E-3	-28.6650E-3	-142.937E-12	652.825E-3	-317.121E-6
-3.49425E-3	-143.637E-12	704.926E-3	-22.8814E-3	-143.222E-12	657.369E-3	4.45197E-3
-3.49925E-3	-142.930E-12	709.867E-3	-12.7237E-3	-142.684E-12	660.524E-3	-8.23681E-3
-3.50425E-3	-142.277E-12	693.014E-3	-19.9550E-3	-141.593E-12	654.415E-3	-18.8629E-3
-3.50925E-3	-143.001E-12	679.337E-3	-13.5250E-3	-141.816E-12	641.045E-3	-31.3601E-3
-3.51426E-3	-143.135E-12	650.152E-3	-1.31417E-3	-142.230E-12	626.633E-3	-46.4878E-3
-3.51926E-3	-142.954E-12	638.437E-3	-19.3050E-3	-143.158E-12	632.417E-3	-49.1758E-3
-3.52426E-3	-142.521E-12	651.488E-3	-27.8290E-3	-142.327E-12	664.228E-3	-49.6900E-3
-3.52926E-3	-143.213E-12	632.102E-3	-24.2773E-3	-142.973E-12	690.083E-3	-48.8561E-3
-3.53427E-3	-143.934E-12	608.251E-3	-38.1900E-3	-144.831E-12	681.608E-3	-41.2325E-3
-3.53927E-3	-145.099E-12	626.633E-3	-30.1342E-3	-145.532E-12	657.772E-3	-36.2548E-3
-3.54427E-3	-145.265E-12	635.552E-3	-13.1611E-3	-145.372E-12	646.611E-3	-26.1780E-3
-3.54927E-3	-145.555E-12	626.254E-3	-31.0460E-3	-146.268E-12	642.504E-3	-2.91318E-3
-3.55428E-3	-145.888E-12	639.624E-3	-45.2326E-3	-147.191E-12	647.635E-3	-2.18132E-3
-3.55928E-3	-146.331E-12	654.302E-3	-32.9761E-3	-147.441E-12	644.369E-3	-17.7192E-3
-3.56428E-3	-147.405E-12	674.997E-3	-13.9501E-3	-147.472E-12	623.459E-3	726.990E-6
-3.56928E-3	-147.441E-12	698.412E-3	18.5168E-3	-147.749E-12	632.423E-3	11.6585E-3
-3.57429E-3	-146.832E-12	670.034E-3	30.1785E-3	-147.333E-12	668.075E-3	-18.5548E-3
-3.57929E-3	-146.265E-12	645.708E-3	54.7319E-6	-147.095E-12	676.628E-3	-24.5835E-3
-3.58429E-3	-146.702E-12	661.373E-3	-22.3443E-3	-146.319E-12	662.679E-3	3.39283E-3
-3.58929E-3	-146.572E-12	660.907E-3	-30.7243E-3	-145.819E-12	660.005E-3	-2.85256E-3
-3.59430E-3	-145.763E-12	664.494E-3	-38.4864E-3	-145.739E-12	664.750E-3	-26.5293E-3
-3.59930E-3	-145.795E-12	685.034E-3	-31.6378E-3	-146.278E-12	651.892E-3	-17.8191E-3
-3.60430E-3	-146.180E-12	689.692E-3	-15.8694E-3	-146.415E-12	634.297E-3	-19.9625E-3
-3.60930E-3	-146.400E-12	680.460E-3	-12.2059E-3	-146.329E-12	639.025E-3	-30.1739E-3
-3.61431E-3	-146.667E-12	685.586E-3	-9.72159E-3	-146.566E-12	665.054E-3	-21.3814E-3
-3.61931E-3	-146.402E-12	696.001E-3	-15.0491E-3	-147.497E-12	688.027E-3	-13.6711E-3
-3.62431E-3	-146.891E-12	670.565E-3	-34.4975E-3	-148.508E-12	676.711E-3	-16.2263E-3
-3.62931E-3	-148.253E-12	630.596E-3	-44.2089E-3	-148.950E-12	650.744E-3	-34.6901E-3
-3.63432E-3	-148.328E-12	624.715E-3	-25.2860E-3	-149.956E-12	657.734E-3	-58.2854E-3
-3.63932E-3	-148.845E-12	636.062E-3	-3.86209E-3	-151.295E-12	682.640E-3	-60.8122E-3
-3.64432E-3	-149.285E-12	649.948E-3	-20.8094E-3	-151.954E-12	689.074E-3	-32.7514E-3
-3.64932E-3	-149.913E-12	666.245E-3	-42.8223E-3	-152.361E-12	682.843E-3	-12.1379E-3
-3.65433E-3	-150.949E-12	665.815E-3	-30.7657E-3	-152.653E-12	680.603E-3	-19.2886E-3
-3.65933E-3	-150.455E-12	669.280E-3	-14.5765E-3	-152.528E-12	676.391E-3	-31.3660E-3
-3.66433E-3	-150.324E-12	682.762E-3	-13.4728E-3	-152.588E-12	674.254E-3	-30.7511E-3
-3.66933E-3	-150.701E-12	675.020E-3	-16.8607E-3	-151.736E-12	689.228E-3	-12.5297E-3
-3.67434E-3	-151.800E-12	666.473E-3	-33.3735E-3	-151.345E-12	709.435E-3	-8.36755E-3
-3.67934E-3	-151.542E-12	681.869E-3	-49.6018E-3	-150.558E-12	717.271E-3	-32.1913E-3
-3.68434E-3	-151.042E-12	684.554E-3	-45.3235E-3	-151.218E-12	701.140E-3	-45.2513E-3
-3.68934E-3	-150.513E-12	676.545E-3	-31.0628E-3	-150.232E-12	667.814E-3	-27.1423E-3
-3.69435E-3	-151.169E-12	682.537E-3	-110.980E-6	-150.178E-12	653.710E-3	5.12856E-3
-3.69935E-3	-151.878E-12	683.706E-3	14.5714E-3	-150.273E-12	659.103E-3	2.77276E-3
-3.70435E-3	-151.345E-12	676.851E-3	-1.18954E-3	-151.667E-12	654.370E-3	-17.8119E-3
-3.70935E-3	-150.837E-12	681.623E-3	-5.14190E-3	-152.061E-12	652.914E-3	-16.5100E-3
-3.71436E-3	-152.137E-12	681.411E-3	-8.61044E-3	-152.970E-12	661.716E-3	-20.9006E-3
-3.71936E-3	-153.506E-12	673.244E-3	-20.2047E-3	-153.345E-12	670.856E-3	-22.7403E-3
-3.72436E-3	-153.485E-12	681.587E-3	-16.7633E-3	-155.270E-12	680.706E-3	-4.24903E-3
-3.72936E-3	-153.757E-12	671.423E-3	95.5290E-6	-155.542E-12	675.787E-3	-2.49240E-3
-3.73437E-3	-153.810E-12	635.978E-3	13.4726E-3	-155.353E-12	654.767E-3	-17.4155E-3
-3.73937E-3	-154.447E-12	629.464E-3	22.6287E-3	-156.058E-12	643.492E-3	-18.6966E-3
-3.74437E-3	-155.862E-12	656.357E-3	18.1814E-3	-155.979E-12	644.737E-3	-28.7783E-3
-3.74937E-3	-155.085E-12	686.560E-3	-1.26345E-3	-156.493E-12	626.228E-3	-43.5618E-3
-3.75438E-3	-154.476E-12	703.356E-3	-11.9269E-3	-155.991E-12	615.127E-3	-27.0888E-3
-3.75938E-3	-155.199E-12	691.100E-3	533.534E-6	-156.097E-12	636.889E-3	-12.3979E-3
-3.76438E-3	-156.585E-12	645.153E-3	8.69685E-3	-155.156E-12	650.795E-3	-22.9237E-3
-3.76938E-3	-156.325E-12	616.560E-3	-7.48435E-3	-154.736E-12	658.779E-3	-20.0869E-3
-3.77439E-3	-155.957E-12	621.397E-3	-10.9520E-3	-155.335E-12	668.138E-3	-15.7809E-3
-3.77939E-3	-155.650E-12	627.977E-3	-13.2244E-3	-154.836E-12	663.614E-3	-24.3088E-3
-3.78439E-3	-156.497E-12	625.448E-3	-18.4436E-3	-154.793E-12	668.381E-3	-21.6044E-3
-3.78939E-3	-157.248E-12	629.257E-3	-6.10898E-3	-155.228E-12	681.179E-3	-29.7260E-3
-3.79440E-3	-157.729E-12	650.694E-3	-14.0623E-3	-155.838E-12	675.736E-3	-32.5718E-3
-3.79940E-3	-157.976E-12	667.413E-3	-40.6401E-3	-156.184E-12	656.188E-3	2.55883E-3
-3.80440E-3	-158.001E-12	675.620E-3	-57.6438E-3	-156.943E-12	659.311E-3	28.6806E-3
-3.80940E-3	-158.562E-12	668.360E-3	-35.0040E-3	-157.223E-12	665.702E-3	13.1979E-3
-3.81441E-3	-159.381E-12	665.281E-3	9.06593E-3	-157.490E-12	647.781E-3	-11.3112E-3
-3.81941E-3	-159.804E-12	683.903E-3	3.22861E-3	-158.435E-12	657.190E-3	-3.61109E-3
-3.82441E-3	-159.672E-12	688.616E-3	-41.9742E-3	-158.882E-12	680.366E-3	-556.005E-6
-3.82941E-3	-159.123E-12	677.391E-3	-78.5081E-3	-158.448E-12	678.708E-3	-15.7037E-3
-3.83442E-3	-160.036E-12	673.747E-3	-77.2206E-3	-158.540E-12	659.680E-3	-9.57206E-3
-3.83942E-3	-160.527E-12	687.167E-3	-35.3626E-3	-158.659E-12	640.534E-3	13.6744E-3
-3.84442E-3	-159.750E-12	709.752E-3	-2.38753E-3	-158.160E-12	637.087E-3	31.3704E-3
-3.84942E-3	-159.144E-12	713.569E-3	-5.38559E-3	-158.177E-12	660.031E-3	15.2155E-3
-3.85443E-3	-159.563E-12	684.530E-3	-14.6221E-3	-157.866E-12	687.399E-3	-25.4750E-3
-3.85943E-3	-160.806E-12	672.091E-3	-17.6890E-3	-157.410E-12	682.078E-3	-22.7803E-3
-3.86443E-3	-160.239E-12	688.378E-3	-10.0624E-3	-157.636E-12	668.618E-3	4.31317E-3
-3.86943E-3	-159.126E-12	674.838E-3	-8.63660E-3	-158.065E-12	665.032E-3	-3.00323E-3
-3.87444E-3	-159.565E-12	660.340E-3	-18.3641E-3	-158.063E-12	648.833E-3	-6.97231E-3
-3.87944E-3	-161.272E-12	651.485E-3	-8.99555E-3	-158.932E-12	643.542E-3	-4.59982E-3
-3.88444E-3	-161.667E-12	616.225E-3	9.10251E-3	-159.859E-12	657.510E-3	-31.4381E-3
-3.88944E-3	-161.503E-12	621.677E-3	893.573E-6	-160.447E-12	661.067E-3	-52.1893E-3
-3.89445E-3	-161.882E-12	665.579E-3	-21.5897E-3	-160.605E-12	664.268E-3	-35.7767E-3
-3.89945E-3	-163.802E-12	684.372E-3	-39.8569E-3	-161.218E-12	666.535E-3	-10.1630E-3
-3.90445E-3	-165.218E-12	695.914E-3	-40.2853E-3	-161.585E-12	660.499E-3	4.32493E-3
-3.90945E-3	-164.428E-12	721.079E-3	-10.2481E-3	-161.998E-12	653.796E-3	8.92440E-3
-3.91446E-3	-163.176E-12	724.327E-3	10.9128E-3	-161.805E-12	665.084E-3	-2.64375E-3
-3.91946E-3	-163.516E-12	707.819E-3	-5.84099E-3	-161.085E-12	681.686E-3	-17.4750E-3
-3.92446E-3	-164.567E-12	694.728E-3	-35.0802E-3	-161.895E-12	673.319E-3	-18.5381E-3
-3.92946E-3	-164.744E-12	669.634E-3	-46.1113E-3	-162.168E-12	660.175E-3	-11.8409E-3
-3.93447E-3	-163.371E-12	635.783E-3	-24.5410E-3	-161.833E-12	640.435E-3	-9.00120E-3
-3.93947E-3	-162.203E-12	638.934E-3	8.36756E-3	-161.226E-12	613.655E-3	-9.22179E-3
-3.94447E-3	-163.029E-12	659.393E-3	15.7547E-3	-160.921E-12	609.919E-3	-9.60020E-3
-3.94947E-3	-163.556E-12	645.058E-3	1.51117E-3	-162.044E-12	633.307E-3	-16.2975E-3
-3.95448E-3	-163.074E-12	637.488E-3	-19.1905E-3	-162.703E-12	674.090E-3	-10.5167E-3
-3.95948E-3	-161.803E-12	646.022E-3	-8.99453E-3	-162.704E-12	688.718E-3	-10.0211E-3
-3.96448E-3	-163.061E-12	644.171E-3	18.0863E-3	-163.313E-12	663.519E-3	-37.4187E-3
-3.96948E-3	-164.816E-12	644.497E-3	-10.1071E-3	-164.990E-12	657.693E-3	-35.2290E-3
-3.97449E-3	-165.519E-12	649.833E-3	-51.8791E-3	-165.977E-12	673.043E-3	4.35440E-3
-3.97949E-3	-164.635E-12	659.538E-3	-50.1579E-3	-166.246E-12	686.666E-3	22.9550E-3
-3.98449E-3	-164.975E-12	666.441E-3	-13.9227E-3	-165.604E-12	689.091E-3	15.3432E-3
-3.98949E-3	-166.358E-12	655.559E-3	22.4670E-3	-166.663E-12	669.752E-3	1.95225E-3
-3.99450E-3	-167.948E-12	639.139E-3	15.4257E-3	-167.446E-12	657.710E-3	-780.030E-6
-3.99950E-3	-166.789E-12	636.221E-3	-4.21449E-3	-166.501E-12	667.685E-3	16.9063E-3
-4.00450E-3	-166.856E-12	662.405E-3	-8.71590E-3	-166.425E-12	680.872E-3	20.3388E-3
-4.00950E-3	-166.737E-12	682.310E-3	-29.1366E-3	-166.767E-12	673.369E-3	-13.0436E-3
-4.01451E-3	-167.761E-12	672.202E-3	-42.8804E-3	-166.062E-12	656.953E-3	-22.2801E-3
-4.01951E-3	-167.181E-12	658.265E-3	-23.7516E-3	-165.276E-12	665.068E-3	-9.32676E-3
-4.02451E-3	-167.011E-12	655.560E-3	-12.3135E-3	-165.258E-12	674.067E-3	-28.6523E-3
-4.02951E-3	-166.076E-12	677.707E-3	-18.0621E-3	-165.950E-12	665.259E-3	-46.1477E-3
-4.03452E-3	-166.923E-12	686.853E-3	-8.19200E-3	-166.012E-12	658.859E-3	-35.3390E-3
-4.03952E-3	-166.868E-12	659.368E-3	21.9664E-3	-165.916E-12	660.972E-3	-20.0600E-3
-4.04452E-3	-167.266E-12	655.603E-3	10.3771E-3	-167.140E-12	670.412E-3	1.18684E-3
-4.04952E-3	-167.262E-12	682.549E-3	-27.9579E-3	-169.520E-12	687.658E-3	35.8299E-3
-4.05453E-3	-167.443E-12	684.331E-3	-26.6883E-3	-169.514E-12	708.028E-3	42.2794E-3
-4.05953E-3	-167.681E-12	679.882E-3	-29.9922E-3	-170.189E-12	682.988E-3	28.0265E-3
-4.06453E-3	-168.210E-12	681.870E-3	-28.7414E-3	-171.526E-12	636.599E-3	15.9637E-3
-4.06953E-3	-168.183E-12	663.270E-3	-7.50351E-3	-172.969E-12	650.907E-3	-14.3368E-3
-4.07454E-3	-168.026E-12	649.659E-3	-17.2338E-3	-173.401E-12	679.581E-3	-43.2338E-3
-4.07954E-3	-169.367E-12	654.333E-3	-18.1007E-3	-173.472E-12	693.420E-3	-29.0521E-3
-4.08454E-3	-170.362E-12	657.452E-3	15.6098E-3	-172.754E-12	720.628E-3	3.07896E-3
-4.08954E-3	-170.260E-12	671.079E-3	22.8577E-3	-172.407E-12	712.644E-3	-10.3754E-3
-4.09455E-3	-169.686E-12	697.631E-3	639.090E-6	-172.198E-12	683.970E-3	-16.2109E-3
-4.09955E-3	-169.800E-12	692.162E-3	-17.9179E-3	-171.539E-12	691.562E-3	11.8367E-3
-4.10455E-3	-170.516E-12	670.002E-3	-23.7231E-3	-169.981E-12	681.469E-3	4.36568E-3
-4.10955E-3	-171.079E-12	677.082E-3	-9.27565E-3	-169.193E-12	641.843E-3	-14.4392E-3
-4.11456E-3	-169.897E-12	676.013E-3	2.39404E-3	-168.754E-12	636.771E-3	-29.1289E-3
-4.11956E-3	-170.052E-12	659.721E-3	-15.0825E-3	-169.591E-12	651.001E-3	-42.0419E-3
-4.12456E-3	-171.024E-12	662.894E-3	-40.9506E-3	-168.428E-12	646.911E-3	-34.7234E-3
-4.12956E-3	-171.850E-12	673.086E-3	-46.2314E-3	-168.479E-12	638.503E-3	-31.2097E-3
-4.13457E-3	-171.343E-12	683.907E-3	-41.3293E-3	-169.430E-12	634.572E-3	-37.3715E-3
-4.13957E-3	-171.069E-12	695.150E-3	-41.4155E-3	-170.382E-12	632.945E-3	-31.2303E-3
-4.14457E-3	-171.247E-12	675.371E-3	-39.0014E-3	-171.212E-12	641.717E-3	-19.9579E-3
-4.14957E-3	-171.798E-12	652.018E-3	-50.0129E-3	-172.103E-12	648.032E-3	-16.6965E-3
-4.15458E-3	-171.387E-12	659.921E-3	-67.7822E-3	-172.807E-12	658.489E-3	-3.26691E-3
-4.15958E-3	-170.505E-12	656.789E-3	-59.2784E-3	-173.431E-12	674.480E-3	-4.71485E-3
-4.16458E-3	-170.977E-12	645.426E-3	-33.5678E-3	-174.227E-12	670.678E-3	-20.9930E-3
-4.16958E-3	-171.869E-12	655.769E-3	-5.97247E-3	-174.010E-12	669.766E-3	-5.11387E-3
-4.17459E-3	-172.307E-12	672.015E-3	5.45846E-3	-174.078E-12	678.514E-3	10.4680E-3
-4.17959E-3	-171.744E-12	662.284E-3	-1.04746E-3	-174.186E-12	663.904E-3	-5.36784E-3
-4.18459E-3	-172.764E-12	647.517E-3	2.17578E-3	-173.952E-12	634.006E-3	-15.3650E-3
-4.18959E-3	-172.804E-12	658.345E-3	14.0974E-3	-173.488E-12	628.905E-3	-12.2383E-3
-4.19460E-3	-173.836E-12	666.177E-3	18.5003E-3	-172.911E-12	670.195E-3	-24.7480E-3
-4.19960E-3	-174.558E-12	674.910E-3	3.85920E-3	-173.087E-12	696.428E-3	-25.9106E-3
-4.20460E-3	-174.672E-12	693.279E-3	-22.0913E-3	-172.667E-12	679.325E-3	-868.129E-6
-4.20960E-3	-175.177E-12	688.240E-3	-33.6246E-3	-173.168E-12	666.728E-3	-8.15901E-3
-4.21461E-3	-176.248E-12	670.748E-3	-23.1522E-3	-173.050E-12	664.357E-3	-42.0272E-3
-4.21961E-3	-176.431E-12	660.783E-3	-6.50470E-3	-172.345E-12	663.288E-3	-52.5534E-3
-4.22461E-3	-176.373E-12	649.650E-3	-13.2652E-3	-173.430E-12	665.037E-3	-30.3506E-3
-4.22961E-3	-177.310E-12	642.855E-3	-29.7443E-3	-174.799E-12	653.276E-3	6.06631E-3
-4.23462E-3	-177.434E-12	642.361E-3	-15.1062E-3	-174.942E-12	632.262E-3	16.2600E-3
-4.23962E-3	-177.461E-12	639.419E-3	17.1175E-3	-175.170E-12	652.250E-3	-149.666E-6
-4.24462E-3	-177.887E-12	632.097E-3	17.4942E-3	-176.243E-12	678.635E-3	-24.2194E-3
-4.24962E-3	-177.344E-12	648.619E-3	6.68937E-3	-177.352E-12	660.755E-3	-42.6986E-3
-4.25463E-3	-177.102E-12	670.848E-3	10.7524E-3	-178.194E-12	652.712E-3	-35.9415E-3
-4.25963E-3	-176.797E-12	665.153E-3	-7.04154E-3	-179.220E-12	655.381E-3	-17.0871E-3
-4.26463E-3	-176.637E-12	649.075E-3	-25.6856E-3	-179.237E-12	666.791E-3	5.09212E-3
-4.26963E-3	-176.704E-12	645.253E-3	-20.4843E-3	-178.250E-12	704.756E-3	13.1922E-3
-4.27464E-3	-176.274E-12	657.282E-3	-40.3413E-3	-178.292E-12	708.370E-3	-8.64348E-3
-4.27964E-3	-175.659E-12	677.797E-3	-62.7007E-3	-179.472E-12	687.432E-3	-23.7831E-3
-4.28464E-3	-175.519E-12	687.074E-3	-34.2515E-3	-178.230E-12	691.028E-3	-32.1515E-3
-4.28964E-3	-177.145E-12	672.265E-3	-12.7620E-3	-177.774E-12	678.151E-3	-31.8485E-3
-4.29465E-3	-176.880E-12	658.423E-3	-13.4982E-3	-177.438E-12	637.009E-3	-4.44007E-3
-4.29965E-3	-177.133E-12	650.765E-3	-14.8694E-3	-177.965E-12	637.757E-3	-2.23331E-3
-4.30465E-3	-177.953E-12	635.134E-3	-25.5110E-3	-178.419E-12	668.520E-3	-41.5728E-3
-4.30965E-3	-179.099E-12	640.279E-3	-23.8128E-3	-178.291E-12	661.151E-3	-51.6982E-3
-4.31466E-3	-179.062E-12	669.358E-3	-7.63685E-3	-178.630E-12	660.564E-3	-29.6453E-3
-4.31966E-3	-179.928E-12	672.365E-3	-10.6262E-3	-179.411E-12	677.062E-3	-34.9745E-3
-4.32466E-3	-180.588E-12	664.337E-3	-41.1964E-3	-180.136E-12	672.117E-3	-57.1655E-3
-4.32966E-3	-180.423E-12	669.556E-3	-49.1758E-3	-180.271E-12	676.113E-3	-50.2336E-3
-4.33467E-3	-181.334E-12	640.228E-3	-24.3809E-3	-181.214E-12	673.165E-3	-24.3329E-3
-4.33967E-3	-181.221E-12	623.012E-3	-17.0456E-3	-180.883E-12	642.513E-3	-764.387E-6
-4.34467E-3	-180.676E-12	641.982E-3	-6.56505E-3	-180.573E-12	628.123E-3	-4.18775E-3
-4.34967E-3	-180.858E-12	644.262E-3	14.1359E-3	-181.179E-12	631.243E-3	-22.2446E-3
-4.35468E-3	-180.987E-12	657.280E-3	3.32851E-3	-181.224E-12	634.771E-3	-9.17169E-3
-4.35968E-3	-180.693E-12	678.450E-3	5.97975E-3	-181.436E-12	654.909E-3	7.72641E-3
-4.36468E-3	-179.969E-12	682.622E-3	43.4954E-3	-181.113E-12	680.181E-3	-3.30178E-3
-4.36968E-3	-179.504E-12	673.058E-3	44.7369E-3	-181.894E-12	675.070E-3	-31.9150E-3
-4.37469E-3	-179.633E-12	662.962E-3	-82.1702E-6	-183.227E-12	657.683E-3	-32.8592E-3
-4.37969E-3	-179.955E-12	648.696E-3	-32.9781E-3	-183.099E-12	663.592E-3	1.20540E-3
-4.38469E-3	-179.857E-12	625.271E-3	-33.3774E-3	-182.978E-12	670.169E-3	-1.36385E-3
-4.38969E-3	-179.941E-12	628.344E-3	-9.95054E-3	-183.932E-12	687.465E-3	-5.92991E-3
-4.39470E-3	-180.760E-12	643.258E-3	7.70399E-3	-185.088E-12	706.779E-3	9.70660E-3
-4.39970E-3	-181.530E-12	638.494E-3	-4.49993E-3	-185.858E-12	692.273E-3	-8.63404E-3
-4.40470E-3	-181.310E-12	659.404E-3	-15.5709E-3	-186.050E-12	675.138E-3	-30.5920E-3
-4.40970E-3	-181.904E-12	676.693E-3	-8.77707E-3	-185.496E-12	680.722E-3	-29.5550E-3
-4.41471E-3	-183.858E-12	659.529E-3	-1.30974E-3	-186.446E-12	668.747E-3	-8.54044E-3
-4.41971E-3	-185.486E-12	655.172E-3	-5.24813E-3	-185.916E-12	628.496E-3	14.8252E-3
-4.42471E-3	-186.100E-12	674.876E-3	-22.4673E-3	-185.592E-12	597.285E-3	-5.16080E-3
-4.42971E-3	-186.989E-12	682.936E-3	-40.4839E-3	-185.340E-12	604.885E-3	-38.2960E-3
-4.43472E-3	-187.436E-12	653.954E-3	-53.8314E-3	-184.979E-12	627.453E-3	-8.41424E-3
-4.43972E-3	-189.143E-12	636.057E-3	-37.5676E-3	-184.333E-12	630.403E-3	28.1646E-3
-4.44472E-3	-189.738E-12	637.410E-3	-8.78932E-3	-183.843E-12	622.784E-3	301.008E-6
-4.44972E-3	-190.360E-12	647.316E-3	-15.0785E-3	-183.045E-12	608.215E-3	-21.1547E-3
-4.45473E-3	-190.256E-12	676.589E-3	-32.8226E-3	-183.102E-12	597.929E-3	-9.99054E-3
-4.45973E-3	-189.716E-12	689.461E-3	-25.5657E-3	-184.271E-12	609.175E-3	-15.9433E-3
-4.46473E-3	-190.155E-12	673.308E-3	-613.455E-6	-184.203E-12	640.084E-3	-28.2392E-3
-4.46973E-3	-189.067E-12	664.593E-3	19.9765E-3	-183.870E-12	671.732E-3	-31.9270E-3
-4.47474E-3	-188.298E-12	679.268E-3	24.5204E-3	-184.948E-12	687.382E-3	-28.3792E-3
-4.47974E-3	-188.099E-12	685.067E-3	27.3939E-3	-187.032E-12	681.351E-3	-12.9311E-3
-4.48474E-3	-187.574E-12	658.058E-3	43.1517E-3	-188.790E-12	676.734E-3	-16.9850E-3
-4.48974E-3	-187.259E-12	644.447E-3	38.4541E-3	-189.223E-12	685.919E-3	-11.3740E-3
-4.49475E-3	-186.585E-12	658.418E-3	9.12108E-3	-190.115E-12	673.620E-3	15.5337E-3
-4.49975E-3	-186.198E-12	650.688E-3	-13.7221E-3	-190.284E-12	658.873E-3	-240.497E-6
-4.50475E-3	-187.757E-12	614.937E-3	-16.2035E-3	-191.094E-12	683.965E-3	-38.0463E-3
-4.50975E-3	-187.960E-12	607.096E-3	-1.98643E-3	-190.297E-12	698.825E-3	-48.3274E-3
-4.51476E-3	-189.673E-12	635.605E-3	-2.35717E-3	-191.348E-12	680.893E-3	-27.6494E-3
-4.51976E-3	-189.214E-12	653.973E-3	-5.02990E-3	-189.791E-12	660.919E-3	-1.87136E-3
-4.52476E-3	-189.887E-12	655.742E-3	-2.45686E-3	-188.774E-12	650.573E-3	6.94476E-3
-4.52976E-3	-191.055E-12	644.542E-3	-21.0400E-3	-187.902E-12	656.894E-3	5.81628E-3
-4.53477E-3	-192.318E-12	653.877E-3	-44.9423E-3	-187.985E-12	653.400E-3	-10.4741E-3
-4.53977E-3	-191.915E-12	685.674E-3	-50.2921E-3	-187.450E-12	635.314E-3	-40.5125E-3
-4.54477E-3	-192.367E-12	683.428E-3	-37.7561E-3	-185.814E-12	641.246E-3	-50.9021E-3
-4.54977E-3	-192.712E-12	670.147E-3	-35.8916E-3	-185.569E-12	668.009E-3	-46.6729E-3
-4.55478E-3	-192.698E-12	665.447E-3	-30.7786E-3	-185.682E-12	678.141E-3	-52.7222E-3
-4.55978E-3	-191.887E-12	642.423E-3	-14.1565E-3	-186.865E-12	665.216E-3	-41.0426E-3
-4.56478E-3	-191.218E-12	631.095E-3	-35.6682E-3	-186.934E-12	682.097E-3	-18.6964E-3
-4.56978E-3	-191.241E-12	649.362E-3	-55.9590E-3	-187.976E-12	704.734E-3	-25.9073E-3
-4.57479E-3	-190.455E-12	646.089E-3	-28.5739E-3	-189.439E-12	687.196E-3	-27.4384E-3
-4.57979E-3	-189.622E-12	616.464E-3	-7.86585E-3	-191.962E-12	678.019E-3	-19.9173E-3
-4.58479E-3	-188.979E-12	622.617E-3	-15.7711E-3	-194.463E-12	674.222E-3	-39.6508E-3
-4.58979E-3	-188.544E-12	643.048E-3	-19.4438E-3	-195.101E-12	656.135E-3	-51.4622E-3
-4.59480E-3	-188.294E-12	636.280E-3	6.51049E-3	-194.944E-12	664.714E-3	-24.2505E-3
-4.59980E-3	-188.230E-12	629.496E-3	23.3678E-3	-195.544E-12	681.710E-3	11.3314E-3
-4.60480E-3	-188.461E-12	627.820E-3	1.80142E-3	-196.876E-12	660.897E-3	27.2757E-3
-4.60980E-3	-188.876E-12	624.912E-3	-4.28818E-3	-196.324E-12	645.122E-3	23.5233E-3
-4.61481E-3	-189.892E-12	631.694E-3	-5.24705E-3	-195.529E-12	652.938E-3	13.1468E-3
-4.61981E-3	-189.832E-12	640.662E-3	-25.7461E-3	-194.839E-12	659.820E-3	25.5238E-3
-4.62481E-3	-191.371E-12	632.772E-3	-29.7805E-3	-194.893E-12	661.124E-3	39.6888E-3
-4.62981E-3	-191.954E-12	627.769E-3	-15.8568E-3	-194.415E-12	670.142E-3	8.74831E-3
-4.63482E-3	-193.064E-12	653.028E-3	4.51128E-3	-192.706E-12	680.475E-3	-31.5007E-3
-4.63982E-3	-193.709E-12	659.064E-3	17.8905E-3	-190.936E-12	656.357E-3	-24.6913E-3
-4.64482E-3	-194.466E-12	634.211E-3	-4.66155E-3	-191.836E-12	636.599E-3	-8.20031E-3
-4.64982E-3	-194.382E-12	629.841E-3	-58.9625E-3	-192.603E-12	649.270E-3	-31.4130E-3
-4.65483E-3	-195.138E-12	632.259E-3	-80.0003E-3	-192.809E-12	681.508E-3	-47.3741E-3
-4.65983E-3	-196.361E-12	638.858E-3	-59.1783E-3	-192.233E-12	695.465E-3	-26.2717E-3
-4.66483E-3	-194.918E-12	656.516E-3	-38.1923E-3	-193.588E-12	665.013E-3	-12.7928E-3
-4.66983E-3	-194.872E-12	659.276E-3	-16.3480E-3	-194.811E-12	656.129E-3	4.06685E-3
-4.67484E-3	-194.487E-12	644.421E-3	-6.24623E-3	-196.333E-12	689.883E-3	13.3647E-3
-4.67984E-3	-196.046E-12	625.532E-3	-20.5859E-3	-196.307E-12	696.055E-3	-3.50020E-3
-4.68484E-3	-195.283E-12	601.933E-3	-39.0323E-3	-197.808E-12	664.821E-3	11.9813E-3
-4.68984E-3	-194.890E-12	596.091E-3	-47.9775E-3	-198.654E-12	654.211E-3	34.2541E-3
-4.69485E-3	-194.300E-12	629.818E-3	-50.2729E-3	-199.001E-12	659.721E-3	10.0916E-3
-4.69985E-3	-195.290E-12	655.152E-3	-31.5378E-3	-198.912E-12	650.992E-3	-6.58405E-3
-4.70485E-3	-195.668E-12	662.726E-3	-16.0423E-3	-199.119E-12	645.163E-3	10.2611E-3
-4.70985E-3	-195.460E-12	667.276E-3	-41.5599E-3	-198.376E-12	638.275E-3	5.99296E-3
-4.71486E-3	-195.710E-12	650.607E-3	-51.7670E-3	-198.013E-12	618.868E-3	-23.6826E-3
-4.71986E-3	-197.245E-12	641.896E-3	-23.1170E-3	-198.485E-12	616.270E-3	-30.7820E-3
-4.72486E-3	-198.807E-12	637.377E-3	-27.0141E-3	-197.811E-12	627.553E-3	-25.6841E-3
-4.72986E-3	-197.856E-12	639.224E-3	-39.0236E-3	-196.882E-12	635.548E-3	-45.4580E-3
-4.73487E-3	-197.666E-12	669.949E-3	-25.0442E-3	-195.897E-12	632.856E-3	-61.5066E-3
-4.73987E-3	-199.780E-12	681.380E-3	-28.6404E-3	-196.981E-12	622.296E-3	-44.2797E-3
-4.74487E-3	-200.973E-12	663.014E-3	-23.7090E-3	-197.172E-12	634.218E-3	-23.2507E-3
-4.74988E-3	-201.913E-12	647.152E-3	-6.02063E-3	-197.021E-12	660.296E-3	-19.8400E-3
-4.75488E-3	-201.554E-12	652.228E-3	-26.1892E-3	-196.448E-12	666.240E-3	-18.6615E-3
-4.75988E-3	-202.546E-12	662.929E-3	-56.4580E-3	-197.650E-12	642.338E-3	-7.28473E-3
-4.76488E-3	-203.546E-12	660.668E-3	-21.7806E-3	-198.877E-12	633.664E-3	16.9199E-3
-4.76988E-3	-204.511E-12	673.935E-3	24.6044E-3	-200.490E-12	650.228E-3	36.6136E-3
-4.77489E-3	-203.775E-12	707.290E-3	11.4899E-3	-200.117E-12	649.318E-3	41.8105E-3
-4.77989E-3	-204.144E-12	714.106E-3	-9.39753E-3	-200.339E-12	663.212E-3	54.3085E-3
-4.78489E-3	-204.148E-12	701.784E-3	-13.8968E-3	-201.801E-12	685.835E-3	33.2717E-3
-4.78989E-3	-203.620E-12	688.737E-3	-19.0363E-3	-202.827E-12	672.591E-3	-13.5288E-3
-4.79490E-3	-203.890E-12	670.920E-3	-8.04487E-3	-203.296E-12	658.748E-3	-37.0324E-3
-4.79990E-3	-202.801E-12	647.661E-3	755.511E-6	-202.539E-12	666.383E-3	-56.9042E-3
-4.80490E-3	-202.552E-12	631.034E-3	-14.5094E-3	-203.300E-12	666.075E-3	-65.8373E-3
-4.80990E-3	-201.723E-12	646.445E-3	-19.7297E-3	-203.474E-12	657.102E-3	-41.3715E-3
-4.81491E-3	-202.484E-12	667.350E-3	-26.4872E-3	-204.155E-12	665.739E-3	68.1504E-6
-4.81991E-3	-201.030E-12	664.436E-3	-52.0053E-3	-202.905E-12	684.073E-3	4.02718E-3
-4.82491E-3	-200.422E-12	640.428E-3	-44.5726E-3	-203.215E-12	674.891E-3	-3.17106E-3
-4.82991E-3	-200.290E-12	623.297E-3	-25.4366E-3	-204.244E-12	659.506E-3	15.0988E-3
-4.83492E-3	-201.019E-12	637.456E-3	-24.3676E-3	-204.694E-12	678.527E-3	-6.01659E-3
-4.83992E-3	-201.767E-12	652.863E-3	-1.28660E-3	-202.939E-12	707.108E-3	-36.9016E-3
-4.84492E-3	-202.453E-12	649.873E-3	15.7857E-3	-202.928E-12	715.606E-3	-33.2129E-3
-4.84992E-3	-202.276E-12	640.032E-3	-5.77081E-3	-203.307E-12	680.884E-3	-39.0267E-3
-4.85493E-3	-203.352E-12	653.797E-3	-30.5094E-3	-203.851E-12	642.413E-3	-12.0302E-3
-4.85993E-3	-206.142E-12	687.200E-3	-27.0004E-3	-204.320E-12	650.344E-3	12.4296E-3
-4.86493E-3	-208.055E-12	692.478E-3	-7.64355E-3	-203.626E-12	662.493E-3	-10.8989E-3
-4.86993E-3	-206.885E-12	691.800E-3	-2.01898E-3	-204.154E-12	654.177E-3	-7.30504E-3
-4.87494E-3	-207.486E-12	706.198E-3	-18.8187E-3	-205.288E-12	664.301E-3	-6.93405E-3
-4.87994E-3	-208.947E-12	675.278E-3	-37.6231E-3	-205.831E-12	684.571E-3	-18.8434E-3
-4.88494E-3	-210.327E-12	624.193E-3	-17.8189E-3	-205.742E-12	670.892E-3	4.78172E-3
-4.88995E-3	-208.479E-12	648.934E-3	1.15581E-3	-206.281E-12	637.736E-3	2.10452E-3
-4.89495E-3	-206.662E-12	702.195E-3	-35.9386E-3	-207.810E-12	614.293E-3	-50.4471E-3
-4.89995E-3	-206.255E-12	702.715E-3	-51.5253E-3	-208.621E-12	632.377E-3	-70.4096E-3
-4.90495E-3	-206.476E-12	678.441E-3	-13.6926E-3	-208.237E-12	674.526E-3	-25.8041E-3
-4.90995E-3	-204.915E-12	653.481E-3	11.9891E-3	-208.452E-12	693.151E-3	7.10541E-3
-4.91496E-3	-202.603E-12	627.736E-3	1.52481E-3	-209.928E-12	686.397E-3	-15.5624E-3
-4.91996E-3	-202.371E-12	625.378E-3	-12.7950E-3	-210.130E-12	687.751E-3	-40.3307E-3
-4.92496E-3	-201.978E-12	650.929E-3	-4.76454E-3	-210.429E-12	726.310E-3	-44.0566E-3
-4.92996E-3	-202.940E-12	656.285E-3	-18.5535E-3	-210.476E-12	745.219E-3	-34.2184E-3
-4.93497E-3	-203.234E-12	635.626E-3	-51.1327E-3	-210.552E-12	723.013E-3	-9.09732E-3
-4.93997E-3	-202.036E-12	633.300E-3	-22.7876E-3	-209.864E-12	700.488E-3	-6.77260E-3
-4.94497E-3	-203.572E-12	647.521E-3	20.7492E-3	-209.287E-12	674.699E-3	-24.6982E-3
-4.94997E-3	-206.507E-12	659.397E-3	16.0489E-3	-208.586E-12	642.205E-3	-14.4571E-3
-4.95498E-3	-209.055E-12	683.213E-3	5.18059E-3	-207.921E-12	629.284E-3	-4.95810E-3
-4.95998E-3	-207.824E-12	704.471E-3	-4.55212E-3	-207.757E-12	644.646E-3	-24.1718E-3
-4.96498E-3	-209.438E-12	699.600E-3	-37.6028E-3	-206.350E-12	660.217E-3	-24.7209E-3
-4.96998E-3	-210.779E-12	684.639E-3	-48.4125E-3	-206.653E-12	682.568E-3	-7.08096E-3
-4.97499E-3	-212.806E-12	663.506E-3	-21.0772E-3	-206.318E-12	702.723E-3	148.733E-6
-4.97999E-3	-212.434E-12	647.938E-3	-19.5900E-3	-205.941E-12	702.817E-3	-4.24621E-3
-4.98499E-3	-211.730E-12	636.975E-3	-27.3126E-3	-207.014E-12	693.395E-3	-19.7301E-3
-4.98999E-3	-211.656E-12	627.925E-3	-25.1727E-3	-207.466E-12	660.684E-3	-29.4169E-3
-4.99500E-3	-211.720E-12	649.890E-3	-29.6924E-3	-207.758E-12	645.916E-3	-14.5755E-3
-5.00000E-3	-212.134E-12	671.902E-3	-14.5764E-3	-209.091E-12	663.267E-3	454.355E-6
