Experiment	bias spectroscopy	
Date	19.01.2016 18:58:45	
User		
X (m)	49.792E-9	
Y (m)	256.066E-9	
Z (m)	-132.619E-9	
Z offset (m)	0E+0	
Settling time (s)	200E-6	
Integration time (s)	5E-3	
Z-Ctrl hold	TRUE	
Final Z (m)	N/A	
Filter type	None	
Order		
Cutoff frq		
Comment01	MnPc/Pb(111)	
Comment02	dz =00pm	
Comment03	7 Sweeps	
Comment04	MagField =0.T	
Comment05	Divider 1:10	
Comment06	Setpoint:5mV,200 pA	
Comment07	Lockin: 50uVrms,5ms,5mV	
Comment08	Gain:9; 912Hz modulation	
Comment09	T=1.06K	
Bias>Bias (V)	5E-3	
Bias>Calibration (V/V)	81.475E-3	
Bias>Offset (V)	1.046E-3	
Bias Spectroscopy>Sweep Start (V)	5E-3	
Bias Spectroscopy>Sweep End (V)	-5E-3	
Bias Spectroscopy>Num Pixel	2000	
Bias Spectroscopy>Z Avg time (s)	500E-3	
Bias Spectroscopy>Z offset (m)	0E+0	
Bias Spectroscopy>1st Settling time (s)	500E-3	
Bias Spectroscopy>Settling time (s)	200E-6	
Bias Spectroscopy>Integration time (s)	5E-3	
Bias Spectroscopy>End Settling time (s)	500E-3	
Bias Spectroscopy>Z control time (s)	500E-3	
Bias Spectroscopy>Max Slew rate (V/s)	Inf	
Bias Spectroscopy>backward sweep	TRUE	
Bias Spectroscopy>Z-controller hold	TRUE	
Bias Spectroscopy>Number of sweeps	7	
Bias Spectroscopy>Channels	Current (A);X% LockIn (V);Y% LockIn (V)	
Bias Spectroscopy>Reset Bias	TRUE	
Bias Spectroscopy>Record final Z	FALSE	
Bias Spectroscopy>Lock-In run	FALSE	
Bias Spectroscopy>Sweep mode	Linear	
Bias Spectroscopy>MultiLine Settings : Segment Start (V), Segment End (V), Settling (s), Integration (s), Steps (xn)	100E-3,3.3E-3,100E-6,10E-3,2500;3.3E-3,-3.3E-3,100E-6,10E-3,10;-3.3E-3,-100E-3,100E-6,10E-3,2500	
Current>Current (A)	200.078E-12	
Current>Calibration (A/V)	999.99900E-12	
Current>Offset (A)	-455.429E-15	
Current>Gain	LN 10^9	
Z-Controller>Z (m)	-132.618E-9	
Z-Controller>Controller name	log Current	
Z-Controller>Controller status	ON	
Z-Controller>Setpoint	200E-12	
Z-Controller>Setpoint unit	A	
Z-Controller>P gain	2.96994E-12	
Z-Controller>I gain	67.0321E-9	
Z-Controller>Time const (s)	44.3062E-6	
Z-Controller>TipLift (m)	0E+0	
Z-Controller>Switch off delay (s)	50E-3	
Current (A)	200.019E-12	
Z (m)	-132.619E-9	

[DATA]
Bias calc (V)	Current (A)	X% LockIn (V)	Y% LockIn (V)	Current [bwd] (A)	X% LockIn [bwd] (V)	Y% LockIn [bwd] (V)
5.00000E-3	198.407E-12	617.048E-3	-1.54775E-3	199.008E-12	643.695E-3	-3.75712E-3
4.99500E-3	199.280E-12	624.097E-3	9.05197E-3	200.324E-12	643.312E-3	-23.2542E-3
4.98999E-3	200.052E-12	634.560E-3	19.3245E-3	198.183E-12	648.665E-3	-29.7514E-3
4.98499E-3	199.483E-12	641.541E-3	19.8574E-3	198.221E-12	646.898E-3	-42.0607E-3
4.97999E-3	199.581E-12	651.432E-3	-4.29036E-3	196.603E-12	629.601E-3	-38.3512E-3
4.97499E-3	199.487E-12	640.964E-3	-30.0489E-3	195.884E-12	616.484E-3	-14.7423E-3
4.96998E-3	199.153E-12	617.940E-3	-22.2509E-3	196.073E-12	609.236E-3	-10.6018E-3
4.96498E-3	198.288E-12	616.790E-3	-1.97178E-3	194.412E-12	618.075E-3	-29.2585E-3
4.95998E-3	198.022E-12	630.211E-3	6.67089E-3	194.291E-12	649.878E-3	-22.4309E-3
4.95498E-3	196.778E-12	614.753E-3	-204.005E-6	193.522E-12	659.900E-3	8.70542E-3
4.94997E-3	196.012E-12	593.426E-3	-11.0988E-3	193.528E-12	647.120E-3	21.5280E-3
4.94497E-3	194.720E-12	608.296E-3	60.9125E-6	193.646E-12	641.547E-3	20.3501E-3
4.93997E-3	193.964E-12	627.717E-3	16.5384E-3	193.041E-12	650.044E-3	4.98026E-3
4.93497E-3	193.267E-12	621.760E-3	9.41273E-3	193.069E-12	670.228E-3	-24.3623E-3
4.92996E-3	192.256E-12	627.789E-3	2.32667E-3	193.203E-12	673.011E-3	-37.5630E-3
4.92496E-3	192.315E-12	644.274E-3	-11.8246E-3	194.527E-12	666.510E-3	-30.6613E-3
4.91996E-3	192.363E-12	641.788E-3	-24.4493E-3	194.217E-12	660.660E-3	-13.7792E-3
4.91496E-3	192.817E-12	637.056E-3	-27.9289E-3	194.349E-12	641.213E-3	-14.2260E-3
4.90995E-3	193.204E-12	637.716E-3	-46.0540E-3	194.048E-12	637.687E-3	-33.8719E-3
4.90495E-3	193.697E-12	633.836E-3	-61.0485E-3	194.680E-12	666.147E-3	-34.3059E-3
4.89995E-3	194.621E-12	604.718E-3	-57.0631E-3	193.683E-12	697.419E-3	-14.0286E-3
4.89495E-3	194.490E-12	598.107E-3	-27.9190E-3	192.638E-12	692.707E-3	-1.79996E-3
4.88995E-3	194.596E-12	641.550E-3	5.40844E-3	192.028E-12	659.622E-3	7.52719E-3
4.88494E-3	195.233E-12	674.526E-3	-5.15505E-3	191.390E-12	656.990E-3	9.61743E-3
4.87994E-3	195.787E-12	677.863E-3	-32.1216E-3	191.168E-12	671.367E-3	-16.6440E-3
4.87494E-3	195.522E-12	677.541E-3	-19.2522E-3	190.477E-12	664.287E-3	-35.7627E-3
4.86993E-3	195.215E-12	672.167E-3	4.49949E-6	190.314E-12	653.801E-3	-40.1874E-3
4.86493E-3	194.932E-12	653.623E-3	2.65345E-3	190.743E-12	645.250E-3	-41.1494E-3
4.85993E-3	193.553E-12	651.330E-3	-6.81520E-3	190.619E-12	625.377E-3	-25.5968E-3
4.85493E-3	193.377E-12	668.421E-3	-31.6759E-3	191.200E-12	605.770E-3	-18.0959E-3
4.84992E-3	192.303E-12	671.079E-3	-45.5742E-3	191.495E-12	604.730E-3	-9.53441E-3
4.84492E-3	191.587E-12	657.897E-3	-39.9776E-3	192.353E-12	624.237E-3	4.75315E-3
4.83992E-3	190.878E-12	668.988E-3	-30.6454E-3	192.949E-12	653.925E-3	-634.800E-6
4.83492E-3	190.401E-12	689.086E-3	-20.9507E-3	193.966E-12	673.482E-3	-11.3051E-3
4.82991E-3	190.105E-12	676.333E-3	-28.4698E-3	193.463E-12	683.968E-3	-8.46448E-3
4.82491E-3	190.424E-12	649.876E-3	-56.7565E-3	193.878E-12	690.030E-3	13.7010E-3
4.81991E-3	190.580E-12	638.243E-3	-56.7195E-3	193.633E-12	677.513E-3	5.21792E-3
4.81491E-3	190.868E-12	628.787E-3	-33.2310E-3	193.616E-12	665.192E-3	-26.4526E-3
4.80990E-3	191.505E-12	631.018E-3	-11.7445E-3	193.152E-12	653.871E-3	-26.4100E-3
4.80490E-3	191.463E-12	667.088E-3	370.963E-6	192.804E-12	640.986E-3	-26.4696E-3
4.79990E-3	192.252E-12	678.627E-3	-8.15497E-3	191.607E-12	657.688E-3	-29.1324E-3
4.79490E-3	192.405E-12	644.318E-3	-19.9387E-3	190.637E-12	666.115E-3	-20.4993E-3
4.78989E-3	192.623E-12	629.347E-3	-8.24405E-3	190.087E-12	651.422E-3	-36.9801E-3
4.78489E-3	192.117E-12	634.688E-3	-10.7531E-3	189.662E-12	647.294E-3	-44.3785E-3
4.77989E-3	191.148E-12	623.940E-3	-49.0962E-3	189.201E-12	661.874E-3	-24.7265E-3
4.77489E-3	190.310E-12	616.564E-3	-58.8839E-3	188.122E-12	671.791E-3	-24.4147E-3
4.76988E-3	189.782E-12	621.048E-3	-33.7907E-3	188.168E-12	638.271E-3	-37.2529E-3
4.76488E-3	188.497E-12	644.848E-3	2.87493E-3	188.174E-12	599.206E-3	-38.3583E-3
4.75988E-3	187.763E-12	661.760E-3	14.5671E-3	188.363E-12	589.993E-3	-22.7793E-3
4.75488E-3	186.396E-12	643.983E-3	-13.1075E-3	188.063E-12	594.218E-3	-18.0411E-3
4.74988E-3	185.932E-12	640.054E-3	-36.8567E-3	188.427E-12	618.728E-3	-20.4432E-3
4.74487E-3	185.151E-12	659.300E-3	-15.7165E-3	188.741E-12	641.551E-3	-17.2462E-3
4.73987E-3	185.468E-12	667.990E-3	17.9025E-3	189.079E-12	636.363E-3	-18.3459E-3
4.73487E-3	185.387E-12	653.368E-3	-9.36893E-3	188.454E-12	625.872E-3	-21.5649E-3
4.72986E-3	185.323E-12	615.259E-3	-59.3499E-3	188.324E-12	639.982E-3	-33.9770E-3
4.72486E-3	186.042E-12	598.834E-3	-39.3463E-3	187.977E-12	654.133E-3	-39.3701E-3
4.71986E-3	186.574E-12	618.837E-3	-42.5850E-6	187.635E-12	649.220E-3	-17.3562E-3
4.71486E-3	186.913E-12	631.636E-3	-13.0997E-3	186.494E-12	653.419E-3	10.4051E-3
4.70985E-3	186.594E-12	642.607E-3	-37.6029E-3	185.574E-12	665.881E-3	25.1925E-3
4.70485E-3	186.261E-12	641.485E-3	-51.5071E-3	184.300E-12	671.167E-3	21.2998E-3
4.69985E-3	187.018E-12	635.114E-3	-36.3675E-3	184.190E-12	673.489E-3	11.8801E-3
4.69485E-3	186.995E-12	638.115E-3	-13.9339E-3	183.396E-12	675.924E-3	781.563E-6
4.68984E-3	186.973E-12	636.362E-3	-3.50989E-3	182.278E-12	665.292E-3	-21.5686E-3
4.68484E-3	186.587E-12	643.099E-3	5.44886E-3	182.020E-12	626.720E-3	-28.0093E-3
4.67984E-3	186.397E-12	668.034E-3	-8.68016E-3	181.946E-12	600.740E-3	-20.4071E-3
4.67484E-3	186.116E-12	698.147E-3	-30.4158E-3	182.239E-12	629.539E-3	-11.9824E-3
4.66983E-3	185.219E-12	693.489E-3	-16.5032E-3	182.228E-12	646.054E-3	-4.36393E-3
4.66483E-3	185.090E-12	675.618E-3	6.14124E-3	182.223E-12	621.371E-3	-28.5947E-3
4.65983E-3	184.471E-12	685.356E-3	569.213E-6	182.351E-12	600.077E-3	-66.3699E-3
4.65483E-3	184.457E-12	676.067E-3	-1.97304E-3	183.607E-12	605.344E-3	-76.7398E-3
4.64982E-3	183.827E-12	647.900E-3	3.33879E-3	183.523E-12	631.377E-3	-48.2098E-3
4.64482E-3	183.916E-12	665.510E-3	9.40571E-3	182.918E-12	638.875E-3	-12.0580E-3
4.63982E-3	183.577E-12	682.681E-3	1.47923E-3	183.341E-12	615.672E-3	-11.2881E-3
4.63482E-3	182.866E-12	680.019E-3	-26.8060E-3	183.536E-12	604.216E-3	-16.7320E-3
4.62981E-3	183.632E-12	672.918E-3	-33.5518E-3	183.242E-12	630.523E-3	-14.4838E-3
4.62481E-3	183.564E-12	632.730E-3	-26.7766E-3	182.646E-12	648.090E-3	-28.1048E-3
4.61981E-3	183.227E-12	616.040E-3	-32.9315E-3	182.649E-12	644.062E-3	-37.0173E-3
4.61481E-3	182.894E-12	649.040E-3	-20.8170E-3	181.894E-12	647.305E-3	-27.2053E-3
4.60980E-3	183.393E-12	676.529E-3	-6.19788E-3	181.855E-12	649.155E-3	-16.8687E-3
4.60480E-3	182.974E-12	667.834E-3	-22.6231E-3	181.136E-12	650.102E-3	-22.8998E-3
4.59980E-3	182.375E-12	667.954E-3	-36.7713E-3	180.596E-12	656.425E-3	-41.0715E-3
4.59480E-3	182.369E-12	679.975E-3	-33.2800E-3	180.172E-12	650.259E-3	-44.0087E-3
4.58979E-3	181.814E-12	683.828E-3	-12.7266E-3	179.270E-12	646.975E-3	-24.6382E-3
4.58479E-3	181.930E-12	696.278E-3	1.35760E-3	179.840E-12	661.290E-3	-5.43671E-3
4.57979E-3	180.809E-12	684.003E-3	-12.1640E-3	179.499E-12	661.978E-3	-4.44850E-3
4.57479E-3	180.977E-12	637.981E-3	-28.9811E-3	179.867E-12	640.363E-3	-13.1143E-3
4.56978E-3	180.593E-12	589.920E-3	-19.7542E-3	179.110E-12	634.070E-3	-14.2562E-3
4.56478E-3	180.593E-12	582.611E-3	3.59769E-3	180.062E-12	646.512E-3	-9.09460E-3
4.55978E-3	180.071E-12	622.637E-3	4.16621E-3	179.779E-12	642.215E-3	-12.2153E-3
4.55478E-3	180.446E-12	657.440E-3	-8.59766E-3	179.582E-12	641.831E-3	-30.4773E-3
4.54977E-3	179.542E-12	651.701E-3	-5.78670E-3	179.108E-12	656.705E-3	-38.7846E-3
4.54477E-3	179.452E-12	620.879E-3	-9.71276E-3	178.856E-12	650.151E-3	-35.7682E-3
4.53977E-3	178.575E-12	618.625E-3	-29.4097E-3	179.181E-12	634.136E-3	-32.3549E-3
4.53477E-3	178.002E-12	661.271E-3	-32.8983E-3	178.733E-12	633.797E-3	-17.3025E-3
4.52976E-3	176.855E-12	691.308E-3	-35.2393E-3	178.519E-12	623.317E-3	-19.2420E-3
4.52476E-3	175.956E-12	667.609E-3	-46.5334E-3	177.961E-12	594.894E-3	-33.3690E-3
4.51976E-3	175.533E-12	615.380E-3	-53.3868E-3	177.613E-12	586.252E-3	-17.6096E-3
4.51476E-3	174.809E-12	604.332E-3	-46.2869E-3	177.873E-12	607.767E-3	-9.35324E-3
4.50975E-3	174.769E-12	630.943E-3	-26.4089E-3	177.931E-12	631.015E-3	-33.9110E-3
4.50475E-3	174.723E-12	649.016E-3	-6.51652E-3	177.323E-12	640.725E-3	-53.3233E-3
4.49975E-3	174.252E-12	649.814E-3	-12.9516E-3	177.213E-12	652.338E-3	-24.3622E-3
4.49475E-3	174.802E-12	632.035E-3	-36.2968E-3	177.319E-12	658.870E-3	31.6613E-3
4.48974E-3	174.877E-12	612.760E-3	-31.0311E-3	176.887E-12	647.156E-3	32.9414E-3
4.48474E-3	175.426E-12	605.259E-3	-16.7724E-3	176.684E-12	644.727E-3	-7.43996E-3
4.47974E-3	175.315E-12	624.592E-3	-21.7882E-3	176.361E-12	650.834E-3	-23.7991E-3
4.47474E-3	176.191E-12	639.821E-3	-25.3279E-3	176.182E-12	644.745E-3	-16.1482E-3
4.46973E-3	176.621E-12	624.616E-3	-12.0012E-3	175.382E-12	650.678E-3	-1.63052E-3
4.46473E-3	177.142E-12	602.353E-3	1.97989E-3	175.136E-12	666.948E-3	5.13841E-3
4.45973E-3	176.574E-12	593.073E-3	-868.660E-6	174.700E-12	654.453E-3	1.77856E-6
4.45473E-3	176.251E-12	605.482E-3	-23.3666E-3	173.519E-12	626.555E-3	-9.84243E-3
4.44972E-3	176.445E-12	620.987E-3	-31.6112E-3	173.629E-12	632.060E-3	-30.3593E-3
4.44472E-3	175.211E-12	615.872E-3	-13.6981E-3	173.219E-12	657.303E-3	-35.1955E-3
4.43972E-3	174.091E-12	613.469E-3	2.86084E-3	172.756E-12	653.837E-3	-27.3875E-3
4.43472E-3	173.245E-12	646.253E-3	11.1822E-3	173.014E-12	640.600E-3	-42.0344E-3
4.42971E-3	172.847E-12	675.958E-3	7.47955E-3	172.884E-12	645.604E-3	-57.5689E-3
4.42471E-3	171.838E-12	671.536E-3	-4.37384E-3	173.184E-12	660.151E-3	-49.3108E-3
4.41971E-3	171.694E-12	647.641E-3	-7.26006E-3	173.741E-12	660.658E-3	-20.5403E-3
4.41471E-3	171.442E-12	616.585E-3	-15.6589E-3	173.828E-12	639.619E-3	-1.54510E-3
4.40970E-3	171.104E-12	616.134E-3	-31.9222E-3	173.846E-12	617.382E-3	-23.5703E-3
4.40470E-3	171.571E-12	645.538E-3	-23.5580E-3	174.310E-12	604.294E-3	-49.6728E-3
4.39970E-3	172.006E-12	643.072E-3	-15.6646E-3	174.242E-12	604.133E-3	-41.3742E-3
4.39470E-3	172.166E-12	630.267E-3	-7.69923E-3	173.614E-12	610.688E-3	-10.7687E-3
4.38969E-3	172.216E-12	640.319E-3	11.8652E-3	173.205E-12	617.888E-3	7.98679E-3
4.38469E-3	173.337E-12	630.873E-3	10.9621E-3	172.703E-12	626.081E-3	-16.0980E-3
4.37969E-3	174.045E-12	626.545E-3	-9.18928E-3	171.864E-12	630.910E-3	-44.5408E-3
4.37469E-3	174.276E-12	663.427E-3	-35.4833E-3	170.599E-12	646.902E-3	-40.1130E-3
4.36968E-3	175.053E-12	687.106E-3	-48.9323E-3	169.603E-12	661.377E-3	-21.9743E-3
4.36468E-3	174.633E-12	662.763E-3	-35.8074E-3	169.393E-12	654.989E-3	2.59140E-3
4.35968E-3	175.233E-12	645.111E-3	-24.2805E-3	168.363E-12	655.403E-3	23.1512E-3
4.35468E-3	174.880E-12	663.749E-3	-24.2256E-3	167.712E-12	679.378E-3	-8.03176E-3
4.34967E-3	174.807E-12	680.010E-3	-9.37934E-3	167.668E-12	698.068E-3	-44.6404E-3
4.34467E-3	173.130E-12	675.796E-3	-7.55545E-3	167.525E-12	682.815E-3	-16.2430E-3
4.33967E-3	172.767E-12	671.217E-3	-17.3296E-3	167.852E-12	662.863E-3	11.5621E-3
4.33467E-3	171.675E-12	669.807E-3	-17.7949E-3	167.538E-12	646.291E-3	-15.7794E-3
4.32966E-3	170.772E-12	673.974E-3	-34.5347E-3	168.376E-12	625.132E-3	-60.0480E-3
4.32466E-3	170.164E-12	684.394E-3	-33.3996E-3	168.035E-12	627.286E-3	-68.0281E-3
4.31966E-3	169.335E-12	678.348E-3	-1.34282E-3	169.173E-12	637.023E-3	-45.6773E-3
4.31466E-3	168.709E-12	672.337E-3	7.39123E-3	168.972E-12	647.512E-3	-25.6559E-3
4.30965E-3	168.284E-12	679.362E-3	-7.62722E-3	169.890E-12	648.537E-3	-12.0808E-3
4.30465E-3	168.066E-12	685.679E-3	-8.43225E-3	169.139E-12	630.527E-3	-25.7746E-3
4.29965E-3	167.893E-12	671.595E-3	-9.05448E-3	169.338E-12	642.952E-3	-30.5360E-3
4.29465E-3	167.944E-12	638.713E-3	-22.6128E-3	169.179E-12	685.725E-3	-4.70285E-3
4.28964E-3	167.828E-12	617.347E-3	-14.4962E-3	169.192E-12	706.792E-3	6.27147E-3
4.28464E-3	168.200E-12	618.637E-3	10.9264E-3	168.440E-12	672.071E-3	13.0968E-3
4.27964E-3	167.786E-12	620.195E-3	7.08959E-3	167.982E-12	620.459E-3	28.6395E-3
4.27464E-3	167.774E-12	616.266E-3	-16.7219E-3	167.448E-12	619.104E-3	29.3579E-3
4.26963E-3	168.141E-12	628.550E-3	-36.2099E-3	166.808E-12	636.792E-3	11.4119E-3
4.26463E-3	168.338E-12	653.837E-3	-35.4233E-3	165.963E-12	629.916E-3	-15.3174E-3
4.25963E-3	167.840E-12	672.441E-3	-17.1516E-3	165.539E-12	635.797E-3	-36.5711E-3
4.25463E-3	167.232E-12	663.896E-3	-13.3465E-3	165.377E-12	664.367E-3	-33.9520E-3
4.24962E-3	167.650E-12	629.649E-3	-19.9343E-3	165.683E-12	671.481E-3	-15.6555E-3
4.24462E-3	167.022E-12	599.320E-3	-28.8344E-3	165.868E-12	652.071E-3	-21.8436E-3
4.23962E-3	166.657E-12	592.842E-3	-32.8881E-3	165.947E-12	633.492E-3	-49.5384E-3
4.23462E-3	165.955E-12	606.023E-3	-27.7124E-3	166.015E-12	633.962E-3	-50.2247E-3
4.22961E-3	165.766E-12	626.832E-3	-12.3315E-3	166.212E-12	643.428E-3	-45.6590E-3
4.22461E-3	165.169E-12	640.045E-3	2.11934E-3	166.679E-12	651.577E-3	-49.3518E-3
4.21961E-3	165.723E-12	648.458E-3	-2.36791E-3	167.214E-12	651.733E-3	-31.4869E-3
4.21461E-3	164.886E-12	666.495E-3	-22.6684E-3	166.892E-12	649.776E-3	-11.3986E-3
4.20960E-3	164.379E-12	669.492E-3	-27.3451E-3	166.244E-12	651.222E-3	-2.48689E-3
4.20460E-3	163.509E-12	648.098E-3	-1.21390E-3	166.332E-12	651.592E-3	-5.69128E-3
4.19960E-3	163.125E-12	639.734E-3	21.4077E-3	165.583E-12	659.995E-3	-14.1265E-3
4.19460E-3	162.729E-12	650.954E-3	19.4764E-3	165.548E-12	661.290E-3	-21.0007E-3
4.18959E-3	162.198E-12	648.048E-3	-1.91368E-3	164.556E-12	659.786E-3	-26.6002E-3
4.18459E-3	161.835E-12	625.811E-3	-21.1107E-3	163.925E-12	668.456E-3	-7.49161E-3
4.17959E-3	161.457E-12	608.889E-3	-16.4386E-3	163.217E-12	654.515E-3	11.1424E-3
4.17459E-3	162.143E-12	620.481E-3	5.83092E-3	162.636E-12	635.162E-3	-3.97266E-3
4.16958E-3	161.684E-12	627.375E-3	11.5736E-3	162.147E-12	643.155E-3	-12.6290E-3
4.16458E-3	162.352E-12	606.852E-3	-280.064E-6	162.094E-12	649.466E-3	-1.75759E-3
4.15958E-3	161.740E-12	593.936E-3	213.614E-6	161.152E-12	652.775E-3	479.806E-6
4.15458E-3	162.028E-12	603.394E-3	14.0257E-3	161.216E-12	657.020E-3	2.32146E-3
4.14957E-3	161.967E-12	636.889E-3	9.26147E-3	160.781E-12	648.591E-3	3.59521E-3
4.14457E-3	161.729E-12	652.603E-3	-7.88530E-3	160.760E-12	642.892E-3	-6.58232E-3
4.13957E-3	161.939E-12	637.585E-3	-28.5040E-3	160.101E-12	647.428E-3	-18.0049E-3
4.13457E-3	162.215E-12	633.133E-3	-42.9020E-3	160.023E-12	647.747E-3	-16.6165E-3
4.12956E-3	162.525E-12	641.919E-3	-22.8353E-3	159.575E-12	626.824E-3	-13.5259E-3
4.12456E-3	162.007E-12	638.653E-3	9.67556E-3	159.525E-12	603.780E-3	-35.9726E-3
4.11956E-3	161.563E-12	635.239E-3	23.6373E-3	158.258E-12	614.053E-3	-62.2111E-3
4.11456E-3	161.291E-12	650.533E-3	6.73951E-3	158.222E-12	632.742E-3	-48.3830E-3
4.10955E-3	160.695E-12	663.340E-3	-14.5980E-3	158.155E-12	636.320E-3	-18.6989E-3
4.10455E-3	160.264E-12	653.165E-3	-12.7110E-3	157.891E-12	631.231E-3	-3.94581E-3
4.09955E-3	159.407E-12	645.952E-3	-6.06293E-3	157.435E-12	625.238E-3	-3.59340E-3
4.09455E-3	159.072E-12	658.297E-3	-9.95077E-3	156.884E-12	615.068E-3	-24.8710E-3
4.08954E-3	158.228E-12	640.050E-3	-14.4429E-3	157.355E-12	606.797E-3	-31.8395E-3
4.08454E-3	158.130E-12	602.562E-3	-12.2454E-3	156.716E-12	620.654E-3	31.3367E-6
4.07954E-3	157.118E-12	598.986E-3	3.40539E-3	157.317E-12	639.100E-3	24.1545E-3
4.07454E-3	157.352E-12	618.521E-3	10.7774E-3	157.392E-12	635.706E-3	11.0446E-3
4.06953E-3	157.043E-12	640.980E-3	-10.9844E-3	157.536E-12	615.180E-3	-7.40745E-3
4.06453E-3	157.403E-12	658.726E-3	-34.6467E-3	157.308E-12	615.344E-3	-15.3239E-3
4.05953E-3	157.673E-12	658.395E-3	-36.2557E-3	157.586E-12	634.756E-3	-19.7517E-3
4.05453E-3	157.930E-12	647.036E-3	-19.5720E-3	157.488E-12	635.749E-3	-10.0709E-3
4.04952E-3	158.036E-12	636.982E-3	-9.37324E-3	157.012E-12	624.967E-3	-2.97526E-3
4.04452E-3	158.653E-12	626.074E-3	-3.64871E-3	156.872E-12	620.715E-3	-4.41134E-3
4.03952E-3	159.675E-12	639.443E-3	-3.69879E-3	156.223E-12	627.050E-3	-6.09381E-3
4.03452E-3	159.471E-12	671.252E-3	-13.6304E-3	156.302E-12	630.409E-3	-9.56226E-3
4.02951E-3	159.578E-12	675.821E-3	-14.4662E-3	155.655E-12	630.206E-3	908.787E-6
4.02451E-3	158.703E-12	647.500E-3	-13.0141E-3	155.694E-12	639.174E-3	5.60291E-3
4.01951E-3	158.323E-12	627.085E-3	-16.4505E-3	155.263E-12	641.157E-3	-14.5760E-3
4.01451E-3	158.167E-12	644.870E-3	-10.8381E-3	155.316E-12	641.815E-3	-34.6545E-3
4.00950E-3	157.488E-12	664.272E-3	-20.9919E-3	155.316E-12	660.462E-3	-21.7457E-3
4.00450E-3	156.517E-12	653.364E-3	-37.8576E-3	155.122E-12	667.579E-3	5.84535E-3
3.99950E-3	155.785E-12	640.672E-3	-21.9349E-3	155.706E-12	661.876E-3	15.6878E-3
3.99450E-3	155.168E-12	646.583E-3	-4.59527E-3	155.902E-12	652.488E-3	-1.25642E-3
3.98949E-3	154.351E-12	653.254E-3	-3.29239E-3	156.762E-12	649.992E-3	-11.6825E-3
3.98449E-3	153.941E-12	647.777E-3	-2.50235E-3	156.671E-12	670.844E-3	12.8348E-3
3.97949E-3	153.005E-12	642.250E-3	-7.62489E-3	157.284E-12	677.212E-3	27.5585E-3
3.97449E-3	152.834E-12	647.746E-3	-29.5024E-3	156.780E-12	662.360E-3	19.7727E-3
3.96948E-3	152.258E-12	654.886E-3	-46.6649E-3	157.187E-12	653.963E-3	-355.302E-6
3.96448E-3	153.149E-12	645.829E-3	-55.1366E-3	156.544E-12	648.191E-3	-30.7750E-3
3.95948E-3	152.469E-12	641.902E-3	-68.8680E-3	155.892E-12	650.655E-3	-32.5612E-3
3.95448E-3	152.823E-12	656.282E-3	-56.0162E-3	155.001E-12	659.168E-3	-14.0982E-3
3.94947E-3	152.797E-12	662.713E-3	-24.1816E-3	154.444E-12	640.280E-3	-13.7206E-3
3.94447E-3	153.772E-12	661.956E-3	-13.2852E-3	153.716E-12	617.076E-3	-22.0074E-3
3.93947E-3	153.339E-12	643.444E-3	-20.3971E-3	152.994E-12	627.416E-3	-33.3744E-3
3.93447E-3	153.290E-12	628.913E-3	-27.1422E-3	151.959E-12	644.762E-3	-40.9112E-3
3.92946E-3	153.459E-12	642.658E-3	-25.5931E-3	151.721E-12	642.140E-3	-29.7488E-3
3.92446E-3	152.819E-12	659.771E-3	-4.56768E-3	151.317E-12	626.488E-3	-9.55462E-3
3.91946E-3	152.797E-12	676.052E-3	11.9523E-3	150.794E-12	613.376E-3	-5.87545E-3
3.91446E-3	152.082E-12	670.794E-3	-5.78480E-3	150.498E-12	624.447E-3	-24.1898E-3
3.90945E-3	152.245E-12	646.483E-3	-12.8741E-3	150.596E-12	654.252E-3	-34.8639E-3
3.90445E-3	151.342E-12	630.945E-3	23.1581E-3	150.844E-12	657.594E-3	-31.8071E-3
3.89945E-3	151.220E-12	626.199E-3	31.8197E-3	150.684E-12	629.463E-3	-27.4194E-3
3.89445E-3	150.307E-12	640.257E-3	-12.3488E-3	150.694E-12	603.388E-3	-18.2981E-3
3.88944E-3	150.298E-12	658.740E-3	-36.0414E-3	150.443E-12	596.259E-3	-3.83515E-3
3.88444E-3	149.692E-12	669.487E-3	-23.3934E-3	150.568E-12	613.944E-3	540.458E-6
3.87944E-3	149.442E-12	677.609E-3	-24.3991E-3	150.495E-12	633.279E-3	-10.8826E-3
3.87444E-3	149.316E-12	665.736E-3	-37.5791E-3	149.845E-12	631.397E-3	-19.5841E-3
3.86943E-3	148.948E-12	641.118E-3	-36.2239E-3	149.591E-12	617.225E-3	-12.7682E-3
3.86443E-3	149.156E-12	628.323E-3	-24.4433E-3	148.809E-12	621.886E-3	-14.5894E-3
3.85943E-3	148.997E-12	634.037E-3	-3.24985E-3	148.808E-12	645.104E-3	-14.3726E-3
3.85443E-3	148.698E-12	638.554E-3	-8.69620E-3	147.995E-12	648.969E-3	-1.27359E-3
3.84942E-3	148.864E-12	620.893E-3	-35.1580E-3	147.966E-12	644.835E-3	-5.86159E-3
3.84442E-3	148.944E-12	618.268E-3	-42.1959E-3	147.543E-12	645.985E-3	-7.11625E-3
3.83942E-3	148.912E-12	638.514E-3	-29.5173E-3	147.044E-12	646.333E-3	-1.56431E-3
3.83442E-3	149.209E-12	655.513E-3	-14.1398E-3	146.543E-12	642.344E-3	-3.39183E-3
3.82941E-3	149.072E-12	657.007E-3	-11.1143E-3	146.486E-12	639.569E-3	-4.84489E-3
3.82441E-3	149.058E-12	650.313E-3	628.165E-6	146.710E-12	641.753E-3	-19.4104E-3
3.81941E-3	149.183E-12	656.584E-3	-971.610E-6	146.587E-12	653.149E-3	-34.2040E-3
3.81441E-3	148.601E-12	656.667E-3	-21.8109E-3	146.703E-12	679.562E-3	-30.9476E-3
3.80940E-3	148.240E-12	631.403E-3	-16.6517E-3	147.063E-12	683.675E-3	-31.1725E-3
3.80440E-3	147.063E-12	613.254E-3	3.86649E-3	147.048E-12	665.273E-3	-36.9912E-3
3.79940E-3	146.725E-12	637.832E-3	12.1430E-3	147.415E-12	663.286E-3	-38.8824E-3
3.79440E-3	145.724E-12	662.803E-3	-4.78510E-3	147.128E-12	656.852E-3	-33.2919E-3
3.78939E-3	145.983E-12	654.616E-3	-33.4751E-3	147.643E-12	633.314E-3	-18.2835E-3
3.78439E-3	144.926E-12	655.201E-3	-52.4835E-3	147.189E-12	630.177E-3	-21.5737E-3
3.77939E-3	145.115E-12	660.762E-3	-53.4518E-3	147.264E-12	643.728E-3	-33.7076E-3
3.77439E-3	144.554E-12	641.357E-3	-42.4977E-3	146.737E-12	637.486E-3	-38.6449E-3
3.76938E-3	144.421E-12	630.592E-3	-38.4679E-3	146.289E-12	641.016E-3	-55.7480E-3
3.76438E-3	144.674E-12	655.149E-3	-32.8531E-3	145.703E-12	664.867E-3	-57.6139E-3
3.75938E-3	144.309E-12	686.129E-3	-16.0409E-3	145.155E-12	663.865E-3	-23.6893E-3
3.75438E-3	144.517E-12	688.774E-3	-3.71681E-3	144.694E-12	635.201E-3	5.07755E-3
3.74937E-3	144.216E-12	675.493E-3	-8.04973E-3	143.710E-12	605.987E-3	865.365E-6
3.74437E-3	144.987E-12	674.040E-3	-24.4538E-3	143.248E-12	621.903E-3	-3.79946E-3
3.73937E-3	145.072E-12	673.179E-3	-38.4224E-3	142.650E-12	656.204E-3	4.13597E-3
3.73437E-3	144.731E-12	662.276E-3	-35.2309E-3	142.538E-12	650.345E-3	-11.9665E-3
3.72936E-3	145.271E-12	650.468E-3	-31.3886E-3	142.498E-12	635.306E-3	-25.8158E-3
3.72436E-3	144.789E-12	644.458E-3	-34.5801E-3	142.251E-12	638.278E-3	-12.3237E-3
3.71936E-3	144.738E-12	634.836E-3	-29.1543E-3	142.758E-12	652.363E-3	-13.2126E-3
3.71436E-3	143.861E-12	635.744E-3	-18.1970E-3	142.496E-12	678.150E-3	-33.3400E-3
3.70935E-3	143.706E-12	658.212E-3	-6.54949E-3	142.711E-12	682.834E-3	-42.8013E-3
3.70435E-3	143.059E-12	665.836E-3	-4.81631E-3	142.117E-12	655.266E-3	-42.7470E-3
3.69935E-3	142.928E-12	658.804E-3	-19.4026E-3	142.542E-12	633.677E-3	-19.4364E-3
3.69435E-3	142.050E-12	653.301E-3	-22.7645E-3	142.272E-12	624.076E-3	17.1513E-3
3.68934E-3	141.650E-12	638.594E-3	-2.80539E-3	141.738E-12	615.873E-3	16.9057E-3
3.68434E-3	141.056E-12	619.357E-3	6.03539E-3	141.088E-12	620.072E-3	-14.1035E-3
3.67934E-3	140.494E-12	618.020E-3	-8.73041E-3	140.562E-12	648.719E-3	-21.6054E-3
3.67434E-3	140.539E-12	637.304E-3	-17.4335E-3	140.427E-12	667.679E-3	-2.16526E-3
3.66933E-3	139.473E-12	651.544E-3	-13.9173E-3	139.580E-12	646.731E-3	-6.27659E-3
3.66433E-3	139.308E-12	660.564E-3	-17.1006E-3	139.467E-12	630.651E-3	-27.8508E-3
3.65933E-3	139.037E-12	668.248E-3	-25.7841E-3	139.351E-12	632.668E-3	-29.6828E-3
3.65433E-3	139.407E-12	663.404E-3	-31.3154E-3	139.450E-12	630.417E-3	-10.4160E-3
3.64932E-3	139.061E-12	671.986E-3	-24.8930E-3	139.055E-12	634.422E-3	2.36234E-3
3.64432E-3	139.135E-12	685.210E-3	-3.06437E-3	138.984E-12	642.217E-3	-16.7437E-3
3.63932E-3	138.817E-12	677.530E-3	3.41173E-3	138.620E-12	650.088E-3	-29.6000E-3
3.63432E-3	138.688E-12	660.179E-3	-19.1918E-3	138.443E-12	657.088E-3	-13.7425E-3
3.62931E-3	138.822E-12	638.445E-3	-41.9371E-3	138.235E-12	660.132E-3	-6.73845E-3
3.62431E-3	138.795E-12	636.917E-3	-45.3060E-3	138.018E-12	650.211E-3	-13.0016E-3
3.61931E-3	138.809E-12	648.016E-3	-25.2779E-3	137.741E-12	643.216E-3	-20.6625E-3
3.61431E-3	139.242E-12	652.861E-3	-8.79689E-3	137.300E-12	656.314E-3	-26.6630E-3
3.60930E-3	139.058E-12	664.078E-3	-15.7901E-3	137.281E-12	659.812E-3	-26.2951E-3
3.60430E-3	138.944E-12	670.654E-3	-23.6422E-3	137.133E-12	646.457E-3	-7.56633E-3
3.59930E-3	138.913E-12	674.964E-3	-13.1198E-3	136.982E-12	638.180E-3	5.08826E-3
3.59430E-3	139.012E-12	684.931E-3	-4.76152E-3	136.892E-12	635.361E-3	-2.98511E-3
3.58929E-3	138.494E-12	676.072E-3	-23.4635E-3	137.012E-12	637.664E-3	-9.30480E-3
3.58429E-3	138.219E-12	658.034E-3	-37.4912E-3	137.189E-12	661.209E-3	-21.1635E-3
3.57929E-3	137.803E-12	656.007E-3	-27.9915E-3	137.041E-12	674.846E-3	-25.6712E-3
3.57429E-3	136.929E-12	670.469E-3	-455.601E-6	137.280E-12	666.203E-3	-7.46110E-3
3.56928E-3	136.773E-12	686.390E-3	14.1355E-3	137.345E-12	653.670E-3	-584.473E-6
3.56428E-3	135.969E-12	689.757E-3	-9.67160E-3	137.390E-12	632.688E-3	-15.8775E-3
3.55928E-3	135.915E-12	675.303E-3	-36.8234E-3	137.426E-12	639.058E-3	-27.2822E-3
3.55428E-3	134.811E-12	652.611E-3	-36.9642E-3	136.775E-12	675.765E-3	-28.9225E-3
3.54927E-3	134.949E-12	645.497E-3	-22.7685E-3	136.722E-12	696.649E-3	-19.5024E-3
3.54427E-3	134.837E-12	644.923E-3	-20.7303E-3	136.463E-12	684.501E-3	5.33778E-3
3.53927E-3	134.675E-12	653.640E-3	-32.3493E-3	135.822E-12	660.181E-3	16.7625E-3
3.53427E-3	134.623E-12	668.506E-3	-42.6587E-3	134.998E-12	660.342E-3	-207.118E-6
3.52926E-3	134.087E-12	663.639E-3	-45.1064E-3	134.185E-12	648.857E-3	-18.5068E-3
3.52426E-3	134.117E-12	646.316E-3	-34.5558E-3	133.917E-12	625.226E-3	-15.2016E-3
3.51926E-3	134.203E-12	636.347E-3	-15.4538E-3	132.935E-12	642.831E-3	-2.14890E-3
3.51426E-3	134.318E-12	637.762E-3	-3.57194E-3	132.618E-12	659.209E-3	-11.6878E-3
3.50925E-3	134.025E-12	641.390E-3	-6.03275E-3	132.154E-12	652.936E-3	-28.9540E-3
3.50425E-3	134.384E-12	650.766E-3	-17.2231E-3	131.649E-12	654.701E-3	-14.4641E-3
3.49925E-3	134.128E-12	648.280E-3	-26.4112E-3	131.109E-12	659.070E-3	5.73236E-3
3.49425E-3	133.960E-12	636.092E-3	-13.6156E-3	131.412E-12	655.701E-3	-172.015E-6
3.48924E-3	134.459E-12	648.281E-3	12.3090E-3	131.356E-12	653.933E-3	-12.0563E-3
3.48424E-3	133.698E-12	669.934E-3	5.10602E-3	131.326E-12	661.064E-3	-6.10411E-3
3.47924E-3	133.142E-12	673.673E-3	-13.4497E-3	131.617E-12	658.760E-3	12.9222E-3
3.47424E-3	132.834E-12	663.038E-3	-4.08221E-3	132.019E-12	654.466E-3	5.52050E-3
3.46923E-3	132.731E-12	657.837E-3	3.76438E-3	132.493E-12	663.198E-3	-15.2915E-3
3.46423E-3	131.650E-12	678.654E-3	-11.7829E-3	132.757E-12	677.984E-3	-17.9802E-3
3.45923E-3	131.631E-12	693.169E-3	-19.3226E-3	132.949E-12	699.122E-3	-16.2773E-3
3.45423E-3	131.465E-12	667.822E-3	-4.85045E-3	132.864E-12	699.794E-3	-8.89188E-3
3.44922E-3	131.176E-12	638.140E-3	1.02314E-3	132.410E-12	667.950E-3	-5.45582E-3
3.44422E-3	130.738E-12	634.185E-3	-10.2398E-3	132.188E-12	639.716E-3	-20.9464E-3
3.43922E-3	130.499E-12	651.652E-3	-19.8912E-3	131.671E-12	642.199E-3	-32.3088E-3
3.43422E-3	130.963E-12	666.873E-3	-20.6764E-3	131.060E-12	654.611E-3	-25.2497E-3
3.42921E-3	130.502E-12	658.863E-3	-20.8093E-3	130.636E-12	652.878E-3	-20.8323E-3
3.42421E-3	131.148E-12	647.435E-3	-28.3196E-3	130.147E-12	643.594E-3	-17.3188E-3
3.41921E-3	130.908E-12	650.559E-3	-37.4501E-3	130.037E-12	637.788E-3	-14.5192E-3
3.41421E-3	130.865E-12	652.397E-3	-41.9502E-3	129.300E-12	636.873E-3	-17.5945E-3
3.40920E-3	130.608E-12	650.169E-3	-38.7900E-3	129.040E-12	641.477E-3	-16.6863E-3
3.40420E-3	131.347E-12	647.316E-3	-23.3700E-3	128.894E-12	648.527E-3	-26.5816E-3
3.39920E-3	130.820E-12	658.722E-3	1.67827E-3	129.563E-12	646.941E-3	-36.5825E-3
3.39420E-3	130.548E-12	678.452E-3	14.8952E-3	128.988E-12	648.796E-3	-19.9371E-3
3.38919E-3	130.232E-12	677.014E-3	219.168E-6	129.545E-12	661.929E-3	17.5145E-3
3.38419E-3	129.873E-12	658.823E-3	-9.99349E-3	129.426E-12	673.242E-3	33.0464E-3
3.37919E-3	129.270E-12	635.343E-3	7.46678E-3	129.704E-12	672.581E-3	-2.29532E-3
3.37419E-3	128.649E-12	616.771E-3	3.96095E-3	129.531E-12	667.079E-3	-38.4787E-3
3.36918E-3	127.733E-12	615.124E-3	-22.6463E-3	129.575E-12	672.597E-3	-23.6255E-3
3.36418E-3	126.827E-12	632.254E-3	-24.4050E-3	129.177E-12	681.082E-3	5.90410E-3
3.35918E-3	126.716E-12	656.578E-3	-12.4469E-3	128.944E-12	660.920E-3	13.6180E-3
3.35418E-3	126.257E-12	661.003E-3	-20.8178E-3	128.601E-12	632.295E-3	17.1440E-3
3.34917E-3	125.467E-12	644.092E-3	-30.2402E-3	128.300E-12	637.955E-3	7.77529E-3
3.34417E-3	125.730E-12	625.050E-3	-17.0256E-3	127.423E-12	657.013E-3	-15.3616E-3
3.33917E-3	125.296E-12	617.297E-3	-10.8177E-3	127.146E-12	665.958E-3	-25.2881E-3
3.33417E-3	125.559E-12	636.025E-3	-21.2203E-3	126.168E-12	665.553E-3	-20.9324E-3
3.32916E-3	125.204E-12	663.964E-3	-32.3209E-3	126.245E-12	637.368E-3	-3.85451E-3
3.32416E-3	125.620E-12	668.086E-3	-38.0140E-3	124.992E-12	614.074E-3	11.0813E-3
3.31916E-3	125.056E-12	659.948E-3	-42.6180E-3	124.868E-12	633.651E-3	-4.49444E-3
3.31416E-3	125.361E-12	657.227E-3	-35.7246E-3	124.095E-12	650.638E-3	-35.0091E-3
3.30915E-3	124.901E-12	652.420E-3	-30.5953E-3	124.054E-12	651.842E-3	-33.6701E-3
3.30415E-3	124.910E-12	651.271E-3	-39.7384E-3	123.388E-12	658.208E-3	-21.6517E-3
3.29915E-3	124.295E-12	653.834E-3	-36.3755E-3	123.179E-12	664.810E-3	-27.2543E-3
3.29415E-3	124.328E-12	659.910E-3	-25.9768E-3	123.273E-12	666.031E-3	-22.5285E-3
3.28914E-3	124.109E-12	672.851E-3	-6.35612E-3	123.275E-12	660.678E-3	-18.7171E-3
3.28414E-3	124.098E-12	679.831E-3	4.73152E-3	123.009E-12	654.853E-3	-30.2931E-3
3.27914E-3	123.688E-12	678.797E-3	-14.2740E-3	123.028E-12	657.080E-3	-41.9754E-3
3.27414E-3	123.925E-12	679.251E-3	-32.7026E-3	123.001E-12	659.094E-3	-56.3231E-3
3.26913E-3	123.516E-12	684.992E-3	-30.0081E-3	123.087E-12	648.730E-3	-61.3600E-3
3.26413E-3	123.482E-12	689.371E-3	-19.2220E-3	122.640E-12	650.052E-3	-46.5563E-3
3.25913E-3	123.393E-12	687.145E-3	-19.3987E-3	122.685E-12	661.474E-3	-36.2063E-3
3.25413E-3	122.969E-12	677.747E-3	-25.4467E-3	122.134E-12	663.618E-3	-28.6931E-3
3.24912E-3	122.631E-12	662.182E-3	-24.2768E-3	122.152E-12	668.248E-3	-13.2567E-3
3.24412E-3	122.501E-12	651.880E-3	-15.7568E-3	121.874E-12	674.942E-3	-3.16424E-3
3.23912E-3	122.024E-12	652.436E-3	-380.895E-6	122.004E-12	676.719E-3	5.82437E-3
3.23412E-3	121.652E-12	657.675E-3	12.0224E-3	121.741E-12	673.829E-3	10.9096E-3
3.22911E-3	121.202E-12	661.180E-3	8.77371E-3	121.345E-12	686.254E-3	-13.5688E-3
3.22411E-3	121.198E-12	663.241E-3	-13.8918E-3	121.344E-12	692.755E-3	-43.4301E-3
3.21911E-3	120.792E-12	660.640E-3	-36.1906E-3	121.218E-12	669.131E-3	-33.5390E-3
3.21411E-3	120.651E-12	653.620E-3	-33.3851E-3	121.305E-12	671.361E-3	-8.77370E-3
3.20910E-3	120.285E-12	648.932E-3	-19.4341E-3	120.624E-12	691.437E-3	-4.46705E-3
3.20410E-3	120.669E-12	647.594E-3	-7.08966E-3	120.363E-12	684.927E-3	-12.9727E-3
3.19910E-3	120.533E-12	653.321E-3	-336.173E-6	120.405E-12	684.607E-3	-28.6919E-3
3.19410E-3	120.807E-12	661.961E-3	3.45281E-3	119.878E-12	696.853E-3	-32.7550E-3
3.18909E-3	120.521E-12	671.058E-3	4.12727E-3	119.830E-12	684.728E-3	-5.19191E-3
3.18409E-3	120.803E-12	680.174E-3	-1.08919E-3	118.964E-12	663.996E-3	3.45374E-3
3.17909E-3	120.186E-12	676.432E-3	-495.823E-6	119.206E-12	658.789E-3	-28.5387E-3
3.17409E-3	120.506E-12	663.507E-3	-3.49648E-3	118.227E-12	659.697E-3	-31.4837E-3
3.16908E-3	120.046E-12	666.610E-3	-8.94516E-3	118.383E-12	667.350E-3	-6.12902E-3
3.16408E-3	119.881E-12	681.132E-3	3.39719E-3	118.325E-12	674.356E-3	2.45388E-3
3.15908E-3	119.708E-12	675.155E-3	13.6756E-3	118.395E-12	678.848E-3	2.51612E-3
3.15408E-3	119.588E-12	661.901E-3	10.0861E-3	118.618E-12	682.365E-3	3.46128E-3
3.14907E-3	118.987E-12	656.402E-3	-2.78790E-3	118.785E-12	673.171E-3	3.78786E-3
3.14407E-3	118.149E-12	644.965E-3	-17.6610E-3	119.226E-12	669.222E-3	5.84215E-3
3.13907E-3	118.118E-12	641.592E-3	-8.74477E-3	118.780E-12	677.338E-3	-407.392E-6
3.13407E-3	117.221E-12	657.855E-3	5.04885E-3	118.830E-12	667.375E-3	-24.6531E-3
3.12906E-3	117.100E-12	673.452E-3	6.37840E-3	118.660E-12	646.988E-3	-46.6559E-3
3.12406E-3	116.678E-12	674.209E-3	-7.18964E-3	118.224E-12	656.640E-3	-49.1871E-3
3.11906E-3	115.909E-12	663.644E-3	-19.1637E-3	118.063E-12	685.317E-3	-39.7007E-3
3.11406E-3	115.443E-12	651.279E-3	2.89177E-3	117.330E-12	687.004E-3	-44.9464E-3
3.10905E-3	115.539E-12	648.205E-3	8.86019E-3	116.568E-12	660.293E-3	-45.8412E-3
3.10405E-3	115.343E-12	651.666E-3	-22.3407E-3	115.623E-12	641.580E-3	-28.5756E-3
3.09905E-3	114.937E-12	653.328E-3	-41.5057E-3	114.879E-12	649.359E-3	-18.5466E-3
3.09405E-3	115.793E-12	653.161E-3	-33.8429E-3	114.048E-12	659.127E-3	-7.74774E-3
3.08904E-3	115.358E-12	653.541E-3	-14.6022E-3	113.292E-12	644.545E-3	1.46354E-3
3.08404E-3	116.224E-12	655.397E-3	-2.70271E-3	112.991E-12	632.292E-3	-3.67365E-3
3.07904E-3	115.953E-12	668.508E-3	-9.59268E-3	111.937E-12	644.313E-3	-1.27085E-3
3.07404E-3	116.408E-12	681.031E-3	-26.2318E-3	112.220E-12	664.507E-3	-1.22066E-3
3.06903E-3	115.946E-12	678.318E-3	-28.0137E-3	112.011E-12	671.201E-3	-21.7268E-3
3.06403E-3	116.222E-12	676.995E-3	-22.6847E-3	111.859E-12	665.096E-3	-36.4968E-3
3.05903E-3	115.470E-12	683.187E-3	-23.4795E-3	111.920E-12	658.978E-3	-29.3994E-3
3.05403E-3	115.244E-12	682.199E-3	-26.7370E-3	112.344E-12	654.164E-3	-4.43863E-3
3.04902E-3	114.349E-12	674.225E-3	-35.2296E-3	112.554E-12	654.428E-3	15.0829E-3
3.04402E-3	113.877E-12	671.632E-3	-36.0654E-3	113.091E-12	649.610E-3	12.5349E-3
3.03902E-3	113.514E-12	673.049E-3	-23.3157E-3	113.289E-12	658.422E-3	2.94202E-3
3.03402E-3	112.752E-12	671.666E-3	-15.5728E-3	113.464E-12	675.236E-3	-4.63353E-3
3.02901E-3	112.229E-12	663.624E-3	-14.5981E-3	113.602E-12	673.275E-3	-12.9200E-3
3.02401E-3	111.661E-12	656.065E-3	-7.88524E-3	113.786E-12	673.962E-3	-22.2409E-3
3.01901E-3	111.955E-12	655.521E-3	-3.55749E-3	113.893E-12	675.982E-3	-21.7051E-3
3.01401E-3	111.712E-12	650.585E-3	-14.3986E-3	113.058E-12	676.827E-3	-13.0032E-3
3.00900E-3	111.312E-12	648.268E-3	-25.8455E-3	112.290E-12	674.624E-3	-13.9020E-3
3.00400E-3	111.152E-12	657.247E-3	-32.3096E-3	111.965E-12	666.304E-3	-15.1757E-3
2.99900E-3	111.274E-12	664.650E-3	-29.6021E-3	111.485E-12	669.999E-3	-16.5382E-3
2.99400E-3	111.337E-12	673.646E-3	-13.7755E-3	110.938E-12	675.260E-3	-23.4507E-3
2.98899E-3	111.475E-12	672.112E-3	-9.60689E-3	110.550E-12	664.018E-3	-17.5371E-3
2.98399E-3	111.530E-12	653.486E-3	-21.4061E-3	110.129E-12	666.194E-3	-4.61321E-3
2.97899E-3	111.601E-12	647.422E-3	-24.0673E-3	109.810E-12	680.019E-3	7.43403E-3
2.97399E-3	112.145E-12	668.624E-3	-13.0548E-3	110.565E-12	673.964E-3	15.3657E-3
2.96898E-3	111.692E-12	688.586E-3	-17.7421E-3	110.453E-12	667.820E-3	2.48824E-3
2.96398E-3	111.748E-12	686.359E-3	-49.2770E-3	110.530E-12	677.155E-3	-19.6491E-3
2.95898E-3	111.161E-12	675.911E-3	-57.5214E-3	110.745E-12	679.854E-3	-21.0524E-3
2.95398E-3	110.805E-12	678.976E-3	-35.8872E-3	111.034E-12	677.018E-3	968.925E-6
2.94897E-3	110.520E-12	690.025E-3	-30.3121E-3	111.199E-12	688.550E-3	18.2290E-3
2.94397E-3	110.061E-12	694.430E-3	-38.6273E-3	110.665E-12	682.232E-3	11.2057E-3
2.93897E-3	109.185E-12	686.769E-3	-38.5974E-3	110.720E-12	663.366E-3	739.328E-6
2.93397E-3	108.508E-12	666.998E-3	-29.7356E-3	109.928E-12	668.902E-3	89.1809E-6
2.92896E-3	108.212E-12	654.307E-3	-15.4991E-3	109.980E-12	670.721E-3	-1.65990E-3
2.92396E-3	107.787E-12	642.700E-3	-3.70521E-3	109.262E-12	663.546E-3	-9.35213E-3
2.91896E-3	107.014E-12	645.115E-3	-5.83058E-3	108.730E-12	664.898E-3	-11.4204E-3
2.91396E-3	106.917E-12	658.553E-3	-23.4852E-3	107.573E-12	670.158E-3	-13.2774E-3
2.90895E-3	106.635E-12	658.193E-3	-42.2891E-3	106.931E-12	684.820E-3	-16.7617E-3
2.90395E-3	106.469E-12	663.746E-3	-56.1114E-3	106.191E-12	696.282E-3	-5.71621E-3
2.89895E-3	106.247E-12	671.544E-3	-52.9797E-3	106.322E-12	688.150E-3	-1.00653E-3
2.89395E-3	106.291E-12	669.729E-3	-32.9354E-3	105.291E-12	675.454E-3	-26.2411E-3
2.88894E-3	106.571E-12	670.419E-3	-14.3228E-3	105.761E-12	675.924E-3	-46.5728E-3
2.88394E-3	106.348E-12	677.243E-3	-4.77631E-3	105.376E-12	686.977E-3	-40.2106E-3
2.87894E-3	106.523E-12	672.309E-3	-6.44722E-3	105.556E-12	702.465E-3	-15.9130E-3
2.87394E-3	106.546E-12	651.674E-3	-9.26091E-3	105.366E-12	714.444E-3	8.11483E-3
2.86893E-3	106.541E-12	644.523E-3	-8.79120E-3	105.440E-12	699.615E-3	10.5595E-6
2.86393E-3	105.988E-12	652.413E-3	-12.1983E-3	105.314E-12	674.131E-3	-5.48465E-3
2.85893E-3	105.739E-12	674.707E-3	-15.8033E-3	105.465E-12	662.956E-3	13.0903E-3
2.85393E-3	105.926E-12	712.770E-3	-10.6436E-3	105.460E-12	656.675E-3	8.18820E-3
2.84892E-3	105.701E-12	722.311E-3	-1.75073E-3	104.817E-12	657.758E-3	-12.0008E-3
2.84392E-3	105.342E-12	704.130E-3	1.72699E-3	104.523E-12	664.967E-3	-22.9157E-3
2.83892E-3	105.023E-12	689.916E-3	-20.3002E-3	104.122E-12	673.299E-3	-40.7848E-3
2.83392E-3	104.556E-12	680.099E-3	-49.7454E-3	103.990E-12	671.555E-3	-48.6107E-3
2.82891E-3	103.885E-12	677.400E-3	-54.1147E-3	103.125E-12	662.794E-3	-27.1595E-3
2.82391E-3	103.424E-12	673.594E-3	-46.3641E-3	103.070E-12	676.923E-3	4.47168E-3
2.81891E-3	102.904E-12	673.369E-3	-30.4759E-3	102.575E-12	688.676E-3	9.29129E-3
2.81391E-3	102.272E-12	678.221E-3	-15.1962E-3	102.645E-12	674.374E-3	-11.1626E-3
2.80890E-3	101.966E-12	685.439E-3	-15.0802E-3	102.595E-12	677.115E-3	-10.2838E-3
2.80390E-3	101.449E-12	684.709E-3	-22.0910E-3	102.270E-12	696.482E-3	10.2162E-3
2.79890E-3	101.650E-12	670.658E-3	-18.5066E-3	102.338E-12	699.244E-3	4.27692E-3
2.79390E-3	101.417E-12	668.734E-3	-15.6977E-3	102.156E-12	685.370E-3	-17.3693E-3
2.78889E-3	101.497E-12	669.444E-3	-20.1337E-3	102.573E-12	674.130E-3	-26.2548E-3
2.78389E-3	101.601E-12	669.872E-3	-20.3197E-3	102.191E-12	679.424E-3	-23.5861E-3
2.77889E-3	101.519E-12	685.152E-3	-19.5787E-3	102.124E-12	689.611E-3	-17.9859E-3
2.77389E-3	101.658E-12	692.463E-3	-15.9125E-3	101.636E-12	698.620E-3	-21.3212E-3
2.76888E-3	101.537E-12	681.990E-3	-13.3451E-3	101.977E-12	695.169E-3	-21.6319E-3
2.76388E-3	101.724E-12	682.666E-3	-7.69516E-3	101.455E-12	686.280E-3	-20.4007E-3
2.75888E-3	101.166E-12	694.320E-3	-6.84977E-3	100.945E-12	695.135E-3	-24.0468E-3
2.75388E-3	101.367E-12	692.716E-3	-22.3679E-3	100.745E-12	691.083E-3	-10.4257E-3
2.74887E-3	100.765E-12	687.640E-3	-26.6638E-3	100.425E-12	662.864E-3	3.00459E-3
2.74387E-3	100.573E-12	685.589E-3	-17.8162E-3	99.8998E-12	652.697E-3	-5.43849E-3
2.73887E-3	100.130E-12	683.983E-3	-18.6416E-3	99.3414E-12	658.988E-3	-30.8794E-3
2.73387E-3	99.9020E-12	688.272E-3	-17.1591E-3	99.4109E-12	668.960E-3	-42.6383E-3
2.72886E-3	99.4826E-12	681.168E-3	-13.1574E-3	98.8969E-12	685.432E-3	-27.4922E-3
2.72386E-3	98.9828E-12	662.915E-3	-8.09587E-3	98.6308E-12	690.302E-3	-18.5288E-3
2.71886E-3	98.6165E-12	661.023E-3	-10.6147E-3	98.5306E-12	686.294E-3	-20.2447E-3
2.71386E-3	98.2536E-12	681.134E-3	-27.8016E-3	98.3860E-12	689.891E-3	-30.9452E-3
2.70885E-3	97.6512E-12	702.939E-3	-27.2365E-3	98.2247E-12	701.286E-3	-38.7869E-3
2.70385E-3	97.6133E-12	705.719E-3	-13.4805E-3	98.3116E-12	701.625E-3	-27.4049E-3
2.69885E-3	97.0714E-12	691.234E-3	-8.84446E-3	98.2787E-12	684.532E-3	-21.7742E-3
2.69385E-3	97.1322E-12	680.753E-3	-14.1906E-3	98.0467E-12	669.570E-3	-36.3730E-3
2.68884E-3	96.8411E-12	683.331E-3	-28.1038E-3	97.6319E-12	667.061E-3	-48.9804E-3
2.68384E-3	96.5713E-12	682.391E-3	-26.5305E-3	97.0622E-12	667.004E-3	-47.1787E-3
2.67884E-3	96.6199E-12	679.997E-3	-3.53231E-3	96.6665E-12	666.651E-3	-35.4412E-3
2.67384E-3	96.7427E-12	690.540E-3	811.331E-6	96.4554E-12	669.738E-3	-21.9746E-3
2.66883E-3	96.9645E-12	701.031E-3	-19.8250E-3	95.5932E-12	674.542E-3	-13.5135E-3
2.66383E-3	96.6955E-12	699.886E-3	-27.9051E-3	94.9403E-12	676.695E-3	-6.52993E-3
2.65883E-3	97.0364E-12	693.638E-3	-35.5151E-3	94.2584E-12	681.768E-3	-1.66069E-3
2.65383E-3	97.3036E-12	690.249E-3	-44.8824E-3	93.8782E-12	687.202E-3	-6.21194E-3
2.64882E-3	97.3606E-12	690.136E-3	-28.6487E-3	93.7104E-12	684.620E-3	-14.5468E-3
2.64382E-3	96.9649E-12	704.162E-3	-13.2296E-3	93.6043E-12	684.500E-3	-24.1902E-3
2.63882E-3	97.3151E-12	722.873E-3	-16.3462E-3	93.8271E-12	687.528E-3	-31.7331E-3
2.63382E-3	96.8464E-12	724.365E-3	-22.1251E-3	93.9033E-12	702.149E-3	-29.2163E-3
2.62881E-3	96.2328E-12	718.758E-3	-26.4106E-3	94.3465E-12	738.844E-3	-21.5176E-3
2.62381E-3	95.8068E-12	715.248E-3	-34.6935E-3	94.4530E-12	755.426E-3	-11.9725E-3
2.61881E-3	95.4048E-12	708.764E-3	-36.2093E-3	94.6121E-12	721.690E-3	-8.86161E-3
2.61381E-3	94.4457E-12	706.608E-3	-24.8062E-3	94.7612E-12	692.203E-3	-12.2778E-3
2.60880E-3	93.7756E-12	697.008E-3	-16.1222E-3	94.8260E-12	704.433E-3	-14.7429E-3
2.60380E-3	93.0289E-12	684.482E-3	-11.9758E-3	94.4238E-12	714.569E-3	-27.4865E-3
2.59880E-3	92.9593E-12	678.975E-3	-11.6985E-3	93.6252E-12	687.743E-3	-22.6940E-3
2.59380E-3	92.4047E-12	668.188E-3	-19.6142E-3	93.2824E-12	660.306E-3	7.22869E-3
2.58879E-3	92.1064E-12	676.611E-3	-25.0029E-3	92.6890E-12	669.646E-3	6.05452E-3
2.58379E-3	91.9531E-12	699.366E-3	-21.8862E-3	91.7070E-12	701.556E-3	-15.3293E-3
2.57879E-3	91.5571E-12	701.322E-3	-10.5093E-3	91.1226E-12	719.007E-3	-19.5914E-3
2.57379E-3	91.1217E-12	688.588E-3	-1.01761E-3	90.8876E-12	708.678E-3	-4.47486E-3
2.56878E-3	90.9851E-12	685.541E-3	-4.15687E-3	90.3654E-12	692.706E-3	20.1310E-3
2.56378E-3	90.9526E-12	689.091E-3	-2.23795E-3	89.9328E-12	688.953E-3	24.4319E-3
2.55878E-3	90.9073E-12	690.393E-3	4.70082E-3	89.9636E-12	692.637E-3	15.9914E-3
2.55378E-3	90.9371E-12	687.433E-3	-6.86785E-3	89.8771E-12	703.372E-3	6.08014E-3
2.54877E-3	91.0540E-12	680.994E-3	-29.4180E-3	90.0528E-12	714.520E-3	-4.64559E-3
2.54377E-3	90.9607E-12	680.548E-3	-33.9055E-3	90.0695E-12	706.573E-3	-8.35887E-3
2.53877E-3	90.8791E-12	694.985E-3	-8.89161E-3	90.4449E-12	696.527E-3	-13.7806E-3
2.53377E-3	90.8723E-12	709.543E-3	4.51432E-3	90.5821E-12	709.364E-3	-15.2358E-3
2.52876E-3	90.7081E-12	703.695E-3	-11.9884E-3	91.0560E-12	715.224E-3	-14.9705E-3
2.52376E-3	90.3684E-12	690.512E-3	-27.0514E-3	91.0086E-12	703.046E-3	-8.68676E-3
2.51876E-3	90.0395E-12	681.995E-3	-31.5139E-3	90.9217E-12	702.305E-3	4.78967E-3
2.51376E-3	89.6500E-12	692.732E-3	-19.3922E-3	90.8710E-12	711.048E-3	7.82248E-3
2.50875E-3	89.5042E-12	703.847E-3	-3.42448E-3	90.1014E-12	711.583E-3	5.56346E-3
2.50375E-3	88.8446E-12	702.370E-3	-7.50667E-3	88.9942E-12	709.504E-3	7.27259E-3
2.49875E-3	88.4021E-12	703.194E-3	-21.4804E-3	88.3716E-12	714.982E-3	3.81951E-3
2.49375E-3	88.0750E-12	697.569E-3	-21.0382E-3	87.7488E-12	701.829E-3	-8.49396E-3
2.48874E-3	87.5773E-12	693.601E-3	-14.7569E-3	86.3235E-12	670.917E-3	-18.3926E-3
2.48374E-3	86.9549E-12	688.680E-3	-15.7740E-3	86.0066E-12	654.402E-3	-28.9485E-3
2.47874E-3	86.8556E-12	689.715E-3	-14.9179E-3	85.1405E-12	665.814E-3	-31.6667E-3
2.47374E-3	86.6001E-12	696.956E-3	-11.9629E-3	84.9718E-12	693.025E-3	-19.4212E-3
2.46873E-3	86.5356E-12	690.527E-3	-11.5959E-3	84.4106E-12	706.691E-3	2.39753E-3
2.46373E-3	86.4250E-12	692.552E-3	-19.3788E-3	84.7035E-12	694.915E-3	19.8181E-3
2.45873E-3	86.5457E-12	716.225E-3	-21.3167E-3	84.4859E-12	687.038E-3	12.7784E-3
2.45373E-3	86.7680E-12	732.646E-3	-12.9530E-3	85.0346E-12	703.047E-3	-10.2030E-3
2.44872E-3	86.8547E-12	737.447E-3	-9.25548E-3	85.1975E-12	710.600E-3	-22.2057E-3
2.44372E-3	87.2083E-12	734.687E-3	-19.4119E-3	85.8762E-12	705.657E-3	-16.7778E-3
2.43872E-3	86.9568E-12	729.008E-3	-26.6473E-3	85.8436E-12	710.029E-3	-13.9900E-3
2.43372E-3	86.9835E-12	734.083E-3	-12.8571E-3	86.2163E-12	717.291E-3	-27.6767E-3
2.42871E-3	86.5907E-12	730.628E-3	-2.57929E-3	86.1500E-12	715.751E-3	-37.9127E-3
2.42371E-3	86.2536E-12	718.481E-3	-7.30348E-3	86.2151E-12	711.053E-3	-23.8811E-3
2.41871E-3	85.6930E-12	719.860E-3	-9.05027E-3	86.0085E-12	703.427E-3	-15.2475E-3
2.41371E-3	84.7516E-12	720.120E-3	-10.4534E-3	85.2588E-12	693.312E-3	-15.1822E-3
2.40870E-3	84.4774E-12	708.182E-3	-10.4239E-3	84.8925E-12	701.032E-3	-4.14389E-3
2.40370E-3	83.8318E-12	698.922E-3	-7.71216E-3	84.4518E-12	709.723E-3	-9.12850E-3
2.39870E-3	83.6349E-12	691.333E-3	1.57066E-3	83.9730E-12	707.696E-3	-20.3163E-3
2.39370E-3	82.8137E-12	682.811E-3	14.1779E-3	83.1788E-12	706.190E-3	-8.32717E-3
2.38869E-3	82.8474E-12	689.041E-3	13.9334E-3	82.7599E-12	702.053E-3	-2.81906E-3
2.38369E-3	82.3699E-12	701.856E-3	16.1105E-3	82.3689E-12	699.977E-3	-23.4087E-3
2.37869E-3	82.3052E-12	705.280E-3	8.53162E-3	82.5279E-12	702.069E-3	-44.4279E-3
2.37369E-3	81.8885E-12	707.323E-3	-10.8205E-3	82.3097E-12	715.315E-3	-43.9309E-3
2.36868E-3	81.9194E-12	720.670E-3	-13.6876E-3	82.2419E-12	718.992E-3	-14.8939E-3
2.36368E-3	81.9571E-12	744.243E-3	-3.35608E-3	82.2337E-12	710.119E-3	11.5892E-3
2.35868E-3	81.8618E-12	759.652E-3	-6.47173E-3	82.3611E-12	716.057E-3	1.50100E-3
2.35368E-3	82.0264E-12	744.535E-3	-22.9814E-3	82.3456E-12	719.181E-3	-22.1462E-3
2.34867E-3	81.9273E-12	719.625E-3	-28.9017E-3	82.2928E-12	713.362E-3	-25.5265E-3
2.34367E-3	81.9205E-12	713.931E-3	-33.0903E-3	82.1368E-12	703.695E-3	-13.1925E-3
2.33867E-3	81.3974E-12	712.124E-3	-38.4908E-3	81.8116E-12	699.296E-3	-7.76746E-3
2.33367E-3	81.4313E-12	710.700E-3	-35.6112E-3	81.9305E-12	705.945E-3	-16.0237E-3
2.32866E-3	80.8021E-12	720.024E-3	-35.2967E-3	81.3444E-12	714.694E-3	-28.2121E-3
2.32366E-3	80.3549E-12	729.639E-3	-31.5168E-3	80.8128E-12	732.610E-3	-23.4690E-3
2.31866E-3	79.8102E-12	729.038E-3	-26.6832E-3	80.2533E-12	743.328E-3	-11.2976E-3
2.31366E-3	79.5447E-12	717.000E-3	-25.2854E-3	79.9930E-12	724.023E-3	-10.1908E-3
2.30865E-3	79.2575E-12	713.881E-3	-18.2920E-3	79.4433E-12	700.565E-3	-12.3798E-3
2.30365E-3	78.5346E-12	726.506E-3	-20.2307E-3	79.0021E-12	707.669E-3	-8.99738E-3
2.29865E-3	78.0167E-12	721.771E-3	-25.6380E-3	78.5944E-12	727.418E-3	2.27183E-3
2.29365E-3	78.0488E-12	709.393E-3	-14.6850E-3	78.1136E-12	732.399E-3	13.4411E-3
2.28864E-3	77.8963E-12	703.006E-3	-5.17320E-3	78.0431E-12	735.486E-3	13.3267E-3
2.28364E-3	77.3179E-12	696.244E-3	-19.3871E-3	77.9485E-12	734.446E-3	-9.16765E-3
2.27864E-3	77.1403E-12	698.802E-3	-27.5127E-3	77.7838E-12	718.232E-3	-32.7650E-3
2.27364E-3	76.9083E-12	714.595E-3	-10.9773E-3	77.6148E-12	714.909E-3	-29.7194E-3
2.26863E-3	76.8562E-12	728.778E-3	214.774E-6	77.4135E-12	721.609E-3	-12.2361E-3
2.26363E-3	76.3460E-12	729.166E-3	-1.14274E-3	77.6464E-12	720.137E-3	-2.65560E-3
2.25863E-3	76.5697E-12	729.666E-3	-3.32363E-3	76.9736E-12	728.686E-3	-8.30654E-3
2.25363E-3	76.5217E-12	727.572E-3	-179.322E-6	76.4196E-12	729.396E-3	-27.0492E-3
2.24862E-3	76.5194E-12	719.155E-3	-5.17432E-3	75.9730E-12	720.742E-3	-44.3776E-3
2.24362E-3	76.3362E-12	715.269E-3	-15.0634E-3	75.8711E-12	725.832E-3	-43.6070E-3
2.23862E-3	76.3148E-12	715.850E-3	-14.8295E-3	75.0088E-12	729.850E-3	-33.2136E-3
2.23362E-3	76.5937E-12	719.636E-3	-12.9505E-3	74.6871E-12	730.000E-3	-25.6791E-3
2.22861E-3	76.3060E-12	729.557E-3	-16.3116E-3	74.1259E-12	739.510E-3	-21.8530E-3
2.22361E-3	76.5839E-12	743.722E-3	-20.1305E-3	74.3552E-12	741.232E-3	-25.7314E-3
2.21861E-3	75.8945E-12	754.274E-3	-11.5993E-3	73.8195E-12	730.520E-3	-28.6023E-3
2.21361E-3	76.1064E-12	751.471E-3	-7.33586E-3	73.6006E-12	732.724E-3	-19.4314E-3
2.20860E-3	75.4839E-12	747.805E-3	-14.9032E-3	73.6235E-12	738.973E-3	-11.3189E-3
2.20360E-3	75.5638E-12	754.619E-3	-20.7064E-3	73.5271E-12	741.421E-3	-13.7700E-3
2.19860E-3	75.0929E-12	762.640E-3	-26.5945E-3	73.8546E-12	745.391E-3	-20.0913E-3
2.19360E-3	74.6679E-12	767.546E-3	-30.2810E-3	73.9340E-12	744.844E-3	-21.4214E-3
2.18859E-3	74.2377E-12	756.219E-3	-27.8118E-3	74.0164E-12	747.656E-3	-16.2904E-3
2.18359E-3	73.7734E-12	743.620E-3	-23.4692E-3	74.0675E-12	754.876E-3	-13.1249E-3
2.17859E-3	73.5764E-12	747.322E-3	-15.0000E-3	74.0340E-12	753.940E-3	-15.3702E-3
2.17359E-3	72.8570E-12	740.694E-3	-10.6819E-3	73.8128E-12	748.597E-3	-22.0060E-3
2.16858E-3	72.5311E-12	735.637E-3	-16.5266E-3	73.4986E-12	745.809E-3	-26.8848E-3
2.16358E-3	72.0960E-12	749.485E-3	-20.5062E-3	72.7071E-12	731.589E-3	-26.1251E-3
2.15858E-3	72.1246E-12	759.192E-3	-20.2676E-3	72.0782E-12	717.005E-3	-22.8864E-3
2.15358E-3	71.5336E-12	758.739E-3	-20.5417E-3	71.6885E-12	712.543E-3	-24.8730E-3
2.14857E-3	71.5697E-12	758.781E-3	-20.8053E-3	70.9886E-12	710.188E-3	-34.0160E-3
2.14357E-3	71.0316E-12	759.494E-3	-9.53292E-3	70.3383E-12	728.923E-3	-29.2404E-3
2.13857E-3	71.2959E-12	752.626E-3	4.22550E-3	69.9475E-12	751.237E-3	-9.06637E-3
2.13357E-3	71.0862E-12	740.891E-3	-404.864E-6	69.5668E-12	750.040E-3	6.40001E-3
2.12856E-3	71.3779E-12	749.550E-3	-11.5018E-3	69.5120E-12	746.031E-3	644.750E-6
2.12356E-3	71.1454E-12	764.062E-3	-12.8833E-3	69.1546E-12	743.689E-3	-23.0955E-3
2.11856E-3	70.8507E-12	756.363E-3	-12.8471E-3	69.1981E-12	744.382E-3	-45.4942E-3
2.11356E-3	70.9335E-12	759.244E-3	-24.0495E-3	69.4259E-12	747.652E-3	-44.2039E-3
2.10855E-3	70.7535E-12	765.796E-3	-44.0052E-3	69.3961E-12	746.405E-3	-17.4267E-3
2.10355E-3	70.4833E-12	756.997E-3	-57.7542E-3	69.6381E-12	741.674E-3	-789.882E-6
2.09855E-3	70.0198E-12	765.750E-3	-50.9307E-3	69.5246E-12	742.378E-3	-14.4400E-3
2.09355E-3	69.7621E-12	767.475E-3	-28.2775E-3	69.7064E-12	754.129E-3	-23.8376E-3
2.08854E-3	69.0562E-12	754.046E-3	-9.56764E-3	69.1564E-12	759.128E-3	-9.62428E-3
2.08354E-3	68.7420E-12	760.984E-3	-2.05940E-3	69.1931E-12	754.222E-3	1.72423E-3
2.07854E-3	68.2213E-12	771.895E-3	3.90602E-3	68.6081E-12	739.631E-3	1.42126E-3
2.07354E-3	67.9520E-12	777.285E-3	9.57601E-3	67.8191E-12	727.061E-3	-8.17889E-3
2.06853E-3	67.4131E-12	776.394E-3	4.61933E-3	67.4098E-12	738.336E-3	-9.12836E-3
2.06353E-3	67.1266E-12	759.428E-3	-1.72575E-3	66.6938E-12	753.047E-3	5.63685E-3
2.05853E-3	67.1095E-12	740.794E-3	859.636E-6	66.2003E-12	744.453E-3	11.6155E-3
2.05353E-3	66.5568E-12	756.430E-3	2.19358E-3	65.4144E-12	732.718E-3	-2.91396E-3
2.04852E-3	66.2001E-12	790.714E-3	-4.93693E-3	65.0479E-12	746.640E-3	-23.8341E-3
2.04352E-3	66.0976E-12	796.205E-3	-15.9121E-3	64.5779E-12	762.467E-3	-30.5235E-3
2.03852E-3	66.2269E-12	787.553E-3	-25.4502E-3	64.4568E-12	758.069E-3	-11.5541E-3
2.03352E-3	66.0002E-12	780.063E-3	-18.2059E-3	64.3415E-12	747.042E-3	15.2733E-3
2.02851E-3	65.8032E-12	771.234E-3	1.87419E-3	64.2185E-12	740.271E-3	16.8020E-3
2.02351E-3	65.8902E-12	771.685E-3	5.15453E-3	64.3707E-12	750.683E-3	-13.5662E-3
2.01851E-3	65.8070E-12	770.363E-3	-16.4901E-3	64.2258E-12	787.730E-3	-37.6668E-3
2.01351E-3	65.7230E-12	761.612E-3	-29.3331E-3	64.5061E-12	806.846E-3	-26.4552E-3
2.00850E-3	65.3111E-12	759.273E-3	-20.2365E-3	64.4282E-12	786.324E-3	-7.06172E-3
2.00350E-3	65.1258E-12	762.581E-3	-13.9309E-3	64.1960E-12	769.795E-3	-10.9305E-3
1.99850E-3	64.5332E-12	776.746E-3	-12.5983E-3	63.9922E-12	774.795E-3	-19.0452E-3
1.99350E-3	64.0251E-12	792.613E-3	-5.88856E-3	64.2414E-12	785.328E-3	-16.1213E-3
1.98849E-3	63.4649E-12	789.660E-3	-9.40809E-3	63.7037E-12	787.738E-3	-20.0015E-3
1.98349E-3	62.9849E-12	790.656E-3	-19.9807E-3	63.0433E-12	786.273E-3	-20.2583E-3
1.97849E-3	62.3225E-12	802.929E-3	-9.90906E-3	62.5512E-12	782.953E-3	-15.3516E-3
1.97349E-3	61.8875E-12	798.065E-3	9.24868E-3	62.2454E-12	777.544E-3	-24.6444E-3
1.96848E-3	61.3392E-12	782.791E-3	6.10116E-3	61.9206E-12	782.992E-3	-29.9295E-3
1.96348E-3	61.0969E-12	778.339E-3	-19.3119E-3	61.1233E-12	794.632E-3	-17.4916E-3
1.95848E-3	60.8273E-12	782.084E-3	-37.7777E-3	60.9542E-12	794.416E-3	-13.2456E-3
1.95348E-3	60.7057E-12	778.617E-3	-39.0647E-3	61.2250E-12	793.434E-3	-23.6680E-3
1.94847E-3	60.5725E-12	763.596E-3	-26.6523E-3	61.1308E-12	808.343E-3	-25.0276E-3
1.94347E-3	60.6697E-12	763.183E-3	-8.10999E-3	61.0474E-12	827.451E-3	-14.6025E-3
1.93847E-3	60.4014E-12	778.561E-3	-7.72630E-3	61.1578E-12	825.132E-3	-7.41559E-3
1.93347E-3	60.3861E-12	791.955E-3	-22.6924E-3	61.3997E-12	815.056E-3	-3.57713E-3
1.92846E-3	60.3598E-12	803.815E-3	-29.9619E-3	61.1394E-12	822.010E-3	-1.11328E-3
1.92346E-3	60.4680E-12	797.628E-3	-25.8401E-3	60.9991E-12	829.225E-3	-6.93897E-3
1.91846E-3	60.1836E-12	783.585E-3	-17.6237E-3	60.8618E-12	831.130E-3	-16.6582E-3
1.91346E-3	59.9453E-12	796.379E-3	-10.9885E-3	60.4639E-12	842.263E-3	-25.1063E-3
1.90845E-3	59.7649E-12	805.500E-3	-11.3863E-3	60.1841E-12	847.146E-3	-26.3214E-3
1.90345E-3	59.5962E-12	804.600E-3	-17.0984E-3	59.6358E-12	841.605E-3	-3.64551E-3
1.89845E-3	59.2420E-12	812.130E-3	-22.9943E-3	59.0593E-12	837.570E-3	686.323E-6
1.89345E-3	58.8748E-12	809.747E-3	-30.9312E-3	58.5146E-12	826.621E-3	-17.1743E-3
1.88844E-3	58.3395E-12	812.161E-3	-40.2145E-3	57.8490E-12	820.502E-3	-19.7013E-3
1.88344E-3	57.9521E-12	823.255E-3	-46.5141E-3	57.5569E-12	821.753E-3	-28.1812E-3
1.87844E-3	57.5634E-12	824.772E-3	-34.7108E-3	56.8799E-12	816.804E-3	-34.9506E-3
1.87344E-3	57.0606E-12	819.165E-3	-11.0503E-3	56.5655E-12	810.576E-3	-33.3452E-3
1.86843E-3	56.7196E-12	815.378E-3	2.27527E-3	55.9497E-12	815.451E-3	-34.2121E-3
1.86343E-3	56.3752E-12	813.940E-3	-3.72702E-3	55.9787E-12	845.662E-3	-27.3827E-3
1.85843E-3	56.3653E-12	808.092E-3	-17.0216E-3	55.6994E-12	867.875E-3	-25.7809E-3
1.85343E-3	55.9950E-12	814.259E-3	-21.8164E-3	55.5752E-12	852.690E-3	-31.9630E-3
1.84842E-3	55.7824E-12	833.472E-3	-18.8517E-3	55.6086E-12	841.079E-3	-28.7792E-3
1.84342E-3	55.4987E-12	844.011E-3	-16.0933E-3	55.5129E-12	857.004E-3	-26.2118E-3
1.83842E-3	55.3740E-12	847.941E-3	-17.1768E-3	55.7646E-12	876.883E-3	-28.1034E-3
1.83342E-3	55.2616E-12	848.101E-3	-23.2125E-3	55.4896E-12	882.428E-3	-23.2549E-3
1.82841E-3	55.2648E-12	840.158E-3	-28.2460E-3	55.6835E-12	869.406E-3	-5.84086E-3
1.82341E-3	55.0713E-12	839.901E-3	-24.7623E-3	54.9969E-12	858.187E-3	-2.60955E-3
1.81841E-3	54.7317E-12	854.539E-3	-16.2257E-3	54.9852E-12	860.733E-3	-24.9855E-3
1.81341E-3	54.6948E-12	868.531E-3	-12.3333E-3	54.4653E-12	858.872E-3	-32.4438E-3
1.80840E-3	54.4726E-12	875.823E-3	-14.5853E-3	54.0747E-12	857.295E-3	-18.3823E-3
1.80340E-3	54.2728E-12	875.451E-3	-11.2816E-3	53.3859E-12	859.316E-3	-9.50577E-3
1.79840E-3	53.7717E-12	868.964E-3	-8.58488E-3	52.9902E-12	870.003E-3	-5.66585E-3
1.79340E-3	53.5778E-12	868.461E-3	-19.7985E-3	52.3454E-12	879.905E-3	-2.35467E-3
1.78839E-3	53.2897E-12	878.405E-3	-34.3931E-3	51.9718E-12	883.728E-3	-3.82267E-3
1.78339E-3	52.8487E-12	887.103E-3	-35.7370E-3	51.6805E-12	895.484E-3	-7.82178E-3
1.77839E-3	52.3050E-12	882.778E-3	-24.7777E-3	51.0545E-12	894.091E-3	-18.7036E-3
1.77339E-3	51.9810E-12	875.459E-3	-16.7074E-3	50.8800E-12	882.692E-3	-20.4726E-3
1.76838E-3	51.7118E-12	884.097E-3	-15.4145E-3	50.7282E-12	870.902E-3	-4.44866E-3
1.76338E-3	51.4295E-12	900.560E-3	-7.49414E-3	50.5323E-12	868.060E-3	-1.56993E-3
1.75838E-3	50.9198E-12	908.566E-3	-943.133E-6	50.4476E-12	882.306E-3	-7.08532E-3
1.75338E-3	50.6835E-12	901.370E-3	845.520E-6	50.2016E-12	893.327E-3	-334.542E-6
1.74837E-3	50.5888E-12	891.581E-3	-3.42041E-3	50.1462E-12	904.349E-3	-3.62885E-3
1.74337E-3	50.2517E-12	900.317E-3	-14.8038E-3	49.8102E-12	907.270E-3	-18.5960E-3
1.73837E-3	49.6647E-12	916.114E-3	-20.2673E-3	49.5101E-12	901.145E-3	-19.5708E-3
1.73337E-3	49.3036E-12	912.917E-3	-18.1363E-3	49.0628E-12	910.756E-3	-9.94455E-3
1.72836E-3	49.1221E-12	898.851E-3	-11.0428E-3	48.7453E-12	906.690E-3	-8.29150E-3
1.72336E-3	48.7851E-12	896.994E-3	-6.59917E-3	48.2448E-12	879.059E-3	-20.6887E-3
1.71836E-3	48.5923E-12	899.552E-3	-16.4274E-3	47.9730E-12	884.665E-3	-36.2863E-3
1.71336E-3	48.2691E-12	899.630E-3	-28.2626E-3	47.2248E-12	915.973E-3	-27.3188E-3
1.70835E-3	48.2071E-12	902.426E-3	-23.7182E-3	46.7627E-12	923.779E-3	-2.22129E-3
1.70335E-3	47.6603E-12	905.847E-3	-17.3145E-3	46.7557E-12	916.292E-3	-915.876E-6
1.69835E-3	47.3218E-12	911.780E-3	-14.5934E-3	46.5420E-12	920.108E-3	-10.7646E-3
1.69335E-3	47.1157E-12	926.876E-3	-7.82491E-3	46.0855E-12	935.920E-3	-14.6050E-3
1.68834E-3	46.6909E-12	943.414E-3	-9.28241E-3	45.8652E-12	953.483E-3	-20.8624E-3
1.68334E-3	46.4537E-12	955.948E-3	-23.2253E-3	45.8981E-12	972.877E-3	-14.4333E-3
1.67834E-3	46.0389E-12	961.935E-3	-31.6620E-3	45.7815E-12	979.964E-3	-5.41603E-3
1.67334E-3	45.6675E-12	957.232E-3	-28.4579E-3	45.4148E-12	970.479E-3	-15.2887E-3
1.66833E-3	45.2469E-12	961.179E-3	-26.6406E-3	45.1797E-12	966.824E-3	-19.2263E-3
1.66333E-3	45.0205E-12	978.214E-3	-22.8074E-3	44.9164E-12	981.983E-3	-15.4093E-3
1.65833E-3	44.4071E-12	982.304E-3	-18.4774E-3	44.5454E-12	997.293E-3	-14.2273E-3
1.65333E-3	44.1252E-12	963.784E-3	-13.3633E-3	44.0048E-12	990.237E-3	-2.61588E-3
1.64832E-3	43.6192E-12	957.808E-3	-3.33085E-3	43.6319E-12	970.500E-3	10.5755E-3
1.64332E-3	43.0902E-12	969.220E-3	2.42052E-3	43.1569E-12	972.667E-3	124.834E-6
1.63832E-3	42.7741E-12	969.285E-3	-6.03051E-3	42.6584E-12	998.961E-3	-21.9363E-3
1.63332E-3	42.6598E-12	966.511E-3	-25.0408E-3	42.1542E-12	1.00820E+0	-22.6514E-3
1.62831E-3	42.5154E-12	967.445E-3	-29.9987E-3	42.1234E-12	993.540E-3	-17.0960E-3
1.62331E-3	42.1545E-12	969.246E-3	-23.7263E-3	41.5165E-12	982.139E-3	-11.2021E-3
1.61831E-3	41.8529E-12	971.363E-3	-20.1012E-3	41.2129E-12	986.386E-3	1.11482E-3
1.61331E-3	41.7890E-12	969.473E-3	-17.9130E-3	40.7959E-12	1.00617E+0	5.81066E-3
1.60830E-3	41.5454E-12	969.703E-3	-22.8260E-3	40.9926E-12	1.02484E+0	12.6906E-3
1.60330E-3	41.3384E-12	984.492E-3	-27.3484E-3	40.7053E-12	1.03425E+0	14.5881E-3
1.59830E-3	40.9408E-12	999.149E-3	-16.0207E-3	40.5079E-12	1.03848E+0	-4.87841E-3
1.59330E-3	40.7905E-12	1.00777E+0	-11.1995E-3	40.3799E-12	1.04266E+0	-20.0443E-3
1.58829E-3	40.4981E-12	1.01860E+0	-18.1133E-3	40.2306E-12	1.05160E+0	-20.6600E-3
1.58329E-3	40.0270E-12	1.01829E+0	-15.1614E-3	40.0714E-12	1.06057E+0	-19.4755E-3
1.57829E-3	39.6502E-12	1.01743E+0	-14.6572E-3	39.5841E-12	1.05878E+0	-17.1748E-3
1.57329E-3	39.1916E-12	1.03941E+0	-16.9582E-3	39.3658E-12	1.05053E+0	-20.8459E-3
1.56828E-3	38.8803E-12	1.05590E+0	-12.0345E-3	38.8299E-12	1.04563E+0	-24.5978E-3
1.56328E-3	38.2662E-12	1.05442E+0	-14.3046E-3	38.4179E-12	1.04059E+0	-22.3249E-3
1.55828E-3	37.6750E-12	1.05797E+0	-25.1219E-3	37.7390E-12	1.04860E+0	-21.3711E-3
1.55328E-3	37.1798E-12	1.06252E+0	-33.0850E-3	37.3458E-12	1.05586E+0	-17.1318E-3
1.54827E-3	36.7235E-12	1.05682E+0	-30.9133E-3	36.8913E-12	1.04157E+0	-9.87930E-3
1.54327E-3	36.2423E-12	1.05000E+0	-15.9316E-3	36.4249E-12	1.03643E+0	-9.56815E-3
1.53827E-3	35.8582E-12	1.04419E+0	-2.42303E-3	36.0945E-12	1.05467E+0	-27.3038E-3
1.53327E-3	35.6701E-12	1.02757E+0	-5.37112E-3	35.5589E-12	1.07874E+0	-40.7147E-3
1.52826E-3	35.2569E-12	1.02101E+0	-16.8589E-3	35.4084E-12	1.08905E+0	-29.0575E-3
1.52326E-3	34.8083E-12	1.03921E+0	-20.5199E-3	34.9081E-12	1.07967E+0	-14.3293E-3
1.51826E-3	34.7693E-12	1.05089E+0	-22.5721E-3	34.8720E-12	1.07571E+0	-8.03576E-3
1.51326E-3	34.5251E-12	1.05491E+0	-30.4783E-3	34.5062E-12	1.08296E+0	-9.68630E-3
1.50825E-3	34.1053E-12	1.06414E+0	-28.4140E-3	34.3887E-12	1.09574E+0	-17.3938E-3
1.50325E-3	33.9987E-12	1.06456E+0	-10.8728E-3	34.1101E-12	1.10627E+0	-9.45979E-3
1.49825E-3	33.9268E-12	1.06385E+0	1.04202E-3	33.9729E-12	1.10137E+0	4.53765E-3
1.49325E-3	33.6975E-12	1.07169E+0	-3.16630E-3	33.7614E-12	1.10124E+0	-8.18231E-3
1.48824E-3	33.3171E-12	1.07966E+0	-6.28735E-3	33.4086E-12	1.10950E+0	-29.7771E-3
1.48324E-3	32.9940E-12	1.09010E+0	-2.66480E-3	33.0507E-12	1.10246E+0	-34.5934E-3
1.47824E-3	32.7192E-12	1.09992E+0	-8.66414E-3	32.4405E-12	1.08921E+0	-31.3239E-3
1.47324E-3	32.2992E-12	1.09377E+0	-21.1862E-3	32.1842E-12	1.08946E+0	-21.0794E-3
1.46823E-3	31.8078E-12	1.08248E+0	-20.5796E-3	31.4461E-12	1.07837E+0	-12.4734E-3
1.46323E-3	31.1750E-12	1.08746E+0	-4.73403E-3	30.9236E-12	1.05604E+0	-21.2241E-3
1.45823E-3	30.8049E-12	1.09661E+0	2.87581E-3	30.2252E-12	1.05357E+0	-26.1204E-3
1.45323E-3	30.3786E-12	1.09491E+0	-11.6758E-3	29.8055E-12	1.06013E+0	-17.3138E-3
1.44822E-3	29.8334E-12	1.08790E+0	-21.7238E-3	29.3971E-12	1.05780E+0	-12.4460E-3
1.44322E-3	29.2736E-12	1.08511E+0	-12.7793E-3	28.8085E-12	1.05592E+0	-16.4754E-3
1.43822E-3	28.9272E-12	1.08708E+0	-7.78285E-3	28.2927E-12	1.05594E+0	-20.5297E-3
1.43322E-3	28.6104E-12	1.08054E+0	-12.2260E-3	28.0930E-12	1.04979E+0	-17.7461E-3
1.42821E-3	28.1905E-12	1.07032E+0	-15.9010E-3	27.8398E-12	1.04929E+0	-15.8339E-3
1.42321E-3	27.8510E-12	1.06288E+0	-20.5517E-3	27.4100E-12	1.05746E+0	-16.9926E-3
1.41821E-3	27.6465E-12	1.05622E+0	-26.8502E-3	27.1379E-12	1.05806E+0	-11.3015E-3
1.41321E-3	27.3131E-12	1.06577E+0	-26.9641E-3	26.9056E-12	1.05553E+0	-10.8361E-3
1.40820E-3	26.9786E-12	1.08301E+0	-28.7574E-3	26.8805E-12	1.06510E+0	-14.0085E-3
1.40320E-3	26.7946E-12	1.07753E+0	-27.3725E-3	26.5625E-12	1.07387E+0	-10.9768E-3
1.39820E-3	26.5907E-12	1.05838E+0	-17.4156E-3	26.3076E-12	1.07610E+0	-14.9727E-3
1.39320E-3	26.2574E-12	1.05026E+0	-17.2714E-3	25.9631E-12	1.06874E+0	-27.8277E-3
1.38819E-3	25.9083E-12	1.05896E+0	-23.3311E-3	25.7911E-12	1.05225E+0	-38.4508E-3
1.38319E-3	25.7488E-12	1.07146E+0	-22.5345E-3	25.2725E-12	1.03948E+0	-32.3935E-3
1.37819E-3	25.4324E-12	1.07069E+0	-20.3625E-3	25.1348E-12	1.03394E+0	-21.8310E-3
1.37319E-3	24.8921E-12	1.05875E+0	-18.0289E-3	24.6635E-12	1.03029E+0	-16.1312E-3
1.36818E-3	24.5656E-12	1.04530E+0	-7.11080E-3	24.3315E-12	1.01692E+0	-9.14628E-3
1.36318E-3	24.1513E-12	1.03506E+0	867.327E-6	23.9649E-12	1.00487E+0	-11.8087E-3
1.35818E-3	23.9604E-12	1.03558E+0	-3.15730E-3	23.6753E-12	992.102E-3	-18.2281E-3
1.35318E-3	23.4558E-12	1.03614E+0	-7.25895E-3	23.3718E-12	988.287E-3	-10.1545E-3
1.34817E-3	23.0053E-12	1.02118E+0	-16.5631E-3	22.8889E-12	993.440E-3	3.83874E-3
1.34317E-3	22.6428E-12	1.00720E+0	-31.0387E-3	22.6160E-12	975.359E-3	-1.08614E-3
1.33817E-3	22.4910E-12	1.00582E+0	-29.1437E-3	22.3955E-12	955.793E-3	-23.4019E-3
1.33317E-3	22.1418E-12	999.384E-3	-24.4189E-3	22.2640E-12	956.580E-3	-41.0599E-3
1.32816E-3	21.6940E-12	986.381E-3	-35.1062E-3	21.6985E-12	952.193E-3	-38.8577E-3
1.32316E-3	21.3774E-12	975.088E-3	-35.6381E-3	21.3603E-12	934.085E-3	-17.0065E-3
1.31816E-3	21.0678E-12	962.180E-3	-24.8097E-3	21.1144E-12	909.284E-3	-749.346E-6
1.31316E-3	20.8203E-12	958.670E-3	-23.2925E-3	20.9492E-12	887.155E-3	-9.90181E-3
1.30815E-3	20.4065E-12	959.321E-3	-21.9044E-3	20.5398E-12	876.221E-3	-25.9629E-3
1.30315E-3	20.2778E-12	945.165E-3	-18.4250E-3	20.1478E-12	870.857E-3	-29.7001E-3
1.29815E-3	19.8520E-12	924.001E-3	-21.9192E-3	19.9119E-12	857.650E-3	-26.2293E-3
1.29315E-3	19.6164E-12	912.413E-3	-20.6142E-3	19.5469E-12	839.102E-3	-19.0947E-3
1.28814E-3	19.3279E-12	898.199E-3	-12.9437E-3	19.4312E-12	824.042E-3	-15.6412E-3
1.28314E-3	19.1004E-12	879.847E-3	-10.5169E-3	18.8800E-12	820.722E-3	-24.7036E-3
1.27814E-3	18.6632E-12	874.112E-3	-14.9819E-3	18.5845E-12	828.861E-3	-33.7192E-3
1.27314E-3	18.4001E-12	856.660E-3	-30.5121E-3	18.2970E-12	823.322E-3	-30.6821E-3
1.26813E-3	18.0515E-12	831.411E-3	-31.7318E-3	18.1276E-12	797.175E-3	-27.0303E-3
1.26313E-3	17.8056E-12	830.401E-3	-11.2058E-3	17.8831E-12	769.427E-3	-26.0512E-3
1.25813E-3	17.5415E-12	824.514E-3	116.961E-6	17.5087E-12	749.210E-3	-22.8160E-3
1.25313E-3	17.1276E-12	804.064E-3	-4.13579E-3	17.3055E-12	745.714E-3	-18.2589E-3
1.24812E-3	16.9300E-12	798.066E-3	-12.2062E-3	17.0440E-12	749.169E-3	-8.99092E-3
1.24312E-3	16.6872E-12	786.176E-3	-16.5754E-3	16.8480E-12	738.181E-3	-5.22447E-3
1.23812E-3	16.4358E-12	760.360E-3	-20.8418E-3	16.6291E-12	710.451E-3	-15.5097E-3
1.23312E-3	16.1029E-12	746.859E-3	-15.6583E-3	16.3095E-12	682.486E-3	-21.1643E-3
1.22811E-3	15.9448E-12	738.010E-3	-7.98093E-3	16.0972E-12	668.922E-3	-17.8783E-3
1.22311E-3	15.8660E-12	723.552E-3	-12.1525E-3	15.8705E-12	659.054E-3	-10.7305E-3
1.21811E-3	15.5266E-12	715.913E-3	-11.4823E-3	15.5893E-12	646.415E-3	2.14024E-3
1.21311E-3	15.3148E-12	705.832E-3	1.62784E-3	15.1002E-12	631.518E-3	272.260E-6
1.20810E-3	15.0984E-12	681.277E-3	8.58763E-3	14.9023E-12	612.527E-3	-20.9767E-3
1.20310E-3	15.0198E-12	672.534E-3	-148.062E-6	14.7825E-12	589.385E-3	-28.9820E-3
1.19810E-3	14.7231E-12	671.464E-3	-4.37527E-3	14.5127E-12	572.471E-3	-15.9710E-3
1.19310E-3	14.5033E-12	645.571E-3	2.89791E-3	14.3568E-12	566.090E-3	-5.57482E-3
1.18809E-3	14.1967E-12	616.271E-3	3.24520E-3	14.0563E-12	549.027E-3	-408.377E-6
1.18309E-3	14.1712E-12	591.780E-3	-3.48114E-3	13.9309E-12	519.353E-3	4.55689E-3
1.17809E-3	13.9733E-12	569.586E-3	-15.8599E-3	13.8297E-12	508.833E-3	-5.90026E-3
1.17309E-3	13.8260E-12	568.440E-3	-29.6763E-3	13.6618E-12	513.582E-3	-31.8400E-3
1.16808E-3	13.6825E-12	574.682E-3	-25.6121E-3	13.4608E-12	508.855E-3	-42.0165E-3
1.16308E-3	13.5003E-12	556.901E-3	-10.6843E-3	13.2700E-12	485.962E-3	-29.6760E-3
1.15808E-3	13.3452E-12	536.778E-3	1.53965E-3	13.3010E-12	459.019E-3	-15.5849E-3
1.15308E-3	13.1922E-12	536.400E-3	2.80770E-3	13.0946E-12	452.041E-3	-11.5527E-3
1.14807E-3	12.9873E-12	528.531E-3	-19.2175E-3	12.9488E-12	450.765E-3	-24.2206E-3
1.14307E-3	12.8780E-12	502.869E-3	-35.8364E-3	12.6589E-12	436.464E-3	-29.9998E-3
1.13807E-3	12.6441E-12	478.611E-3	-21.3396E-3	12.6212E-12	411.582E-3	-19.2646E-3
1.13307E-3	12.5122E-12	471.012E-3	-14.8856E-3	12.4653E-12	393.007E-3	-19.9335E-3
1.12806E-3	12.3357E-12	470.310E-3	-28.8958E-3	12.3210E-12	386.011E-3	-35.1970E-3
1.12306E-3	12.1260E-12	455.484E-3	-33.6578E-3	12.0192E-12	376.874E-3	-36.0315E-3
1.11806E-3	11.9216E-12	431.415E-3	-25.5641E-3	11.8416E-12	369.689E-3	-19.6293E-3
1.11306E-3	11.7613E-12	411.909E-3	-12.5151E-3	11.7756E-12	360.323E-3	-15.0986E-3
1.10805E-3	11.7060E-12	405.613E-3	-2.66336E-3	11.6359E-12	350.978E-3	-19.1719E-3
1.10305E-3	11.5065E-12	404.985E-3	-6.04013E-3	11.5799E-12	351.395E-3	-17.5102E-3
1.09805E-3	11.2998E-12	388.108E-3	-21.0764E-3	11.4139E-12	351.335E-3	-16.9977E-3
1.09305E-3	11.2154E-12	359.279E-3	-28.6912E-3	11.3381E-12	340.096E-3	-11.5373E-3
1.08804E-3	11.1299E-12	337.262E-3	-15.5365E-3	11.2886E-12	317.689E-3	-7.56747E-3
1.08304E-3	11.1393E-12	322.569E-3	-14.5481E-3	11.2113E-12	294.469E-3	-18.3174E-3
1.07804E-3	11.0372E-12	312.447E-3	-33.7924E-3	10.9837E-12	278.886E-3	-19.3627E-3
1.07304E-3	11.0310E-12	307.646E-3	-28.4898E-3	10.8335E-12	276.236E-3	-11.6504E-3
1.06803E-3	10.9847E-12	299.909E-3	-7.15231E-3	10.7798E-12	281.236E-3	-9.11359E-3
1.06303E-3	11.0378E-12	290.753E-3	-5.42467E-3	10.7831E-12	271.229E-3	-11.4178E-3
1.05803E-3	10.8586E-12	286.540E-3	-8.83763E-3	10.7135E-12	253.761E-3	-16.9665E-3
1.05303E-3	10.7391E-12	288.494E-3	-3.45703E-3	10.5775E-12	248.189E-3	-18.8965E-3
1.04802E-3	10.6819E-12	295.972E-3	-4.36199E-3	10.4216E-12	242.704E-3	-18.4494E-3
1.04302E-3	10.5959E-12	289.000E-3	-7.79135E-3	10.4489E-12	230.648E-3	-12.1112E-3
1.03802E-3	10.4303E-12	268.036E-3	-13.2806E-3	10.1988E-12	222.801E-3	-11.9565E-3
1.03302E-3	10.1655E-12	262.465E-3	-19.2629E-3	9.99637E-12	218.179E-3	-28.7367E-3
1.02801E-3	10.0094E-12	267.938E-3	-16.8551E-3	9.70229E-12	207.153E-3	-35.8134E-3
1.02301E-3	9.79042E-12	257.099E-3	-18.3277E-3	9.52160E-12	193.530E-3	-27.6606E-3
1.01801E-3	9.73568E-12	232.854E-3	-26.5208E-3	9.45249E-12	188.063E-3	-18.2006E-3
1.01301E-3	9.63025E-12	210.850E-3	-25.6368E-3	9.41698E-12	190.487E-3	-3.24742E-3
1.00800E-3	9.48292E-12	196.488E-3	-14.6598E-3	9.29703E-12	187.962E-3	-1.76424E-3
1.00300E-3	9.36177E-12	190.235E-3	-9.53313E-3	9.26825E-12	182.258E-3	-19.5354E-3
997.999E-6	9.26878E-12	182.126E-3	-9.39081E-3	9.31855E-12	177.452E-3	-23.3398E-3
992.997E-6	9.27233E-12	175.050E-3	-12.3059E-3	9.32620E-12	172.220E-3	-12.9910E-3
987.994E-6	9.17523E-12	171.990E-3	-24.0259E-3	9.28814E-12	166.583E-3	-1.49087E-3
982.991E-6	9.09101E-12	174.546E-3	-33.9162E-3	9.20501E-12	160.789E-3	1.41225E-3
977.989E-6	9.17957E-12	182.058E-3	-31.8028E-3	9.24089E-12	156.670E-3	-18.0805E-3
972.986E-6	9.13856E-12	180.492E-3	-24.3816E-3	9.24378E-12	150.233E-3	-35.1636E-3
967.984E-6	9.14761E-12	177.948E-3	-17.9284E-3	9.15027E-12	151.530E-3	-29.3588E-3
962.981E-6	9.02640E-12	172.387E-3	-15.7050E-3	9.06836E-12	169.094E-3	-18.7974E-3
957.979E-6	8.98748E-12	158.848E-3	-15.8994E-3	9.05372E-12	175.185E-3	-12.5823E-3
952.976E-6	8.98761E-12	158.418E-3	-13.7923E-3	9.10513E-12	166.066E-3	-6.46981E-3
947.974E-6	8.90182E-12	173.542E-3	-18.4498E-3	8.88739E-12	173.711E-3	-11.2888E-3
942.971E-6	8.81515E-12	172.896E-3	-23.4330E-3	8.81367E-12	180.653E-3	-29.7219E-3
937.969E-6	8.64044E-12	149.473E-3	-15.3194E-3	8.72750E-12	164.704E-3	-36.6169E-3
932.966E-6	8.57669E-12	131.841E-3	-8.92694E-3	8.64908E-12	155.798E-3	-32.6175E-3
927.964E-6	8.58342E-12	134.579E-3	-10.7995E-3	8.56677E-12	154.994E-3	-35.4371E-3
922.961E-6	8.53881E-12	151.562E-3	-15.2104E-3	8.51439E-12	152.116E-3	-26.3697E-3
917.959E-6	8.42262E-12	152.377E-3	-13.7446E-3	8.42317E-12	154.354E-3	-6.94454E-3
912.956E-6	8.28535E-12	128.696E-3	-7.18440E-3	8.35864E-12	151.920E-3	-1.84402E-3
907.954E-6	8.33205E-12	127.607E-3	-8.17957E-3	8.38366E-12	149.137E-3	-4.67155E-3
902.951E-6	8.23333E-12	148.251E-3	-15.9655E-3	8.37124E-12	156.397E-3	-4.96398E-3
897.949E-6	8.24888E-12	150.087E-3	-20.3007E-3	8.35190E-12	165.471E-3	-11.9786E-3
892.946E-6	8.17195E-12	145.284E-3	-11.1758E-3	8.22820E-12	161.476E-3	-20.6203E-3
887.944E-6	8.10466E-12	141.482E-3	4.57348E-3	8.24525E-12	154.816E-3	-16.2362E-3
882.941E-6	8.18618E-12	132.592E-3	6.55851E-3	8.16442E-12	152.734E-3	-5.31357E-3
877.939E-6	8.12413E-12	141.654E-3	-6.01622E-3	8.18873E-12	146.257E-3	-5.75122E-3
872.936E-6	8.07202E-12	164.033E-3	-11.6407E-3	8.00866E-12	148.302E-3	-13.2238E-3
867.934E-6	8.01926E-12	164.298E-3	-10.1851E-3	7.95333E-12	158.273E-3	-22.5788E-3
862.931E-6	8.03889E-12	157.008E-3	-12.6740E-3	8.01787E-12	157.605E-3	-20.1046E-3
857.929E-6	8.01020E-12	163.196E-3	-13.1599E-3	8.01417E-12	155.369E-3	-1.04501E-3
852.926E-6	7.91879E-12	164.542E-3	-11.6081E-3	7.81390E-12	158.207E-3	-7.92344E-3
847.924E-6	7.75066E-12	163.572E-3	-5.68769E-3	7.66428E-12	155.598E-3	-30.7667E-3
842.921E-6	7.69399E-12	166.322E-3	-756.923E-6	7.65953E-12	162.152E-3	-23.8273E-3
837.919E-6	7.69829E-12	164.835E-3	-9.89908E-3	7.66692E-12	177.286E-3	-12.5716E-3
832.916E-6	7.65689E-12	161.017E-3	-17.4904E-3	7.55242E-12	174.509E-3	-20.3834E-3
827.914E-6	7.52384E-12	164.150E-3	-16.4283E-3	7.43381E-12	172.699E-3	-29.0852E-3
822.911E-6	7.35278E-12	171.838E-3	-23.3615E-3	7.37583E-12	193.964E-3	-37.7473E-3
817.909E-6	7.39433E-12	176.610E-3	-26.4304E-3	7.32815E-12	204.839E-3	-32.2015E-3
812.906E-6	7.33531E-12	175.667E-3	-6.92714E-3	7.27742E-12	187.567E-3	-14.2093E-3
807.904E-6	7.29631E-12	173.654E-3	2.80351E-3	7.20784E-12	179.642E-3	-10.7153E-3
802.901E-6	7.21230E-12	183.826E-3	-6.07511E-3	7.14631E-12	183.705E-3	-15.2685E-3
797.899E-6	7.16035E-12	196.630E-3	-2.97348E-3	7.05446E-12	184.597E-3	-13.3777E-3
792.896E-6	7.14916E-12	192.437E-3	-5.52119E-3	7.09276E-12	189.174E-3	-12.0520E-3
787.894E-6	7.06387E-12	175.315E-3	-14.2821E-3	7.02003E-12	190.064E-3	-12.3463E-3
782.891E-6	6.99269E-12	170.202E-3	-1.84133E-3	6.90892E-12	189.312E-3	-11.9064E-3
777.889E-6	6.92199E-12	179.218E-3	7.99699E-3	6.79702E-12	191.097E-3	-18.7784E-3
772.886E-6	6.96619E-12	183.038E-3	448.835E-6	6.75502E-12	198.359E-3	-19.3836E-3
767.884E-6	6.90370E-12	185.380E-3	-10.6755E-3	6.77849E-12	210.525E-3	-9.12179E-3
762.881E-6	6.87644E-12	182.734E-3	-19.3975E-3	6.68146E-12	213.798E-3	-11.2273E-3
757.879E-6	6.77904E-12	173.721E-3	-12.0033E-3	6.54372E-12	205.290E-3	-22.8079E-3
752.876E-6	6.67955E-12	174.660E-3	3.60272E-3	6.50324E-12	196.637E-3	-30.4210E-3
747.874E-6	6.70672E-12	188.108E-3	288.304E-6	6.53971E-12	199.366E-3	-31.9449E-3
742.871E-6	6.60293E-12	203.832E-3	-18.2997E-3	6.46625E-12	206.866E-3	-30.6908E-3
737.869E-6	6.53611E-12	210.921E-3	-33.1837E-3	6.33591E-12	208.045E-3	-20.6633E-3
732.866E-6	6.38975E-12	206.729E-3	-35.7894E-3	6.19783E-12	209.430E-3	-14.7391E-3
727.864E-6	6.34096E-12	203.806E-3	-27.1699E-3	6.18508E-12	210.575E-3	-23.3241E-3
722.861E-6	6.35550E-12	213.660E-3	-19.8082E-3	6.19370E-12	201.751E-3	-23.6545E-3
717.859E-6	6.21210E-12	223.333E-3	-20.5018E-3	6.12928E-12	197.589E-3	-23.3034E-3
712.856E-6	6.05810E-12	224.670E-3	-25.1604E-3	5.95365E-12	205.988E-3	-26.2614E-3
707.854E-6	5.95918E-12	219.524E-3	-27.5029E-3	5.87193E-12	219.185E-3	-13.4719E-3
702.851E-6	5.94973E-12	213.308E-3	-14.1456E-3	5.87383E-12	233.497E-3	614.772E-6
697.849E-6	5.86148E-12	212.534E-3	407.253E-6	5.74914E-12	236.745E-3	422.233E-6
692.846E-6	5.78362E-12	214.727E-3	-4.42175E-3	5.65749E-12	229.986E-3	-3.93760E-3
687.844E-6	5.60486E-12	219.551E-3	-12.9681E-3	5.56122E-12	224.096E-3	-3.80281E-3
682.841E-6	5.56261E-12	223.935E-3	-13.4181E-3	5.54580E-12	223.655E-3	-764.849E-6
677.839E-6	5.53317E-12	222.174E-3	-10.0837E-3	5.47760E-12	226.777E-3	-7.08974E-3
672.836E-6	5.50655E-12	211.962E-3	-7.14804E-3	5.43099E-12	233.779E-3	-17.0358E-3
667.834E-6	5.35080E-12	210.278E-3	-15.0998E-3	5.29956E-12	242.846E-3	-22.4088E-3
662.831E-6	5.28193E-12	226.724E-3	-28.8785E-3	5.25509E-12	242.420E-3	-20.9136E-3
657.829E-6	5.21069E-12	233.221E-3	-22.9944E-3	5.26228E-12	235.355E-3	-14.2176E-3
652.826E-6	5.21744E-12	223.599E-3	-4.63374E-3	5.21723E-12	234.915E-3	-15.3683E-3
647.824E-6	5.12562E-12	221.416E-3	325.561E-6	5.13153E-12	229.427E-3	-21.8878E-3
642.821E-6	4.96690E-12	238.814E-3	-10.0074E-3	4.93815E-12	223.215E-3	-20.8451E-3
637.819E-6	4.94763E-12	247.624E-3	-18.9438E-3	4.86381E-12	229.908E-3	-15.7622E-3
632.816E-6	4.87720E-12	233.363E-3	-20.4488E-3	4.80683E-12	226.154E-3	-18.5974E-3
627.814E-6	4.83745E-12	229.514E-3	-21.1505E-3	4.74969E-12	218.267E-3	-19.5695E-3
622.811E-6	4.67047E-12	244.550E-3	-16.4575E-3	4.52143E-12	225.670E-3	-15.6782E-3
617.809E-6	4.56481E-12	252.422E-3	-7.32069E-3	4.40230E-12	225.902E-3	-24.4829E-3
612.806E-6	4.49679E-12	246.027E-3	-6.21126E-3	4.37109E-12	221.606E-3	-39.9237E-3
607.804E-6	4.44176E-12	245.439E-3	-17.4616E-3	4.38231E-12	224.762E-3	-41.2332E-3
602.801E-6	4.38184E-12	251.812E-3	-24.7022E-3	4.15985E-12	225.076E-3	-27.2938E-3
597.799E-6	4.19951E-12	246.054E-3	-16.1334E-3	4.04407E-12	224.208E-3	-13.1851E-3
592.796E-6	4.12962E-12	229.359E-3	-10.1338E-3	3.99916E-12	229.556E-3	-3.10194E-3
587.794E-6	4.08353E-12	221.080E-3	-6.25033E-3	3.99302E-12	246.124E-3	-3.27200E-3
582.791E-6	4.00080E-12	223.056E-3	4.20575E-3	3.88890E-12	247.163E-3	-9.38266E-3
577.789E-6	3.87762E-12	227.955E-3	8.36381E-3	3.77793E-12	234.353E-3	-15.4942E-3
572.786E-6	3.78930E-12	245.963E-3	6.50719E-3	3.71446E-12	237.333E-3	-27.4375E-3
567.784E-6	3.79740E-12	267.851E-3	-4.07860E-3	3.75678E-12	241.641E-3	-37.0628E-3
562.781E-6	3.78557E-12	264.016E-3	-23.1707E-3	3.68626E-12	241.487E-3	-36.1066E-3
557.779E-6	3.64033E-12	240.598E-3	-29.7968E-3	3.60119E-12	245.186E-3	-27.0856E-3
552.776E-6	3.53425E-12	224.085E-3	-23.5341E-3	3.47177E-12	240.116E-3	-12.9870E-3
547.774E-6	3.46351E-12	222.913E-3	-17.2724E-3	3.46583E-12	236.617E-3	-9.07406E-3
542.771E-6	3.43458E-12	225.114E-3	-14.6898E-3	3.41028E-12	244.949E-3	-17.8446E-3
537.769E-6	3.41506E-12	233.076E-3	-12.1115E-3	3.37216E-12	239.609E-3	-12.0106E-3
532.766E-6	3.23305E-12	245.471E-3	-10.3917E-3	3.20876E-12	226.718E-3	5.13530E-3
527.764E-6	3.15381E-12	233.216E-3	-9.32700E-3	3.12540E-12	217.658E-3	4.96684E-3
522.761E-6	3.10494E-12	213.739E-3	-4.42035E-3	3.06538E-12	198.232E-3	-10.0154E-3
517.759E-6	3.05242E-12	217.659E-3	-4.53408E-3	3.04468E-12	195.579E-3	-29.8642E-3
512.756E-6	2.93204E-12	220.862E-3	-17.6707E-3	2.93295E-12	216.884E-3	-54.2921E-3
507.754E-6	2.82034E-12	217.052E-3	-27.6242E-3	2.79739E-12	226.895E-3	-43.9088E-3
502.751E-6	2.74717E-12	216.633E-3	-22.5425E-3	2.70034E-12	220.656E-3	-5.94183E-3
497.749E-6	2.70953E-12	211.575E-3	-17.0322E-3	2.66740E-12	203.451E-3	-5.90375E-3
492.746E-6	2.65062E-12	208.618E-3	-22.7191E-3	2.66042E-12	184.186E-3	-20.4120E-3
487.744E-6	2.58174E-12	211.775E-3	-25.9291E-3	2.51690E-12	181.185E-3	-16.1557E-3
482.741E-6	2.44080E-12	211.620E-3	-15.7452E-3	2.34789E-12	199.088E-3	-13.4607E-3
477.739E-6	2.38051E-12	205.515E-3	-9.46455E-3	2.36497E-12	212.341E-3	-8.87088E-3
472.736E-6	2.39570E-12	199.209E-3	-13.8577E-3	2.37564E-12	209.296E-3	262.922E-6
467.734E-6	2.35806E-12	203.541E-3	-27.5252E-3	2.22986E-12	202.724E-3	1.75406E-3
462.731E-6	2.19570E-12	210.539E-3	-40.2258E-3	2.12699E-12	196.416E-3	-9.68327E-3
457.729E-6	2.09618E-12	198.573E-3	-34.7934E-3	2.08652E-12	192.768E-3	-15.7275E-3
452.726E-6	2.12419E-12	175.358E-3	-19.6223E-3	2.13541E-12	187.624E-3	-6.99118E-3
447.724E-6	2.11779E-12	173.037E-3	-8.29545E-3	2.02375E-12	178.248E-3	-3.33176E-3
442.721E-6	1.97733E-12	192.164E-3	-4.61886E-3	1.92456E-12	169.951E-3	-14.0651E-3
437.719E-6	1.85212E-12	200.555E-3	-7.37923E-3	1.79808E-12	176.325E-3	-29.9909E-3
432.716E-6	1.83624E-12	187.842E-3	-10.4419E-3	1.82981E-12	191.291E-3	-37.4385E-3
427.714E-6	1.80210E-12	176.728E-3	-13.3078E-3	1.79293E-12	186.086E-3	-26.4952E-3
422.711E-6	1.76682E-12	175.514E-3	-11.0370E-3	1.68894E-12	178.914E-3	-12.8580E-3
417.709E-6	1.63399E-12	178.457E-3	-5.99854E-3	1.58476E-12	171.817E-3	-14.7990E-3
412.706E-6	1.51952E-12	185.527E-3	-12.5316E-3	1.53606E-12	145.911E-3	-15.4903E-3
407.704E-6	1.52896E-12	188.241E-3	-17.9404E-3	1.54745E-12	140.234E-3	-4.46909E-3
402.701E-6	1.49535E-12	177.108E-3	-12.8243E-3	1.49554E-12	162.044E-3	-3.33490E-3
397.699E-6	1.38143E-12	164.645E-3	-4.38717E-3	1.39359E-12	166.599E-3	-2.80608E-3
392.696E-6	1.31305E-12	167.946E-3	-1.27453E-3	1.29325E-12	149.421E-3	-2.78321E-3
387.694E-6	1.24185E-12	176.442E-3	-11.6722E-3	1.27391E-12	140.165E-3	-16.2308E-3
382.691E-6	1.26355E-12	171.778E-3	-24.5733E-3	1.24940E-12	146.044E-3	-20.8737E-3
377.689E-6	1.25675E-12	148.975E-3	-33.0878E-3	1.23069E-12	150.975E-3	-17.9921E-3
372.686E-6	1.12805E-12	128.007E-3	-37.2336E-3	1.11149E-12	148.470E-3	-17.2108E-3
367.684E-6	1.09790E-12	126.758E-3	-33.0748E-3	1.01025E-12	135.953E-3	-13.0265E-3
362.681E-6	1.06153E-12	137.571E-3	-29.7659E-3	1.09589E-12	119.787E-3	-22.4419E-3
357.679E-6	1.06202E-12	141.289E-3	-33.2172E-3	1.08579E-12	114.472E-3	-49.8513E-3
352.676E-6	1.00412E-12	130.901E-3	-33.6459E-3	989.979E-15	110.399E-3	-56.6711E-3
347.674E-6	884.589E-15	122.569E-3	-24.4579E-3	863.541E-15	101.945E-3	-39.1924E-3
342.671E-6	890.344E-15	124.615E-3	-9.00402E-3	909.657E-15	101.906E-3	-28.0778E-3
337.669E-6	898.627E-15	127.100E-3	4.27862E-3	917.766E-15	103.291E-3	-17.3315E-3
332.666E-6	887.414E-15	123.163E-3	7.05954E-3	830.102E-15	98.8454E-3	-5.50928E-3
327.664E-6	764.062E-15	112.165E-3	1.70394E-3	699.801E-15	100.891E-3	-9.48656E-3
322.661E-6	695.729E-15	101.289E-3	-3.37825E-3	689.564E-15	108.343E-3	-16.4432E-3
317.659E-6	734.940E-15	98.5870E-3	-245.205E-6	713.089E-15	106.962E-3	-13.4509E-3
312.656E-6	719.925E-15	99.1556E-3	4.43923E-3	719.786E-15	103.028E-3	-6.66272E-3
307.654E-6	670.888E-15	93.7866E-3	-2.29630E-3	627.064E-15	102.189E-3	-6.93059E-3
302.651E-6	553.351E-15	85.9743E-3	-14.5808E-3	553.325E-15	98.0306E-3	-13.8915E-3
297.649E-6	542.792E-15	80.5693E-3	-16.7573E-3	579.492E-15	87.5799E-3	-12.8578E-3
292.646E-6	534.927E-15	83.8355E-3	-12.0704E-3	577.312E-15	68.7015E-3	-14.0315E-3
287.644E-6	585.935E-15	94.2897E-3	-14.8388E-3	551.049E-15	55.7527E-3	-23.4853E-3
282.641E-6	481.958E-15	96.0676E-3	-23.1440E-3	443.889E-15	60.0588E-3	-25.8295E-3
277.639E-6	432.153E-15	83.1051E-3	-26.2615E-3	432.685E-15	67.8277E-3	-21.5999E-3
272.636E-6	477.868E-15	76.1330E-3	-24.8952E-3	416.877E-15	70.2485E-3	-13.8974E-3
267.634E-6	460.351E-15	77.0014E-3	-22.5449E-3	463.987E-15	74.9144E-3	-16.2431E-3
262.631E-6	428.221E-15	73.1438E-3	-20.5292E-3	442.869E-15	68.9900E-3	-25.2559E-3
257.629E-6	362.660E-15	73.1383E-3	-28.6379E-3	382.549E-15	56.5430E-3	-12.8987E-3
252.626E-6	333.947E-15	70.4255E-3	-31.4761E-3	295.905E-15	52.5768E-3	2.69756E-3
247.624E-6	360.812E-15	69.1803E-3	-17.1501E-3	389.847E-15	44.6490E-3	-1.76841E-3
242.621E-6	339.336E-15	72.9584E-3	-12.5185E-3	391.591E-15	42.0529E-3	-12.2610E-3
237.619E-6	309.115E-15	71.5261E-3	-16.5216E-3	281.788E-15	48.1752E-3	-20.2216E-3
232.616E-6	222.785E-15	70.1721E-3	-11.2755E-3	171.646E-15	48.7921E-3	-24.1073E-3
227.614E-6	230.083E-15	69.0662E-3	-15.2245E-3	255.997E-15	50.7759E-3	-25.0331E-3
222.611E-6	291.545E-15	60.1578E-3	-26.1221E-3	312.890E-15	52.0706E-3	-24.5046E-3
217.609E-6	257.967E-15	48.9029E-3	-20.4432E-3	242.290E-15	43.2619E-3	-19.5213E-3
212.606E-6	194.770E-15	39.2493E-3	-12.2774E-3	127.317E-15	33.7939E-3	-14.3786E-3
207.604E-6	181.438E-15	37.2328E-3	-7.55783E-3	155.821E-15	37.3520E-3	-12.8936E-3
202.601E-6	164.854E-15	42.8948E-3	-3.11981E-3	226.072E-15	42.9724E-3	-15.5936E-3
197.599E-6	204.239E-15	45.9315E-3	-12.6617E-3	201.388E-15	33.6195E-3	-16.8659E-3
192.596E-6	142.498E-15	46.1624E-3	-21.1358E-3	109.190E-15	25.2081E-3	-12.7397E-3
187.594E-6	79.5005E-15	41.4790E-3	-18.8693E-3	81.3839E-15	23.2325E-3	-15.1033E-3
182.591E-6	95.0384E-15	40.2270E-3	-17.4754E-3	120.263E-15	15.9054E-3	-17.2766E-3
177.589E-6	119.749E-15	36.6870E-3	-21.0262E-3	177.166E-15	17.9891E-3	-11.7474E-3
172.586E-6	127.265E-15	21.6587E-3	-29.0465E-3	83.9736E-15	32.4150E-3	-11.9486E-3
167.584E-6	89.9376E-15	22.1109E-3	-22.1517E-3	43.2108E-15	27.7469E-3	-7.31022E-3
162.581E-6	75.1322E-15	31.7268E-3	-7.98515E-3	46.3497E-15	17.3114E-3	-350.726E-6
157.579E-6	85.7000E-15	24.4344E-3	-14.2690E-3	108.588E-15	22.3301E-3	-6.89961E-3
152.576E-6	97.2531E-15	21.2092E-3	-19.0725E-3	93.4427E-15	19.1716E-3	-15.1872E-3
147.574E-6	63.2478E-15	24.9736E-3	-3.24036E-3	25.6588E-15	11.3376E-3	-17.8300E-3
142.571E-6	-16.8740E-15	20.5403E-3	3.36545E-3	-36.1349E-15	15.2805E-3	-30.2979E-3
137.569E-6	8.02838E-15	19.2322E-3	-5.23688E-3	-7.77973E-15	23.2394E-3	-43.8768E-3
132.566E-6	31.0038E-15	23.9467E-3	-12.3291E-3	33.2708E-15	16.0457E-3	-33.1546E-3
127.564E-6	55.7055E-15	23.2770E-3	-19.9245E-3	45.6086E-15	9.94629E-3	-23.5571E-3
122.561E-6	-28.9241E-15	16.1320E-3	-23.1498E-3	-9.46255E-15	19.4095E-3	-28.6718E-3
117.559E-6	-36.1262E-15	11.2765E-3	-22.9009E-3	-89.3663E-15	24.3782E-3	-25.7344E-3
112.556E-6	36.2266E-15	15.5183E-3	-31.3868E-3	-8.11106E-15	18.1672E-3	-22.8861E-3
107.554E-6	51.9475E-15	27.8232E-3	-36.7367E-3	11.1063E-15	7.49765E-3	-27.9407E-3
102.551E-6	-28.1306E-15	31.1049E-3	-26.1754E-3	-42.2646E-15	2.81918E-3	-18.5965E-3
97.5488E-6	-72.1021E-15	20.2703E-3	-12.0863E-3	-122.029E-15	9.38165E-3	1.55126E-3
92.5463E-6	-98.0246E-15	13.7967E-3	-964.853E-6	-69.9048E-15	12.6430E-3	8.66326E-3
87.5438E-6	-18.4870E-15	19.1287E-3	4.95497E-3	2.77935E-15	4.26896E-3	6.18824E-3
82.5413E-6	-3.08002E-15	20.6655E-3	-2.01307E-3	-33.6499E-15	3.02241E-3	-8.85412E-3
77.5388E-6	-109.124E-15	19.5765E-3	-10.2872E-3	-147.454E-15	8.60592E-3	-30.2847E-3
72.5363E-6	-129.527E-15	16.8285E-3	-13.7122E-3	-145.397E-15	14.3673E-3	-32.5440E-3
67.5338E-6	-92.5227E-15	2.16601E-3	-23.9983E-3	-20.4838E-15	15.7187E-3	-26.6783E-3
62.5313E-6	-63.1909E-15	-7.40795E-3	-33.6109E-3	-28.0521E-15	11.9601E-3	-31.4898E-3
57.5288E-6	-96.5946E-15	2.61990E-3	-30.4475E-3	-87.1080E-15	11.7034E-3	-28.6518E-3
52.5263E-6	-135.082E-15	16.7064E-3	-24.3367E-3	-164.701E-15	17.7348E-3	-17.4230E-3
47.5238E-6	-122.264E-15	16.4554E-3	-27.6171E-3	-104.015E-15	22.3847E-3	-16.7708E-3
42.5213E-6	-73.8110E-15	7.67278E-3	-29.0182E-3	-62.8683E-15	18.6352E-3	-13.6719E-3
37.5188E-6	-60.4967E-15	3.18298E-3	-26.5533E-3	-136.852E-15	13.2502E-3	-3.66379E-3
32.5163E-6	-134.681E-15	-2.13373E-3	-19.1070E-3	-113.684E-15	15.1785E-3	-3.02807E-3
27.5138E-6	-148.858E-15	-4.45450E-3	-8.90800E-3	-174.510E-15	19.7975E-3	-10.2516E-3
22.5113E-6	-136.381E-15	-1.36162E-3	-15.6660E-3	-143.627E-15	19.3610E-3	-10.8823E-3
17.5088E-6	-97.7543E-15	-2.93845E-3	-22.5229E-3	-89.3401E-15	11.2597E-3	-17.4420E-3
12.5063E-6	-148.352E-15	-337.306E-6	-13.5383E-3	-100.553E-15	-8.07711E-3	-29.7621E-3
7.50375E-6	-182.314E-15	17.3638E-3	-13.5922E-3	-179.759E-15	-10.2938E-3	-34.4562E-3
2.50125E-6	-205.760E-15	31.9593E-3	-31.9618E-3	-217.130E-15	13.5093E-3	-34.1802E-3
-2.50125E-6	-135.326E-15	28.7319E-3	-43.1602E-3	-146.347E-15	29.1663E-3	-24.7391E-3
-7.50375E-6	-126.406E-15	18.1200E-3	-28.7235E-3	-99.0970E-15	36.6434E-3	-8.80239E-3
-12.5063E-6	-187.493E-15	14.4076E-3	-6.75849E-3	-195.672E-15	31.6323E-3	-5.44740E-3
-17.5088E-6	-223.487E-15	25.4004E-3	-383.440E-6	-240.568E-15	12.1975E-3	-11.6029E-3
-22.5113E-6	-181.146E-15	29.8734E-3	-7.68878E-3	-219.781E-15	10.4429E-3	-12.0146E-3
-27.5138E-6	-137.218E-15	8.09710E-3	-16.7053E-3	-134.044E-15	24.7316E-3	-22.2664E-3
-32.5163E-6	-203.833E-15	-2.90642E-3	-24.5873E-3	-196.500E-15	22.4799E-3	-29.8568E-3
-37.5188E-6	-256.533E-15	7.78400E-3	-23.5097E-3	-309.538E-15	12.7422E-3	-16.5762E-3
-42.5213E-6	-262.349E-15	14.2899E-3	-13.2631E-3	-257.414E-15	9.88348E-3	-15.8267E-3
-47.5238E-6	-184.494E-15	13.5029E-3	-14.3258E-3	-198.018E-15	1.41448E-3	-24.1670E-3
-52.5263E-6	-227.358E-15	3.54246E-3	-23.9706E-3	-161.458E-15	-115.653E-6	-14.5332E-3
-57.5288E-6	-249.819E-15	-9.38620E-3	-25.3934E-3	-339.218E-15	15.8356E-3	-10.5498E-3
-62.5313E-6	-291.541E-15	-14.1258E-3	-9.62109E-3	-303.338E-15	17.3495E-3	-22.4276E-3
-67.5338E-6	-246.314E-15	-5.20822E-3	11.4286E-3	-239.583E-15	4.54343E-3	-33.2248E-3
-72.5363E-6	-251.484E-15	7.87904E-3	7.01102E-3	-248.607E-15	7.53023E-3	-39.8964E-3
-77.5388E-6	-275.462E-15	13.4174E-3	-16.6085E-3	-261.189E-15	14.5134E-3	-34.3723E-3
-82.5413E-6	-325.468E-15	12.6588E-3	-18.7947E-3	-329.853E-15	23.0625E-3	-13.4159E-3
-87.5438E-6	-353.352E-15	7.07343E-3	-7.79370E-3	-301.089E-15	32.0227E-3	2.68449E-3
-92.5463E-6	-298.412E-15	7.53962E-3	-9.58770E-3	-303.669E-15	28.0023E-3	-771.632E-6
-97.5488E-6	-279.691E-15	25.1155E-3	-17.2302E-3	-303.652E-15	29.3096E-3	-8.23181E-3
-102.551E-6	-320.166E-15	41.8337E-3	-28.7459E-3	-327.229E-15	43.6995E-3	-4.17028E-3
-107.554E-6	-387.750E-15	38.7476E-3	-28.2736E-3	-405.825E-15	47.8095E-3	-7.93265E-3
-112.556E-6	-363.780E-15	26.9152E-3	-13.4884E-3	-416.994E-15	36.4742E-3	-18.5445E-3
-117.559E-6	-342.627E-15	21.1986E-3	-1.26942E-3	-316.408E-15	31.1253E-3	-12.3188E-3
-122.561E-6	-352.890E-15	28.2417E-3	2.19438E-3	-362.621E-15	34.6122E-3	-3.74518E-3
-127.564E-6	-442.612E-15	40.6746E-3	3.32981E-3	-410.743E-15	31.9941E-3	-247.349E-6
-132.566E-6	-432.035E-15	42.7916E-3	1.65165E-3	-500.935E-15	30.5975E-3	3.65259E-3
-137.569E-6	-411.013E-15	36.7501E-3	-4.36808E-3	-400.384E-15	30.5370E-3	-8.78143E-3
-142.571E-6	-414.884E-15	35.1102E-3	3.62842E-3	-364.277E-15	31.6157E-3	-19.3273E-3
-147.574E-6	-461.445E-15	35.8718E-3	17.1729E-3	-453.267E-15	48.5103E-3	-16.9868E-3
-152.576E-6	-535.455E-15	32.8746E-3	3.37156E-3	-577.944E-15	66.8442E-3	-31.4759E-3
-157.579E-6	-508.556E-15	35.6074E-3	-19.7109E-3	-490.847E-15	66.1642E-3	-41.7857E-3
-162.581E-6	-460.373E-15	38.1363E-3	-17.3783E-3	-457.853E-15	57.0417E-3	-21.8568E-3
-167.584E-6	-518.775E-15	43.0172E-3	-9.28498E-3	-478.814E-15	51.3153E-3	-6.86911E-3
-172.586E-6	-581.711E-15	61.9584E-3	-4.92358E-3	-626.109E-15	44.6887E-3	-7.85354E-3
-177.589E-6	-612.900E-15	73.7743E-3	-3.22838E-3	-633.791E-15	40.0878E-3	-1.45496E-3
-182.591E-6	-590.046E-15	76.5292E-3	-9.52009E-3	-534.574E-15	53.9443E-3	4.74641E-3
-187.594E-6	-596.603E-15	80.7579E-3	-17.4571E-3	-552.379E-15	75.3419E-3	-7.92773E-3
-192.596E-6	-611.034E-15	77.1694E-3	-24.1001E-3	-613.248E-15	85.5934E-3	-23.0067E-3
-197.599E-6	-679.541E-15	64.6538E-3	-23.6844E-3	-741.823E-15	90.4102E-3	-25.4006E-3
-202.601E-6	-698.410E-15	60.7283E-3	-17.9533E-3	-698.698E-15	86.6676E-3	-21.2334E-3
-207.604E-6	-669.994E-15	64.3484E-3	-12.9794E-3	-660.158E-15	75.4381E-3	-16.3141E-3
-212.606E-6	-699.509E-15	65.8354E-3	-14.1528E-3	-760.901E-15	69.9762E-3	-21.4047E-3
-217.609E-6	-750.935E-15	68.8572E-3	-23.6211E-3	-756.454E-15	69.9486E-3	-29.3175E-3
-222.611E-6	-831.711E-15	76.4694E-3	-25.8797E-3	-837.422E-15	76.5230E-3	-20.3264E-3
-227.614E-6	-802.170E-15	82.9238E-3	-21.6863E-3	-814.403E-15	93.5066E-3	-15.5920E-3
-232.616E-6	-787.922E-15	76.9001E-3	-33.4803E-3	-836.114E-15	102.557E-3	-25.3478E-3
-237.619E-6	-862.882E-15	64.6663E-3	-41.1215E-3	-880.783E-15	104.137E-3	-24.8041E-3
-242.621E-6	-968.307E-15	66.2526E-3	-28.6177E-3	-953.807E-15	109.723E-3	-20.4403E-3
-247.624E-6	-1.00904E-12	83.2554E-3	-21.2517E-3	-973.844E-15	112.265E-3	-19.6114E-3
-252.626E-6	-957.809E-15	100.794E-3	-25.5249E-3	-985.955E-15	123.349E-3	-15.7132E-3
-257.629E-6	-984.325E-15	107.584E-3	-21.4824E-3	-962.247E-15	151.556E-3	-16.3182E-3
-262.631E-6	-1.09940E-12	109.965E-3	-14.1531E-3	-1.09236E-12	167.393E-3	-28.5450E-3
-267.634E-6	-1.17048E-12	122.619E-3	-12.5597E-3	-1.17068E-12	154.731E-3	-36.8599E-3
-272.636E-6	-1.15989E-12	141.078E-3	-7.91826E-3	-1.16765E-12	139.175E-3	-32.0405E-3
-277.639E-6	-1.18115E-12	150.745E-3	-12.1399E-3	-1.12156E-12	133.689E-3	-24.5994E-3
-282.641E-6	-1.26275E-12	148.724E-3	-20.2885E-3	-1.23641E-12	139.701E-3	-16.3215E-3
-287.644E-6	-1.35207E-12	138.654E-3	-20.8017E-3	-1.43644E-12	158.515E-3	-8.25893E-3
-292.646E-6	-1.42887E-12	133.616E-3	-13.9308E-3	-1.43693E-12	177.684E-3	-10.2670E-3
-297.649E-6	-1.39568E-12	146.225E-3	-4.70555E-3	-1.41365E-12	189.634E-3	-10.3342E-3
-302.651E-6	-1.48432E-12	158.925E-3	-1.95086E-3	-1.44975E-12	197.336E-3	-8.62666E-3
-307.654E-6	-1.56913E-12	158.058E-3	-6.97282E-3	-1.62340E-12	200.183E-3	-18.5483E-3
-312.656E-6	-1.61643E-12	150.085E-3	-17.0229E-3	-1.70552E-12	199.639E-3	-25.3299E-3
-317.659E-6	-1.64631E-12	157.072E-3	-22.9671E-3	-1.67319E-12	210.059E-3	-17.9375E-3
-322.661E-6	-1.68031E-12	177.291E-3	-22.5301E-3	-1.67350E-12	225.915E-3	-2.53426E-3
-327.664E-6	-1.79377E-12	188.911E-3	-15.0851E-3	-1.81623E-12	231.370E-3	-1.04707E-3
-332.666E-6	-1.95157E-12	197.870E-3	-13.4525E-3	-1.93941E-12	237.673E-3	-15.9912E-3
-337.669E-6	-1.98558E-12	205.997E-3	-17.7010E-3	-1.99107E-12	250.558E-3	-25.2764E-3
-342.671E-6	-2.03123E-12	207.186E-3	-12.5472E-3	-2.03942E-12	255.463E-3	-18.1813E-3
-347.674E-6	-2.04429E-12	211.993E-3	-6.25190E-3	-2.10955E-12	249.845E-3	-3.16794E-3
-352.676E-6	-2.18153E-12	220.427E-3	-1.68003E-3	-2.20015E-12	249.034E-3	-2.12448E-3
-357.679E-6	-2.29244E-12	229.606E-3	1.48919E-3	-2.26893E-12	262.502E-3	-15.3843E-3
-362.681E-6	-2.35135E-12	238.975E-3	4.72125E-3	-2.39689E-12	284.419E-3	-29.8417E-3
-367.684E-6	-2.40480E-12	243.441E-3	137.320E-6	-2.45008E-12	303.369E-3	-40.1992E-3
-372.686E-6	-2.49573E-12	250.082E-3	-15.5205E-3	-2.53030E-12	298.600E-3	-39.5286E-3
-377.689E-6	-2.70898E-12	258.834E-3	-15.2616E-3	-2.64381E-12	293.851E-3	-28.8129E-3
-382.691E-6	-2.79580E-12	268.106E-3	-5.45819E-3	-2.84257E-12	313.933E-3	-19.8114E-3
-387.694E-6	-2.82343E-12	277.819E-3	-6.00561E-3	-2.82814E-12	324.180E-3	-7.84798E-3
-392.696E-6	-2.92244E-12	282.619E-3	-8.01967E-3	-2.92000E-12	327.829E-3	-4.38870E-3
-397.699E-6	-3.06858E-12	292.557E-3	-18.2980E-3	-3.08705E-12	344.858E-3	-21.2185E-3
-402.701E-6	-3.23166E-12	316.484E-3	-30.2344E-3	-3.30592E-12	349.871E-3	-28.7851E-3
-407.704E-6	-3.26402E-12	329.144E-3	-32.4841E-3	-3.32313E-12	357.546E-3	-14.8741E-3
-412.706E-6	-3.35769E-12	319.018E-3	-27.3096E-3	-3.30629E-12	374.952E-3	-1.12926E-3
-417.709E-6	-3.51486E-12	312.582E-3	-15.2042E-3	-3.52166E-12	372.905E-3	-1.52315E-3
-422.711E-6	-3.68326E-12	324.647E-3	-15.3351E-3	-3.77859E-12	370.843E-3	-4.08214E-3
-427.714E-6	-3.78017E-12	345.125E-3	-33.0755E-3	-3.88174E-12	387.543E-3	-6.87891E-3
-432.716E-6	-3.86928E-12	358.734E-3	-42.8360E-3	-3.81132E-12	406.967E-3	-14.9056E-3
-437.719E-6	-4.00286E-12	361.952E-3	-35.5621E-3	-3.96079E-12	425.294E-3	-16.8585E-3
-442.721E-6	-4.10742E-12	368.995E-3	-28.4803E-3	-4.16628E-12	439.329E-3	-14.6148E-3
-447.724E-6	-4.23301E-12	379.324E-3	-18.4739E-3	-4.32398E-12	431.594E-3	-18.7349E-3
-452.726E-6	-4.35129E-12	392.578E-3	-3.26191E-3	-4.38888E-12	423.757E-3	-17.3338E-3
-457.729E-6	-4.49146E-12	401.065E-3	-5.73715E-3	-4.51105E-12	435.666E-3	-8.21713E-3
-462.731E-6	-4.57882E-12	391.281E-3	-11.6045E-3	-4.71438E-12	447.752E-3	-10.0142E-3
-467.734E-6	-4.79785E-12	387.976E-3	-676.984E-6	-4.89414E-12	455.432E-3	-5.35819E-3
-472.736E-6	-4.94324E-12	403.300E-3	616.577E-6	-4.97575E-12	468.299E-3	6.54131E-3
-477.739E-6	-5.14001E-12	424.976E-3	-16.2145E-3	-5.09216E-12	477.405E-3	-6.42941E-3
-482.741E-6	-5.12771E-12	445.885E-3	-23.2514E-3	-5.27415E-12	479.738E-3	-21.3663E-3
-487.744E-6	-5.32970E-12	457.732E-3	-17.5593E-3	-5.44015E-12	481.941E-3	-21.6290E-3
-492.746E-6	-5.50821E-12	452.640E-3	-17.9502E-3	-5.63009E-12	480.605E-3	-16.8118E-3
-497.749E-6	-5.75040E-12	446.319E-3	-20.9620E-3	-5.80370E-12	477.737E-3	-1.76957E-3
-502.751E-6	-5.76437E-12	464.207E-3	-22.5432E-3	-5.89649E-12	481.426E-3	5.30974E-6
-507.754E-6	-5.93879E-12	483.112E-3	-20.6165E-3	-6.04005E-12	489.992E-3	-18.7788E-3
-512.756E-6	-6.16051E-12	479.536E-3	-18.7094E-3	-6.31411E-12	497.302E-3	-29.2772E-3
-517.759E-6	-6.38518E-12	472.773E-3	-22.2410E-3	-6.48459E-12	514.912E-3	-28.8516E-3
-522.761E-6	-6.44035E-12	477.828E-3	-17.5989E-3	-6.60552E-12	537.857E-3	-26.4836E-3
-527.764E-6	-6.57909E-12	485.861E-3	-1.71373E-3	-6.66044E-12	537.859E-3	-20.0136E-3
-532.766E-6	-6.75798E-12	493.373E-3	4.92426E-3	-6.88653E-12	521.665E-3	-13.0656E-3
-537.769E-6	-6.99417E-12	506.877E-3	-2.00663E-3	-7.12283E-12	512.893E-3	-15.4022E-3
-542.771E-6	-7.15778E-12	508.774E-3	-5.64469E-3	-7.24844E-12	516.112E-3	-25.6722E-3
-547.774E-6	-7.21242E-12	499.380E-3	-5.04576E-3	-7.24573E-12	524.016E-3	-24.5669E-3
-552.776E-6	-7.40969E-12	505.459E-3	-17.9721E-3	-7.40001E-12	522.676E-3	-17.4391E-3
-557.779E-6	-7.52810E-12	526.166E-3	-35.1788E-3	-7.68192E-12	517.400E-3	-22.9402E-3
-562.781E-6	-7.81708E-12	531.595E-3	-39.0888E-3	-7.89216E-12	527.615E-3	-23.4311E-3
-567.784E-6	-8.04522E-12	517.149E-3	-38.3390E-3	-8.11700E-12	549.997E-3	-16.4583E-3
-572.786E-6	-8.34722E-12	512.912E-3	-34.9895E-3	-8.22405E-12	556.154E-3	-11.3292E-3
-577.789E-6	-8.48115E-12	528.670E-3	-19.0816E-3	-8.51249E-12	543.603E-3	-3.78159E-3
-582.791E-6	-8.74650E-12	544.457E-3	-5.58462E-3	-8.75566E-12	546.249E-3	-15.9919E-3
-587.794E-6	-8.92223E-12	552.724E-3	-12.1468E-3	-8.90051E-12	558.937E-3	-39.4639E-3
-592.796E-6	-9.09695E-12	556.390E-3	-28.7367E-3	-9.03865E-12	558.143E-3	-26.1116E-3
-597.799E-6	-9.22719E-12	546.632E-3	-31.3349E-3	-9.25958E-12	555.134E-3	-2.45937E-3
-602.801E-6	-9.48219E-12	534.694E-3	-16.7156E-3	-9.54461E-12	551.901E-3	-7.91241E-3
-607.804E-6	-9.70361E-12	537.696E-3	-7.04702E-3	-9.68629E-12	541.975E-3	-16.7031E-3
-612.806E-6	-9.85405E-12	539.362E-3	-8.04361E-3	-9.81880E-12	538.773E-3	-20.6632E-3
-617.809E-6	-9.98820E-12	533.585E-3	-14.8963E-3	-9.91835E-12	539.665E-3	-24.4967E-3
-622.811E-6	-10.1557E-12	533.414E-3	-27.6647E-3	-10.1569E-12	536.310E-3	-21.8276E-3
-627.814E-6	-10.5307E-12	535.728E-3	-44.3673E-3	-10.3457E-12	543.204E-3	-18.6926E-3
-632.816E-6	-10.6630E-12	539.647E-3	-48.0959E-3	-10.5499E-12	547.045E-3	-19.0409E-3
-637.819E-6	-10.7219E-12	552.565E-3	-28.0204E-3	-10.6845E-12	535.230E-3	-15.1375E-3
-642.821E-6	-10.8906E-12	560.870E-3	-7.19525E-3	-10.8339E-12	528.809E-3	-11.2509E-3
-647.824E-6	-11.1501E-12	549.518E-3	1.26860E-3	-11.0196E-12	525.149E-3	-13.6017E-3
-652.826E-6	-11.3539E-12	537.299E-3	9.18423E-3	-11.2819E-12	511.402E-3	-17.2844E-3
-657.829E-6	-11.4479E-12	534.291E-3	7.20254E-3	-11.3745E-12	512.406E-3	-24.2121E-3
-662.831E-6	-11.5893E-12	538.240E-3	-8.05290E-3	-11.4271E-12	520.753E-3	-32.3469E-3
-667.834E-6	-11.8020E-12	546.049E-3	-15.9956E-3	-11.6351E-12	508.732E-3	-35.3729E-3
-672.836E-6	-12.1370E-12	545.233E-3	-7.32630E-3	-11.9528E-12	497.232E-3	-28.8119E-3
-677.839E-6	-12.2615E-12	538.627E-3	-1.20623E-3	-12.0436E-12	484.757E-3	-16.0981E-3
-682.841E-6	-12.4565E-12	532.207E-3	-9.44117E-3	-12.0473E-12	461.864E-3	-14.5265E-3
-687.844E-6	-12.4855E-12	526.847E-3	-20.8333E-3	-12.2172E-12	465.491E-3	-19.6554E-3
-692.846E-6	-12.8430E-12	518.161E-3	-31.0340E-3	-12.4833E-12	492.556E-3	-24.3014E-3
-697.849E-6	-12.9566E-12	502.489E-3	-30.3425E-3	-12.6577E-12	491.308E-3	-23.5309E-3
-702.851E-6	-13.1848E-12	494.576E-3	-12.2162E-3	-12.7497E-12	471.847E-3	-19.9328E-3
-707.854E-6	-13.1768E-12	496.720E-3	61.2181E-6	-12.9033E-12	474.660E-3	-30.9009E-3
-712.856E-6	-13.4039E-12	494.861E-3	992.388E-6	-13.1335E-12	478.241E-3	-46.0841E-3
-717.859E-6	-13.5843E-12	485.160E-3	3.50282E-3	-13.3795E-12	472.594E-3	-39.5763E-3
-722.861E-6	-13.6641E-12	473.636E-3	-5.99418E-3	-13.4564E-12	478.029E-3	-25.9109E-3
-727.864E-6	-13.7943E-12	473.705E-3	-23.1110E-3	-13.6397E-12	471.143E-3	-19.1291E-3
-732.866E-6	-13.8737E-12	477.189E-3	-22.8638E-3	-13.8239E-12	444.089E-3	-10.2048E-3
-737.869E-6	-14.0423E-12	468.475E-3	-12.7365E-3	-13.9890E-12	431.490E-3	-14.6156E-3
-742.871E-6	-14.0877E-12	454.182E-3	-9.25621E-3	-14.1308E-12	439.157E-3	-29.9761E-3
-747.874E-6	-14.3086E-12	444.276E-3	-13.1630E-3	-14.4556E-12	443.787E-3	-30.4372E-3
-752.876E-6	-14.2232E-12	438.324E-3	-17.0271E-3	-14.5387E-12	439.756E-3	-24.2672E-3
-757.879E-6	-14.4806E-12	442.104E-3	-14.6926E-3	-14.6223E-12	424.713E-3	-16.9463E-3
-762.881E-6	-14.5642E-12	444.806E-3	-17.7664E-3	-14.7941E-12	405.054E-3	-7.10743E-3
-767.884E-6	-14.7320E-12	429.541E-3	-29.8534E-3	-14.9409E-12	399.916E-3	-3.26071E-3
-772.886E-6	-14.7670E-12	414.765E-3	-27.7370E-3	-14.9830E-12	401.120E-3	-177.682E-6
-777.889E-6	-14.8321E-12	409.480E-3	-16.9079E-3	-15.0524E-12	399.555E-3	4.32834E-3
-782.891E-6	-15.1578E-12	405.784E-3	-18.4697E-3	-15.2416E-12	397.946E-3	-1.33304E-3
-787.894E-6	-15.1571E-12	399.499E-3	-22.1915E-3	-15.3715E-12	389.897E-3	-8.39287E-3
-792.896E-6	-15.3053E-12	389.187E-3	-26.7607E-3	-15.4350E-12	383.502E-3	-10.2978E-3
-797.899E-6	-15.2609E-12	380.627E-3	-25.9503E-3	-15.5837E-12	383.866E-3	-18.5264E-3
-802.901E-6	-15.5045E-12	372.075E-3	-23.1010E-3	-15.6168E-12	367.530E-3	-18.3896E-3
-807.904E-6	-15.7047E-12	370.839E-3	-24.1366E-3	-15.8941E-12	337.559E-3	-9.68225E-3
-812.906E-6	-15.8046E-12	378.670E-3	-15.0482E-3	-15.9640E-12	334.335E-3	-13.1280E-3
-817.909E-6	-15.8869E-12	371.322E-3	-11.4746E-3	-16.0065E-12	350.450E-3	-17.9449E-3
-822.911E-6	-15.9757E-12	356.476E-3	-19.2226E-3	-16.1489E-12	349.873E-3	-14.3318E-3
-827.914E-6	-16.3136E-12	357.308E-3	-17.2248E-3	-16.3096E-12	340.384E-3	-12.5080E-3
-832.916E-6	-16.4285E-12	364.003E-3	-17.4770E-3	-16.4865E-12	324.953E-3	-14.8076E-3
-837.919E-6	-16.5129E-12	357.948E-3	-28.5977E-3	-16.6420E-12	316.453E-3	-22.3834E-3
-842.921E-6	-16.5859E-12	345.952E-3	-35.6888E-3	-16.7341E-12	323.820E-3	-22.8822E-3
-847.924E-6	-16.7713E-12	338.951E-3	-32.4722E-3	-16.8905E-12	322.552E-3	-13.5683E-3
-852.926E-6	-17.0619E-12	332.323E-3	-16.3573E-3	-17.1440E-12	315.122E-3	-6.79478E-3
-857.929E-6	-17.1540E-12	322.866E-3	-4.09690E-3	-17.1422E-12	307.044E-3	1.15096E-3
-862.931E-6	-17.3231E-12	315.811E-3	-3.46030E-3	-17.2019E-12	297.197E-3	2.09675E-3
-867.934E-6	-17.3084E-12	317.180E-3	-9.31957E-3	-17.2899E-12	289.604E-3	-3.87437E-3
-872.936E-6	-17.5157E-12	313.661E-3	-18.5060E-3	-17.4832E-12	288.409E-3	-6.77124E-3
-877.939E-6	-17.6643E-12	300.456E-3	-12.9930E-3	-17.6178E-12	287.559E-3	-14.9911E-3
-882.941E-6	-17.7704E-12	298.553E-3	-4.44380E-3	-17.6747E-12	286.778E-3	-28.6121E-3
-887.944E-6	-17.8702E-12	305.442E-3	-14.6565E-3	-17.8027E-12	295.091E-3	-32.0082E-3
-892.946E-6	-17.8682E-12	299.679E-3	-29.9778E-3	-17.7867E-12	292.672E-3	-19.5074E-3
-897.949E-6	-18.1518E-12	275.205E-3	-36.5008E-3	-18.0909E-12	276.966E-3	-10.0937E-3
-902.951E-6	-18.2930E-12	255.787E-3	-32.8531E-3	-18.1632E-12	268.676E-3	-10.1330E-3
-907.954E-6	-18.4543E-12	266.589E-3	-28.9499E-3	-18.2142E-12	262.287E-3	-14.3877E-3
-912.956E-6	-18.4948E-12	276.223E-3	-26.9905E-3	-18.2722E-12	252.963E-3	-20.8118E-3
-917.959E-6	-18.6732E-12	266.585E-3	-25.4574E-3	-18.3846E-12	252.679E-3	-24.1481E-3
-922.961E-6	-18.8868E-12	258.996E-3	-22.1245E-3	-18.5794E-12	256.839E-3	-29.1481E-3
-927.964E-6	-18.9382E-12	253.103E-3	-8.39710E-3	-18.7048E-12	247.575E-3	-24.8574E-3
-932.966E-6	-18.9834E-12	245.313E-3	-8.29507E-3	-18.7283E-12	234.642E-3	-11.1888E-3
-937.969E-6	-19.0402E-12	245.999E-3	-26.5291E-3	-18.7426E-12	237.841E-3	-20.2348E-3
-942.971E-6	-19.2423E-12	260.414E-3	-34.0725E-3	-18.9187E-12	252.872E-3	-38.9806E-3
-947.974E-6	-19.2674E-12	263.613E-3	-27.5092E-3	-19.1166E-12	262.836E-3	-40.3734E-3
-952.976E-6	-19.3814E-12	240.683E-3	-20.3524E-3	-19.1701E-12	252.322E-3	-33.8724E-3
-957.979E-6	-19.4551E-12	234.689E-3	-14.7499E-3	-19.1230E-12	227.956E-3	-28.1804E-3
-962.981E-6	-19.5921E-12	259.306E-3	-5.32404E-3	-19.1981E-12	217.876E-3	-23.5040E-3
-967.984E-6	-19.6462E-12	267.622E-3	-7.82899E-3	-19.3064E-12	227.798E-3	-19.2901E-3
-972.986E-6	-19.7217E-12	253.434E-3	-22.9896E-3	-19.3875E-12	232.022E-3	-23.2017E-3
-977.989E-6	-19.7279E-12	240.775E-3	-17.7122E-3	-19.4168E-12	234.950E-3	-17.0616E-3
-982.991E-6	-19.6838E-12	232.201E-3	359.366E-6	-19.3699E-12	243.665E-3	-5.52309E-3
-987.994E-6	-19.8003E-12	236.467E-3	698.687E-6	-19.5565E-12	244.401E-3	-13.5753E-3
-992.997E-6	-19.6283E-12	251.953E-3	-4.54135E-3	-19.5626E-12	238.043E-3	-20.1247E-3
-997.999E-6	-19.7400E-12	258.784E-3	-1.68590E-3	-19.6663E-12	234.369E-3	-21.4573E-3
-1.00300E-3	-19.7287E-12	248.211E-3	558.062E-6	-19.5597E-12	229.766E-3	-27.7250E-3
-1.00800E-3	-19.8027E-12	238.735E-3	-1.96626E-3	-19.5616E-12	224.259E-3	-31.4903E-3
-1.01301E-3	-19.8682E-12	240.748E-3	-7.85010E-3	-19.7508E-12	226.853E-3	-31.4684E-3
-1.01801E-3	-20.1132E-12	237.887E-3	-13.2857E-3	-19.7999E-12	234.397E-3	-32.6504E-3
-1.02301E-3	-20.1042E-12	233.979E-3	-16.3265E-3	-19.9248E-12	242.561E-3	-27.2413E-3
-1.02801E-3	-20.0703E-12	232.175E-3	-12.5461E-3	-19.7808E-12	250.097E-3	-15.4931E-3
-1.03302E-3	-20.2629E-12	235.411E-3	-9.43748E-3	-20.0264E-12	262.241E-3	-13.4605E-3
-1.03802E-3	-20.2066E-12	247.164E-3	-15.4749E-3	-20.3372E-12	268.242E-3	-13.0677E-3
-1.04302E-3	-20.3951E-12	257.559E-3	-20.7860E-3	-20.3721E-12	267.739E-3	-11.9096E-3
-1.04802E-3	-20.3280E-12	263.151E-3	-20.2343E-3	-20.4920E-12	274.892E-3	-21.0307E-3
-1.05303E-3	-20.4154E-12	269.117E-3	-10.9488E-3	-20.4463E-12	284.321E-3	-23.3023E-3
-1.05803E-3	-20.3774E-12	279.298E-3	-5.62443E-3	-20.7508E-12	293.764E-3	-16.9590E-3
-1.06303E-3	-20.5640E-12	284.352E-3	-13.9568E-3	-20.7276E-12	309.289E-3	-16.3603E-3
-1.06803E-3	-20.5360E-12	285.734E-3	-24.7664E-3	-20.8027E-12	316.788E-3	-10.7336E-3
-1.07304E-3	-20.5740E-12	279.587E-3	-32.2011E-3	-20.7525E-12	309.616E-3	-4.27906E-3
-1.07804E-3	-20.7576E-12	266.449E-3	-28.8005E-3	-20.9450E-12	303.007E-3	-10.6099E-3
-1.08304E-3	-20.6931E-12	268.272E-3	-14.3735E-3	-21.0652E-12	315.356E-3	-14.6484E-3
-1.08804E-3	-20.9622E-12	280.844E-3	3.48472E-3	-21.1489E-12	337.897E-3	-6.06671E-3
-1.09305E-3	-20.9673E-12	290.580E-3	4.78860E-3	-21.1629E-12	355.341E-3	-6.49408E-3
-1.09805E-3	-21.1062E-12	296.301E-3	-11.8698E-3	-21.3356E-12	363.722E-3	-13.0931E-3
-1.10305E-3	-21.2067E-12	301.425E-3	-22.0591E-3	-21.5094E-12	360.399E-3	-5.71170E-3
-1.10805E-3	-21.3480E-12	298.278E-3	-20.3443E-3	-21.6814E-12	361.955E-3	-4.11775E-3
-1.11306E-3	-21.4843E-12	298.898E-3	-14.4050E-3	-21.7247E-12	368.679E-3	-18.6150E-3
-1.11806E-3	-21.5192E-12	319.136E-3	-11.3312E-3	-21.8014E-12	380.836E-3	-28.6087E-3
-1.12306E-3	-21.6821E-12	336.556E-3	-9.98266E-3	-21.9382E-12	400.721E-3	-32.2928E-3
-1.12806E-3	-21.9720E-12	338.124E-3	-10.0887E-3	-22.2392E-12	420.971E-3	-33.4325E-3
-1.13307E-3	-22.1207E-12	346.652E-3	-9.62016E-3	-22.4076E-12	440.678E-3	-22.7669E-3
-1.13807E-3	-22.2925E-12	371.342E-3	-9.32635E-3	-22.4676E-12	445.272E-3	-13.9702E-3
-1.14307E-3	-22.5109E-12	396.189E-3	-7.70159E-3	-22.7702E-12	440.093E-3	-17.4993E-3
-1.14807E-3	-22.7890E-12	411.617E-3	-7.89133E-3	-22.8542E-12	454.366E-3	-10.6801E-3
-1.15308E-3	-22.8821E-12	413.727E-3	-17.1711E-3	-23.1963E-12	477.656E-3	-9.46096E-3
-1.15808E-3	-22.9820E-12	410.301E-3	-23.1058E-3	-23.1177E-12	477.777E-3	-35.6269E-3
-1.16308E-3	-23.1566E-12	412.003E-3	-23.7326E-3	-23.3333E-12	471.016E-3	-47.0921E-3
-1.16808E-3	-23.3565E-12	423.725E-3	-21.3328E-3	-23.3841E-12	495.613E-3	-35.0807E-3
-1.17309E-3	-23.7314E-12	437.340E-3	-26.8984E-3	-23.7238E-12	532.800E-3	-36.1321E-3
-1.17809E-3	-23.9148E-12	449.556E-3	-37.9627E-3	-23.8253E-12	550.654E-3	-35.0692E-3
-1.18309E-3	-24.0855E-12	468.722E-3	-30.4664E-3	-23.8691E-12	562.257E-3	-22.8480E-3
-1.18809E-3	-24.1579E-12	489.602E-3	-18.5438E-3	-23.9981E-12	568.944E-3	-21.1513E-3
-1.19310E-3	-24.5253E-12	515.840E-3	-23.9867E-3	-24.2784E-12	563.127E-3	-17.4784E-3
-1.19810E-3	-24.7385E-12	545.040E-3	-32.1474E-3	-24.5086E-12	571.789E-3	-8.38478E-3
-1.20310E-3	-24.8151E-12	555.662E-3	-36.6527E-3	-24.7798E-12	592.630E-3	-16.3249E-3
-1.20810E-3	-25.0720E-12	555.325E-3	-41.2921E-3	-24.7206E-12	603.972E-3	-31.2660E-3
-1.21311E-3	-25.4025E-12	568.902E-3	-30.3431E-3	-24.9306E-12	615.396E-3	-21.7612E-3
-1.21811E-3	-25.7412E-12	580.709E-3	-13.1052E-3	-25.2907E-12	628.114E-3	-7.17232E-3
-1.22311E-3	-25.9907E-12	587.125E-3	-21.3832E-3	-25.5489E-12	645.874E-3	-8.89728E-3
-1.22811E-3	-26.1530E-12	607.415E-3	-32.2668E-3	-25.6515E-12	673.237E-3	-10.6244E-3
-1.23312E-3	-26.3665E-12	631.422E-3	-16.0254E-3	-25.7868E-12	695.165E-3	-14.4255E-3
-1.23812E-3	-26.5810E-12	653.693E-3	-2.81780E-3	-26.4288E-12	710.301E-3	-16.3750E-3
-1.24312E-3	-26.8766E-12	674.147E-3	-8.01896E-3	-26.7846E-12	729.654E-3	-6.58745E-3
-1.24812E-3	-27.2017E-12	688.477E-3	-16.6012E-3	-26.9787E-12	747.440E-3	860.508E-6
-1.25313E-3	-27.1521E-12	699.426E-3	-20.4795E-3	-26.9857E-12	753.673E-3	-7.53544E-3
-1.25813E-3	-27.3347E-12	711.593E-3	-16.9044E-3	-27.4952E-12	761.466E-3	-22.7181E-3
-1.26313E-3	-27.4349E-12	724.996E-3	-13.8108E-3	-27.5246E-12	777.447E-3	-26.1689E-3
-1.26813E-3	-27.7786E-12	740.818E-3	-17.8803E-3	-27.7548E-12	795.688E-3	-26.1363E-3
-1.27314E-3	-27.9181E-12	752.145E-3	-24.8491E-3	-27.8243E-12	816.910E-3	-25.0076E-3
-1.27814E-3	-28.2308E-12	755.731E-3	-32.3063E-3	-27.9723E-12	835.871E-3	-13.7313E-3
-1.28314E-3	-28.2676E-12	774.436E-3	-35.5014E-3	-28.2702E-12	842.437E-3	-2.88322E-3
-1.28814E-3	-28.6850E-12	798.901E-3	-25.0396E-3	-28.4297E-12	849.479E-3	376.648E-6
-1.29315E-3	-28.9750E-12	805.496E-3	-15.0647E-3	-28.6334E-12	870.321E-3	-7.10975E-3
-1.29815E-3	-29.0853E-12	812.444E-3	-17.9859E-3	-28.7499E-12	889.880E-3	-22.5007E-3
-1.30315E-3	-29.3169E-12	838.362E-3	-27.1723E-3	-28.9875E-12	899.591E-3	-26.3979E-3
-1.30815E-3	-29.7922E-12	860.778E-3	-30.1954E-3	-29.2514E-12	913.276E-3	-19.6129E-3
-1.31316E-3	-29.9835E-12	866.809E-3	-19.4941E-3	-29.6760E-12	929.567E-3	-8.16037E-3
-1.31816E-3	-30.2310E-12	870.541E-3	-10.4395E-3	-30.0001E-12	949.681E-3	5.38630E-3
-1.32316E-3	-30.5660E-12	883.036E-3	-8.19039E-3	-30.3843E-12	979.674E-3	-2.63037E-3
-1.32816E-3	-30.7694E-12	907.767E-3	-5.13203E-3	-30.7519E-12	995.397E-3	-19.6042E-3
-1.33317E-3	-31.0637E-12	938.813E-3	-1.07816E-3	-31.3325E-12	996.485E-3	-18.9658E-3
-1.33817E-3	-31.1893E-12	963.052E-3	1.77300E-3	-31.9501E-12	1.00811E+0	-5.94584E-3
-1.34317E-3	-31.5574E-12	976.820E-3	-6.38377E-3	-32.2765E-12	1.02176E+0	988.953E-6
-1.34817E-3	-31.7113E-12	983.232E-3	-19.5491E-3	-32.5672E-12	1.02114E+0	-6.33398E-3
-1.35318E-3	-32.0378E-12	977.301E-3	-22.5331E-3	-32.9924E-12	1.02795E+0	-23.3045E-3
-1.35818E-3	-32.3520E-12	980.672E-3	-20.2905E-3	-33.6243E-12	1.05037E+0	-31.5639E-3
-1.36318E-3	-32.7024E-12	1.00508E+0	-18.4580E-3	-34.0104E-12	1.05808E+0	-17.1829E-3
-1.36818E-3	-32.9521E-12	1.01745E+0	-14.2343E-3	-34.2456E-12	1.05488E+0	3.75920E-3
-1.37319E-3	-33.3878E-12	1.01351E+0	-15.8609E-3	-34.4113E-12	1.06487E+0	7.46491E-3
-1.37819E-3	-33.7276E-12	1.01842E+0	-30.1354E-3	-34.8002E-12	1.08551E+0	4.32933E-3
-1.38319E-3	-34.1700E-12	1.02889E+0	-36.5392E-3	-34.9450E-12	1.10619E+0	9.87632E-3
-1.38819E-3	-34.4477E-12	1.03805E+0	-20.3125E-3	-35.2990E-12	1.11949E+0	7.71014E-3
-1.39320E-3	-34.9805E-12	1.05136E+0	-3.36510E-3	-35.3103E-12	1.12178E+0	-8.39709E-3
-1.39820E-3	-35.2743E-12	1.07254E+0	-6.58036E-3	-35.8080E-12	1.11776E+0	-24.3026E-3
-1.40320E-3	-35.7970E-12	1.08509E+0	-21.9316E-3	-35.8420E-12	1.11159E+0	-26.6203E-3
-1.40820E-3	-36.1315E-12	1.08633E+0	-37.1281E-3	-36.2500E-12	1.11046E+0	-13.5478E-3
-1.41321E-3	-36.5134E-12	1.09640E+0	-37.3117E-3	-36.4933E-12	1.12737E+0	3.66540E-3
-1.41821E-3	-36.9413E-12	1.10630E+0	-15.7292E-3	-36.9271E-12	1.14850E+0	8.34706E-3
-1.42321E-3	-37.3180E-12	1.10734E+0	-1.95917E-3	-37.3483E-12	1.15910E+0	-3.04456E-3
-1.42821E-3	-37.6821E-12	1.10395E+0	-4.34412E-3	-37.6135E-12	1.16875E+0	-10.2181E-3
-1.43322E-3	-38.0904E-12	1.11125E+0	-6.64653E-3	-38.2981E-12	1.17617E+0	-13.4657E-3
-1.43822E-3	-38.5763E-12	1.13450E+0	-3.84068E-3	-38.5464E-12	1.17251E+0	-23.1724E-3
-1.44322E-3	-39.0762E-12	1.16020E+0	1.60967E-3	-39.3066E-12	1.16844E+0	-17.4641E-3
-1.44822E-3	-39.6046E-12	1.17600E+0	1.36227E-3	-39.7008E-12	1.16950E+0	2.47149E-3
-1.45323E-3	-40.1141E-12	1.16950E+0	-10.1434E-3	-40.3198E-12	1.17091E+0	3.82621E-3
-1.45823E-3	-40.2719E-12	1.14228E+0	-16.9695E-3	-40.6661E-12	1.18103E+0	-12.1389E-3
-1.46323E-3	-41.1094E-12	1.12479E+0	-8.65950E-3	-41.1133E-12	1.18538E+0	-19.9011E-3
-1.46823E-3	-41.7024E-12	1.14192E+0	-7.84764E-3	-41.4994E-12	1.16941E+0	-18.7142E-3
-1.47324E-3	-42.2546E-12	1.17196E+0	-19.3408E-3	-42.1509E-12	1.16153E+0	-12.3106E-3
-1.47824E-3	-42.6189E-12	1.19156E+0	-29.9434E-3	-42.4567E-12	1.17240E+0	-8.04256E-3
-1.48324E-3	-43.0870E-12	1.19284E+0	-35.2547E-3	-42.6974E-12	1.18378E+0	-10.8661E-3
-1.48824E-3	-43.6041E-12	1.17398E+0	-27.8801E-3	-42.9747E-12	1.19323E+0	-4.87588E-3
-1.49325E-3	-43.7427E-12	1.16493E+0	-16.4841E-3	-43.5554E-12	1.20231E+0	-3.91224E-3
-1.49825E-3	-44.2238E-12	1.18020E+0	-22.5166E-3	-43.8551E-12	1.19987E+0	-16.3811E-3
-1.50325E-3	-44.5112E-12	1.19019E+0	-43.4490E-3	-43.7946E-12	1.19259E+0	-17.8738E-3
-1.50825E-3	-44.9800E-12	1.18142E+0	-50.2350E-3	-44.1575E-12	1.18843E+0	-18.6672E-3
-1.51326E-3	-45.0599E-12	1.16727E+0	-42.6304E-3	-44.5449E-12	1.17533E+0	-20.7754E-3
-1.51826E-3	-45.4144E-12	1.15931E+0	-34.1115E-3	-45.0218E-12	1.15343E+0	-14.8099E-3
-1.52326E-3	-45.7581E-12	1.16413E+0	-14.9160E-3	-44.9683E-12	1.14391E+0	-13.7688E-3
-1.52826E-3	-46.1788E-12	1.17767E+0	1.31978E-3	-45.3422E-12	1.13911E+0	-20.5289E-3
-1.53327E-3	-46.4222E-12	1.17662E+0	-6.77802E-3	-45.7905E-12	1.12162E+0	-31.1648E-3
-1.53827E-3	-46.8067E-12	1.16124E+0	-13.8429E-3	-46.5147E-12	1.11919E+0	-36.6451E-3
-1.54327E-3	-47.3670E-12	1.15522E+0	-8.99882E-3	-46.6723E-12	1.14254E+0	-29.3516E-3
-1.54827E-3	-47.5101E-12	1.15818E+0	-18.5066E-3	-47.0970E-12	1.14758E+0	-18.0421E-3
-1.55328E-3	-47.8173E-12	1.16510E+0	-32.5096E-3	-47.6524E-12	1.13916E+0	-19.2933E-3
-1.55828E-3	-48.3218E-12	1.16969E+0	-30.1068E-3	-48.0546E-12	1.14562E+0	-28.5384E-3
-1.56328E-3	-49.1089E-12	1.16444E+0	-17.3385E-3	-48.4761E-12	1.14315E+0	-25.9621E-3
-1.56828E-3	-49.3234E-12	1.15125E+0	-7.96716E-3	-48.8996E-12	1.12960E+0	-15.1427E-3
-1.57329E-3	-49.5741E-12	1.14244E+0	-2.83422E-3	-49.3317E-12	1.12940E+0	-18.1241E-3
-1.57829E-3	-50.1104E-12	1.15495E+0	-6.93196E-3	-49.6329E-12	1.13881E+0	-30.0748E-3
-1.58329E-3	-50.6107E-12	1.17095E+0	-23.1060E-3	-50.0921E-12	1.13284E+0	-31.3541E-3
-1.58829E-3	-50.6027E-12	1.17153E+0	-26.9667E-3	-50.5403E-12	1.11781E+0	-26.5132E-3
-1.59330E-3	-50.9144E-12	1.15141E+0	-17.2049E-3	-50.6522E-12	1.10269E+0	-16.8367E-3
-1.59830E-3	-51.3198E-12	1.12848E+0	-13.1098E-3	-50.7775E-12	1.08067E+0	-9.01046E-3
-1.60330E-3	-51.4695E-12	1.12100E+0	-20.8777E-3	-51.3107E-12	1.07229E+0	-14.8424E-3
-1.60830E-3	-51.5343E-12	1.11346E+0	-30.3021E-3	-51.5627E-12	1.08268E+0	-22.6174E-3
-1.61331E-3	-51.8153E-12	1.10247E+0	-21.1706E-3	-51.7639E-12	1.08359E+0	-17.7094E-3
-1.61831E-3	-51.9796E-12	1.09854E+0	-12.2504E-3	-51.9139E-12	1.07050E+0	-7.36342E-3
-1.62331E-3	-52.4157E-12	1.09926E+0	-16.3443E-3	-52.2696E-12	1.05514E+0	-5.57836E-3
-1.62831E-3	-52.7962E-12	1.09748E+0	-16.2174E-3	-52.6003E-12	1.04335E+0	-16.5216E-3
-1.63332E-3	-53.3239E-12	1.09360E+0	-15.8519E-3	-52.9288E-12	1.04363E+0	-43.8084E-3
-1.63832E-3	-53.7836E-12	1.08549E+0	-18.7749E-3	-53.1852E-12	1.05386E+0	-58.6407E-3
-1.64332E-3	-53.9163E-12	1.07449E+0	-22.0919E-3	-53.6392E-12	1.06067E+0	-36.7076E-3
-1.64832E-3	-54.5910E-12	1.06682E+0	-22.5000E-3	-54.0703E-12	1.06080E+0	-12.4219E-3
-1.65333E-3	-54.8834E-12	1.07272E+0	-15.5625E-3	-54.8008E-12	1.06017E+0	-9.55869E-3
-1.65833E-3	-55.2298E-12	1.09031E+0	-10.9504E-3	-55.0552E-12	1.05531E+0	-5.66460E-3
-1.66333E-3	-55.4570E-12	1.08666E+0	-19.1878E-3	-55.6265E-12	1.04501E+0	4.15855E-3
-1.66833E-3	-55.5983E-12	1.06162E+0	-19.1892E-3	-56.1665E-12	1.03240E+0	2.71385E-3
-1.67334E-3	-56.1695E-12	1.04812E+0	-8.48319E-3	-56.5584E-12	1.02389E+0	-2.66501E-3
-1.67834E-3	-56.2585E-12	1.04651E+0	-8.54211E-3	-57.0452E-12	1.02374E+0	-8.54561E-3
-1.68334E-3	-56.3042E-12	1.04786E+0	-7.48877E-3	-57.1736E-12	1.01768E+0	-13.7990E-3
-1.68834E-3	-56.5200E-12	1.03504E+0	-8.41830E-3	-57.7024E-12	1.00188E+0	-7.45524E-3
-1.69335E-3	-56.8773E-12	1.01374E+0	-19.5610E-3	-57.7182E-12	993.286E-3	-7.72456E-3
-1.69835E-3	-56.9530E-12	1.00173E+0	-22.3963E-3	-57.9194E-12	994.683E-3	-13.7984E-3
-1.70335E-3	-57.1377E-12	998.973E-3	-20.3447E-3	-58.2347E-12	995.231E-3	-12.8123E-3
-1.70835E-3	-57.4722E-12	997.747E-3	-23.3842E-3	-58.3573E-12	987.577E-3	-22.0802E-3
-1.71336E-3	-57.7581E-12	992.698E-3	-29.2548E-3	-58.7321E-12	971.539E-3	-32.1471E-3
-1.71836E-3	-58.3473E-12	986.328E-3	-28.9718E-3	-58.8267E-12	954.552E-3	-28.1706E-3
-1.72336E-3	-58.9324E-12	977.766E-3	-17.9442E-3	-59.1962E-12	955.022E-3	-24.4109E-3
-1.72836E-3	-59.4964E-12	971.173E-3	-15.4388E-3	-59.3157E-12	963.117E-3	-34.8040E-3
-1.73337E-3	-59.8185E-12	967.508E-3	-22.8462E-3	-59.6549E-12	956.725E-3	-34.3126E-3
-1.73837E-3	-60.4672E-12	975.434E-3	-28.4095E-3	-60.1207E-12	952.366E-3	-3.87124E-3
-1.74337E-3	-61.1617E-12	984.026E-3	-25.2051E-3	-60.5002E-12	954.743E-3	17.3601E-3
-1.74837E-3	-61.4472E-12	981.984E-3	-3.37671E-3	-61.3971E-12	953.782E-3	20.5672E-3
-1.75338E-3	-61.8710E-12	978.135E-3	6.31890E-3	-61.4448E-12	951.935E-3	20.4471E-3
-1.75838E-3	-62.0982E-12	970.235E-3	-15.2460E-3	-62.1462E-12	949.582E-3	4.34418E-3
-1.76338E-3	-62.6867E-12	951.774E-3	-34.0566E-3	-62.6378E-12	948.438E-3	-20.3973E-3
-1.76838E-3	-62.9946E-12	932.950E-3	-34.5661E-3	-63.3613E-12	936.910E-3	-24.4935E-3
-1.77339E-3	-63.1098E-12	941.734E-3	-22.8079E-3	-63.4613E-12	917.898E-3	-10.9923E-3
-1.77839E-3	-63.4496E-12	964.977E-3	-11.6460E-3	-64.1362E-12	915.681E-3	-4.49702E-3
-1.78339E-3	-63.6336E-12	955.033E-3	-16.2143E-3	-64.3936E-12	929.061E-3	-2.28392E-3
-1.78839E-3	-63.7969E-12	929.693E-3	-26.1027E-3	-64.9520E-12	940.625E-3	101.432E-6
-1.79340E-3	-64.1136E-12	931.900E-3	-35.3185E-3	-64.9556E-12	933.035E-3	-11.7546E-3
-1.79840E-3	-64.5895E-12	935.298E-3	-37.8134E-3	-65.2489E-12	912.998E-3	-13.7826E-3
-1.80340E-3	-64.7063E-12	925.536E-3	-28.3874E-3	-65.5093E-12	908.301E-3	-3.59031E-3
-1.80840E-3	-64.9066E-12	921.431E-3	-17.2399E-3	-65.8374E-12	909.284E-3	-12.9549E-3
-1.81341E-3	-65.3975E-12	910.861E-3	-18.8741E-3	-65.9073E-12	906.273E-3	-21.1561E-3
-1.81841E-3	-65.8568E-12	890.643E-3	-26.1746E-3	-65.8915E-12	918.772E-3	-17.8112E-3
-1.82341E-3	-66.0056E-12	885.493E-3	-17.9828E-3	-66.0215E-12	922.115E-3	-14.2164E-3
-1.82841E-3	-66.4213E-12	894.808E-3	-9.47451E-3	-66.2130E-12	899.165E-3	-8.42107E-3
-1.83342E-3	-66.9804E-12	898.051E-3	-18.4749E-3	-66.2056E-12	878.448E-3	-11.0109E-3
-1.83842E-3	-67.3903E-12	897.663E-3	-23.7216E-3	-66.5901E-12	869.927E-3	-21.6300E-3
-1.84342E-3	-67.6046E-12	894.750E-3	-7.55990E-3	-66.5370E-12	871.427E-3	-19.5100E-3
-1.84842E-3	-67.8562E-12	886.168E-3	-1.00697E-3	-66.7747E-12	877.292E-3	-16.0225E-3
-1.85343E-3	-67.9664E-12	886.516E-3	-18.9533E-3	-66.9915E-12	875.228E-3	-14.8439E-3
-1.85843E-3	-68.4434E-12	892.916E-3	-24.4558E-3	-67.4263E-12	864.834E-3	385.053E-6
-1.86343E-3	-68.3084E-12	890.921E-3	-17.4697E-3	-67.5445E-12	867.386E-3	8.34158E-3
-1.86843E-3	-68.7235E-12	882.864E-3	-14.8813E-3	-67.9473E-12	883.479E-3	-5.61176E-3
-1.87344E-3	-69.1601E-12	871.644E-3	-7.63307E-3	-68.3147E-12	886.632E-3	-21.0538E-3
-1.87844E-3	-69.2252E-12	867.106E-3	-4.30772E-3	-68.8020E-12	878.598E-3	-16.1676E-3
-1.88344E-3	-69.4466E-12	868.503E-3	-12.1473E-3	-69.3925E-12	868.464E-3	287.363E-6
-1.88844E-3	-70.2090E-12	859.394E-3	-18.8321E-3	-69.6278E-12	858.130E-3	-2.04376E-3
-1.89345E-3	-70.5808E-12	848.376E-3	-7.90521E-3	-70.1613E-12	858.821E-3	-23.0295E-3
-1.89845E-3	-70.5338E-12	851.823E-3	13.6895E-3	-70.7241E-12	853.454E-3	-37.2452E-3
-1.90345E-3	-71.1068E-12	868.961E-3	11.2060E-3	-70.8925E-12	834.997E-3	-39.0077E-3
-1.90845E-3	-71.4296E-12	881.961E-3	-10.7821E-3	-70.8656E-12	829.877E-3	-32.1702E-3
-1.91346E-3	-71.5030E-12	882.993E-3	-24.7146E-3	-71.1379E-12	839.531E-3	-23.4683E-3
-1.91846E-3	-71.4578E-12	877.415E-3	-33.5768E-3	-71.3438E-12	849.242E-3	-13.0308E-3
-1.92346E-3	-72.0528E-12	868.406E-3	-32.4135E-3	-71.6278E-12	839.416E-3	-446.952E-6
-1.92846E-3	-72.2221E-12	858.916E-3	-17.6706E-3	-71.8085E-12	818.703E-3	2.17142E-3
-1.93347E-3	-72.0653E-12	853.656E-3	-1.33514E-3	-72.0013E-12	816.227E-3	-10.0857E-3
-1.93847E-3	-72.2049E-12	845.047E-3	-1.88085E-3	-72.3908E-12	822.401E-3	-24.0040E-3
-1.94347E-3	-72.2724E-12	827.959E-3	-22.9024E-3	-72.5588E-12	821.996E-3	-22.6503E-3
-1.94847E-3	-72.3166E-12	818.551E-3	-42.1426E-3	-72.7164E-12	817.624E-3	-19.1197E-3
-1.95348E-3	-72.4083E-12	819.133E-3	-36.0692E-3	-72.9692E-12	816.620E-3	-17.8165E-3
-1.95848E-3	-72.9665E-12	817.210E-3	-13.0379E-3	-73.4712E-12	818.350E-3	-21.1298E-3
-1.96348E-3	-73.3251E-12	817.300E-3	-2.92260E-3	-73.6314E-12	824.560E-3	-25.9386E-3
-1.96848E-3	-73.8204E-12	824.844E-3	-13.8953E-3	-73.9357E-12	833.397E-3	-18.7834E-3
-1.97349E-3	-73.9956E-12	821.321E-3	-25.3482E-3	-74.4250E-12	821.160E-3	-14.2530E-3
-1.97849E-3	-74.5425E-12	812.459E-3	-16.3991E-3	-74.9692E-12	803.834E-3	-13.6882E-3
-1.98349E-3	-75.1909E-12	812.033E-3	-4.04068E-3	-75.6949E-12	809.553E-3	-4.07157E-3
-1.98849E-3	-75.1382E-12	820.941E-3	-8.42039E-3	-75.9549E-12	829.484E-3	-1.98921E-3
-1.99350E-3	-75.5837E-12	830.970E-3	-14.7299E-3	-76.5091E-12	839.634E-3	-10.0751E-3
-1.99850E-3	-75.9411E-12	821.902E-3	-15.7270E-3	-76.8283E-12	831.336E-3	-14.2917E-3
-2.00350E-3	-75.8366E-12	809.413E-3	-14.8228E-3	-76.9218E-12	822.345E-3	-7.21137E-3
-2.00850E-3	-76.0145E-12	811.089E-3	-20.7679E-3	-77.2858E-12	811.307E-3	9.94212E-3
-2.01351E-3	-76.1647E-12	822.736E-3	-30.5803E-3	-77.6892E-12	805.064E-3	12.3505E-3
-2.01851E-3	-76.2734E-12	827.523E-3	-34.9178E-3	-77.7611E-12	811.685E-3	-2.29809E-3
-2.02351E-3	-76.3839E-12	816.342E-3	-31.4160E-3	-77.5933E-12	802.132E-3	-3.01072E-3
-2.02851E-3	-76.7309E-12	802.229E-3	-18.3868E-3	-77.9166E-12	785.778E-3	14.3901E-3
-2.03352E-3	-77.0557E-12	796.147E-3	-17.6434E-3	-77.8414E-12	790.248E-3	8.10834E-3
-2.03852E-3	-77.4570E-12	797.866E-3	-22.7436E-3	-78.1592E-12	795.345E-3	-23.1982E-3
-2.04352E-3	-77.8415E-12	791.933E-3	-10.8090E-3	-78.1862E-12	789.551E-3	-32.0640E-3
-2.04852E-3	-78.4530E-12	784.317E-3	-4.85064E-3	-78.0685E-12	796.772E-3	-22.9164E-3
-2.05353E-3	-78.9064E-12	783.316E-3	-14.9206E-3	-78.2781E-12	805.685E-3	-27.1362E-3
-2.05853E-3	-79.4046E-12	778.636E-3	-25.1487E-3	-78.6625E-12	811.318E-3	-32.5026E-3
-2.06353E-3	-79.5322E-12	773.837E-3	-31.5077E-3	-78.9655E-12	817.809E-3	-27.2394E-3
-2.06853E-3	-80.3251E-12	775.357E-3	-29.9692E-3	-79.1440E-12	801.993E-3	-15.4961E-3
-2.07354E-3	-80.8857E-12	790.405E-3	-23.3577E-3	-79.5709E-12	779.629E-3	1.45754E-3
-2.07854E-3	-80.9500E-12	803.585E-3	-16.7694E-3	-80.0342E-12	775.629E-3	11.3292E-3
-2.08354E-3	-81.3621E-12	797.781E-3	-16.8905E-3	-80.5209E-12	775.704E-3	1.99179E-3
-2.08854E-3	-82.0363E-12	786.402E-3	-28.0144E-3	-80.5666E-12	771.579E-3	-13.5877E-3
-2.09355E-3	-82.0647E-12	785.317E-3	-36.0103E-3	-80.7247E-12	776.049E-3	-16.9833E-3
-2.09855E-3	-82.0203E-12	787.122E-3	-29.5334E-3	-80.7328E-12	778.618E-3	-22.9541E-3
-2.10355E-3	-82.0467E-12	781.869E-3	-28.3229E-3	-80.8318E-12	770.977E-3	-18.6578E-3
-2.10855E-3	-82.1314E-12	787.598E-3	-36.9730E-3	-81.1671E-12	774.150E-3	3.80574E-3
-2.11356E-3	-82.0652E-12	793.536E-3	-39.6856E-3	-81.3395E-12	779.983E-3	8.74659E-3
-2.11856E-3	-81.9715E-12	786.198E-3	-38.3181E-3	-81.7024E-12	768.022E-3	-5.72591E-3
-2.12356E-3	-82.1114E-12	779.836E-3	-28.1348E-3	-81.4250E-12	757.700E-3	-7.17119E-3
-2.12856E-3	-82.2410E-12	772.666E-3	-15.2104E-3	-81.8333E-12	755.170E-3	6.08446E-3
-2.13357E-3	-82.2618E-12	763.940E-3	-9.72501E-3	-81.6213E-12	754.235E-3	13.5291E-3
-2.13857E-3	-82.1169E-12	765.384E-3	-15.5228E-3	-81.9078E-12	755.517E-3	9.29200E-3
-2.14357E-3	-82.5332E-12	769.103E-3	-18.3678E-3	-81.7323E-12	746.837E-3	-12.6218E-3
-2.14857E-3	-82.7482E-12	762.401E-3	-3.98483E-3	-81.9506E-12	731.451E-3	-24.2416E-3
-2.15358E-3	-83.3618E-12	757.340E-3	3.39003E-3	-82.5479E-12	737.958E-3	-7.85115E-3
-2.15858E-3	-84.0323E-12	752.837E-3	-6.87113E-3	-82.8428E-12	759.859E-3	291.687E-6
-2.16358E-3	-84.8754E-12	741.183E-3	-21.5113E-3	-83.2671E-12	775.507E-3	-16.1440E-3
-2.16858E-3	-85.1930E-12	733.320E-3	-18.2632E-3	-83.7872E-12	794.257E-3	-30.9072E-3
-2.17359E-3	-85.3713E-12	744.421E-3	3.59880E-3	-84.6203E-12	794.420E-3	-24.9505E-3
-2.17859E-3	-85.9426E-12	771.401E-3	3.81089E-3	-84.9339E-12	773.518E-3	-10.1403E-3
-2.18359E-3	-86.1731E-12	781.072E-3	-14.1143E-3	-85.3142E-12	764.759E-3	-3.75008E-3
-2.18859E-3	-86.1641E-12	767.197E-3	-19.8205E-3	-85.8158E-12	768.930E-3	-8.60202E-3
-2.19360E-3	-86.3522E-12	752.046E-3	-23.5250E-3	-86.3043E-12	770.573E-3	-11.9057E-3
-2.19860E-3	-86.5895E-12	748.842E-3	-35.5043E-3	-87.0336E-12	768.066E-3	-1.70848E-3
-2.20360E-3	-85.9882E-12	753.160E-3	-39.4680E-3	-87.1287E-12	766.884E-3	10.6594E-3
-2.20860E-3	-86.1688E-12	758.196E-3	-37.2966E-3	-87.5617E-12	761.804E-3	11.5496E-3
-2.21361E-3	-86.1857E-12	758.276E-3	-35.5080E-3	-87.6227E-12	753.934E-3	11.1955E-3
-2.21861E-3	-86.3245E-12	755.304E-3	-27.6769E-3	-87.5817E-12	740.690E-3	11.5012E-3
-2.22361E-3	-86.4722E-12	763.837E-3	-22.5496E-3	-87.5644E-12	722.957E-3	5.93186E-3
-2.22861E-3	-86.6907E-12	775.236E-3	-10.7854E-3	-87.4482E-12	719.958E-3	2.01000E-3
-2.23362E-3	-87.0890E-12	764.737E-3	-1.26090E-3	-87.7131E-12	725.012E-3	4.21368E-3
-2.23862E-3	-87.5908E-12	751.113E-3	-20.9865E-3	-87.8089E-12	729.396E-3	-3.80307E-3
-2.24362E-3	-88.1887E-12	751.999E-3	-34.1940E-3	-87.8480E-12	735.311E-3	-24.6716E-3
-2.24862E-3	-88.6175E-12	753.326E-3	-25.7491E-3	-88.1707E-12	754.568E-3	-36.2557E-3
-2.25363E-3	-89.2070E-12	756.243E-3	-27.3043E-3	-88.5340E-12	772.906E-3	-41.6849E-3
-2.25863E-3	-89.8503E-12	757.189E-3	-22.5472E-3	-88.3674E-12	759.511E-3	-39.2189E-3
-2.26363E-3	-90.0615E-12	757.117E-3	-10.7988E-3	-88.8249E-12	745.003E-3	-18.9606E-3
-2.26863E-3	-90.7589E-12	762.027E-3	-11.5003E-3	-89.4921E-12	745.253E-3	-11.8269E-3
-2.27364E-3	-90.7754E-12	763.955E-3	-19.2156E-3	-89.5918E-12	741.981E-3	-24.0195E-3
-2.27864E-3	-90.9162E-12	765.291E-3	-26.2717E-3	-90.2846E-12	745.759E-3	-20.2784E-3
-2.28364E-3	-90.9776E-12	769.060E-3	-25.0205E-3	-90.6392E-12	755.674E-3	-9.68297E-3
-2.28864E-3	-91.3622E-12	763.260E-3	-28.3215E-3	-91.4527E-12	766.516E-3	-13.5703E-3
-2.29365E-3	-91.2108E-12	746.283E-3	-31.3861E-3	-91.9324E-12	776.986E-3	-20.9619E-3
-2.29865E-3	-91.4461E-12	732.064E-3	-14.4041E-3	-92.4470E-12	766.640E-3	-23.1209E-3
-2.30365E-3	-91.3051E-12	726.806E-3	5.12189E-3	-92.7765E-12	755.177E-3	-22.2907E-3
-2.30865E-3	-91.7710E-12	723.201E-3	520.874E-6	-93.4995E-12	759.995E-3	-12.4087E-3
-2.31366E-3	-91.7495E-12	722.211E-3	-6.87097E-3	-93.4746E-12	754.480E-3	4.73647E-3
-2.31866E-3	-91.9322E-12	728.439E-3	-8.79694E-3	-93.4196E-12	736.580E-3	11.6771E-3
-2.32366E-3	-92.4972E-12	737.750E-3	-14.6021E-3	-93.6747E-12	733.671E-3	8.81386E-3
-2.32866E-3	-92.8065E-12	740.164E-3	-12.1988E-3	-93.6007E-12	751.708E-3	-3.68962E-3
-2.33367E-3	-93.3164E-12	734.941E-3	-4.66235E-3	-93.7849E-12	760.506E-3	-22.3813E-3
-2.33867E-3	-93.9313E-12	737.153E-3	-5.17963E-3	-93.4736E-12	750.519E-3	-21.6601E-3
-2.34367E-3	-94.3095E-12	747.083E-3	-13.8478E-3	-93.9636E-12	729.805E-3	-10.9668E-3
-2.34867E-3	-94.2578E-12	751.340E-3	-23.8328E-3	-93.7047E-12	706.230E-3	-6.47948E-3
-2.35368E-3	-94.8967E-12	756.475E-3	-30.6121E-3	-94.1990E-12	715.784E-3	2.13264E-3
-2.35868E-3	-95.1507E-12	758.709E-3	-28.7290E-3	-94.1684E-12	751.383E-3	9.83044E-3
-2.36368E-3	-95.4345E-12	750.518E-3	-32.5708E-3	-94.4903E-12	751.565E-3	-4.60557E-3
-2.36868E-3	-95.2555E-12	749.773E-3	-33.4543E-3	-94.8149E-12	719.795E-3	-22.3544E-3
-2.37369E-3	-95.3674E-12	751.610E-3	-20.2191E-3	-95.1605E-12	713.263E-3	-25.8979E-3
-2.37869E-3	-95.3358E-12	738.009E-3	-5.68988E-3	-95.7811E-12	724.412E-3	-22.5019E-3
-2.38369E-3	-95.3813E-12	719.787E-3	14.6685E-3	-96.0730E-12	728.376E-3	-8.64253E-3
-2.38869E-3	-95.4981E-12	707.083E-3	22.9588E-3	-96.7414E-12	744.846E-3	1.31983E-3
-2.39370E-3	-95.8679E-12	701.496E-3	-7.77756E-3	-97.0512E-12	760.406E-3	-1.58369E-3
-2.39870E-3	-96.4133E-12	707.780E-3	-42.6402E-3	-97.8492E-12	761.519E-3	-4.74244E-3
-2.40370E-3	-96.3198E-12	718.843E-3	-36.8898E-3	-98.1289E-12	761.794E-3	-11.8605E-3
-2.40870E-3	-96.8037E-12	718.861E-3	-13.6876E-3	-98.6337E-12	748.364E-3	-21.9843E-3
-2.41371E-3	-97.1075E-12	713.017E-3	-7.35672E-3	-98.8247E-12	724.991E-3	-17.4492E-3
-2.41871E-3	-97.3263E-12	715.819E-3	-12.7935E-3	-98.7953E-12	721.224E-3	-6.92491E-3
-2.42371E-3	-97.4006E-12	725.280E-3	-9.31591E-3	-98.6519E-12	721.191E-3	-6.55662E-3
-2.42871E-3	-97.8802E-12	726.246E-3	-10.2285E-3	-98.5128E-12	715.737E-3	-6.96458E-3
-2.43372E-3	-97.9457E-12	724.982E-3	-24.9121E-3	-98.5330E-12	716.650E-3	-4.58917E-3
-2.43872E-3	-97.9318E-12	736.453E-3	-31.4506E-3	-97.9970E-12	716.918E-3	-20.5725E-3
-2.44372E-3	-98.0740E-12	735.291E-3	-16.8521E-3	-97.7657E-12	716.869E-3	-40.2204E-3
-2.44872E-3	-98.2830E-12	726.498E-3	436.663E-6	-97.7324E-12	719.066E-3	-22.9205E-3
-2.45373E-3	-98.6091E-12	727.899E-3	-10.2341E-3	-97.3402E-12	724.953E-3	11.0348E-3
-2.45873E-3	-98.9235E-12	738.359E-3	-28.0798E-3	-97.1949E-12	720.165E-3	24.4130E-3
-2.46373E-3	-99.4537E-12	749.536E-3	-28.0351E-3	-97.2204E-12	698.509E-3	8.45812E-3
-2.46873E-3	-99.5749E-12	746.021E-3	-23.6345E-3	-97.4164E-12	685.756E-3	-29.2799E-3
-2.47374E-3	-100.096E-12	734.459E-3	-30.6664E-3	-97.0018E-12	694.802E-3	-49.2601E-3
-2.47874E-3	-100.165E-12	731.215E-3	-32.7453E-3	-97.6049E-12	706.787E-3	-35.1243E-3
-2.48374E-3	-100.471E-12	731.495E-3	-14.5709E-3	-98.2182E-12	716.012E-3	-13.0073E-3
-2.48874E-3	-100.929E-12	718.685E-3	624.337E-6	-98.7524E-12	720.966E-3	-8.78893E-3
-2.49375E-3	-101.650E-12	716.303E-3	-8.57770E-3	-99.4551E-12	725.383E-3	-16.3902E-3
-2.49875E-3	-101.738E-12	731.587E-3	-19.5742E-3	-100.265E-12	730.133E-3	-28.0976E-3
-2.50375E-3	-102.448E-12	731.734E-3	-19.4577E-3	-101.154E-12	728.020E-3	-38.1532E-3
-2.50875E-3	-102.570E-12	716.626E-3	-18.0002E-3	-102.005E-12	728.437E-3	-28.7840E-3
-2.51376E-3	-102.647E-12	708.241E-3	-11.0505E-3	-102.452E-12	730.151E-3	-22.9751E-3
-2.51876E-3	-102.719E-12	717.419E-3	-9.48375E-3	-103.008E-12	710.102E-3	-46.6464E-3
-2.52376E-3	-102.741E-12	735.155E-3	-18.1963E-3	-103.237E-12	683.891E-3	-48.6537E-3
-2.52876E-3	-102.913E-12	736.731E-3	-23.1361E-3	-103.128E-12	693.203E-3	-13.2378E-3
-2.53377E-3	-102.556E-12	723.466E-3	-22.6027E-3	-103.014E-12	714.947E-3	-2.53829E-3
-2.53877E-3	-103.010E-12	710.195E-3	-19.5022E-3	-102.930E-12	717.712E-3	-17.7850E-3
-2.54377E-3	-102.599E-12	704.292E-3	-15.1024E-3	-102.824E-12	712.808E-3	-14.2321E-3
-2.54877E-3	-103.044E-12	704.968E-3	-25.4330E-3	-102.277E-12	705.338E-3	1.75498E-3
-2.55378E-3	-103.471E-12	709.448E-3	-30.2753E-3	-102.857E-12	705.562E-3	9.72896E-3
-2.55878E-3	-104.201E-12	722.167E-3	-17.0681E-3	-102.665E-12	706.647E-3	9.08683E-3
-2.56378E-3	-104.552E-12	729.822E-3	-24.4993E-3	-102.734E-12	699.585E-3	-4.95032E-3
-2.56878E-3	-104.491E-12	733.522E-3	-41.7519E-3	-102.741E-12	704.082E-3	-14.1297E-3
-2.57379E-3	-105.022E-12	735.897E-3	-39.5845E-3	-103.077E-12	716.472E-3	-10.1681E-3
-2.57879E-3	-105.414E-12	729.397E-3	-29.6659E-3	-103.594E-12	718.019E-3	-10.5635E-3
-2.58379E-3	-105.849E-12	734.501E-3	-17.4106E-3	-103.837E-12	716.191E-3	-11.1661E-3
-2.58879E-3	-106.135E-12	740.063E-3	-1.92477E-3	-104.903E-12	733.728E-3	-4.88844E-3
-2.59380E-3	-106.812E-12	739.075E-3	-7.88514E-3	-105.176E-12	750.916E-3	1.45190E-3
-2.59880E-3	-107.313E-12	741.537E-3	-28.6822E-3	-106.426E-12	740.004E-3	-820.687E-6
-2.60380E-3	-107.514E-12	732.890E-3	-38.8175E-3	-107.224E-12	732.095E-3	-2.37099E-3
-2.60880E-3	-108.168E-12	710.822E-3	-35.5886E-3	-107.873E-12	731.539E-3	2.10243E-3
-2.61381E-3	-108.407E-12	696.457E-3	-26.0793E-3	-108.612E-12	724.325E-3	-4.05953E-3
-2.61881E-3	-108.617E-12	705.606E-3	-25.2650E-3	-109.436E-12	723.795E-3	-26.0821E-3
-2.62381E-3	-108.108E-12	728.164E-3	-14.8902E-3	-110.012E-12	722.595E-3	-37.4055E-3
-2.62881E-3	-108.026E-12	744.158E-3	-7.84561E-3	-110.153E-12	708.231E-3	-19.4471E-3
-2.63382E-3	-107.877E-12	739.214E-3	-15.3744E-3	-110.679E-12	694.490E-3	-10.6931E-3
-2.63882E-3	-107.275E-12	712.220E-3	-10.9290E-3	-110.135E-12	698.965E-3	-24.5945E-3
-2.64382E-3	-107.413E-12	690.310E-3	-1.49269E-3	-110.475E-12	710.873E-3	-23.5216E-3
-2.64882E-3	-107.467E-12	700.248E-3	4.73711E-3	-109.443E-12	717.986E-3	-5.78403E-3
-2.65383E-3	-107.861E-12	715.729E-3	-16.9900E-3	-109.467E-12	730.892E-3	2.66358E-3
-2.65883E-3	-107.999E-12	712.864E-3	-47.1177E-3	-109.184E-12	734.621E-3	2.05089E-3
-2.66383E-3	-108.288E-12	710.334E-3	-32.6214E-3	-108.633E-12	706.713E-3	2.32207E-3
-2.66883E-3	-109.164E-12	714.672E-3	-9.35064E-3	-108.817E-12	686.027E-3	-246.190E-6
-2.67384E-3	-109.486E-12	711.007E-3	-1.77172E-3	-108.463E-12	694.143E-3	-8.46465E-3
-2.67884E-3	-110.032E-12	688.652E-3	-7.00697E-3	-108.550E-12	700.571E-3	-18.2850E-3
-2.68384E-3	-110.407E-12	680.589E-3	-23.0420E-3	-108.440E-12	714.101E-3	-20.6312E-3
-2.68884E-3	-111.000E-12	705.284E-3	-21.5652E-3	-108.890E-12	738.143E-3	-16.8097E-3
-2.69385E-3	-111.034E-12	717.665E-3	-8.32782E-3	-109.025E-12	735.751E-3	-16.8380E-3
-2.69885E-3	-111.135E-12	715.882E-3	-6.12759E-3	-109.935E-12	718.494E-3	-20.7440E-3
-2.70385E-3	-111.465E-12	719.266E-3	-9.14285E-3	-110.263E-12	714.893E-3	-23.5846E-3
-2.70885E-3	-111.674E-12	723.828E-3	-188.678E-6	-110.786E-12	711.391E-3	-17.9400E-3
-2.71386E-3	-111.238E-12	727.024E-3	6.87142E-3	-111.436E-12	705.927E-3	-20.7086E-3
-2.71886E-3	-111.242E-12	722.586E-3	2.13930E-3	-112.372E-12	700.256E-3	-34.7227E-3
-2.72386E-3	-111.085E-12	709.587E-3	-1.99742E-3	-112.832E-12	690.117E-3	-29.4930E-3
-2.72886E-3	-110.544E-12	688.522E-3	-10.4977E-3	-113.420E-12	695.730E-3	-15.2035E-3
-2.73387E-3	-110.517E-12	687.241E-3	-28.0755E-3	-113.976E-12	699.601E-3	-6.75588E-3
-2.73887E-3	-110.557E-12	712.775E-3	-33.5191E-3	-113.900E-12	680.655E-3	6.32576E-3
-2.74387E-3	-110.645E-12	710.789E-3	-23.6308E-3	-113.706E-12	684.285E-3	12.3185E-3
-2.74887E-3	-110.710E-12	689.678E-3	-20.5852E-3	-113.689E-12	714.186E-3	11.2146E-3
-2.75388E-3	-111.010E-12	689.451E-3	-38.4224E-3	-113.664E-12	714.733E-3	13.2247E-3
-2.75888E-3	-111.491E-12	689.358E-3	-59.5451E-3	-113.944E-12	700.765E-3	11.7978E-3
-2.76388E-3	-112.219E-12	682.689E-3	-48.6928E-3	-113.679E-12	700.152E-3	11.0590E-3
-2.76888E-3	-112.400E-12	683.088E-3	-24.3525E-3	-114.163E-12	683.549E-3	11.1053E-3
-2.77389E-3	-112.686E-12	699.292E-3	-21.9598E-3	-113.750E-12	670.004E-3	-5.89207E-3
-2.77889E-3	-113.076E-12	712.781E-3	-20.8037E-3	-113.706E-12	676.306E-3	-31.9015E-3
-2.78389E-3	-113.639E-12	694.467E-3	-10.8671E-3	-113.757E-12	688.989E-3	-33.3395E-3
-2.78889E-3	-114.140E-12	676.139E-3	-3.51477E-3	-114.032E-12	715.885E-3	-19.8195E-3
-2.79390E-3	-114.138E-12	688.829E-3	-4.69323E-3	-114.232E-12	725.264E-3	-6.88439E-3
-2.79890E-3	-114.760E-12	705.884E-3	-24.8261E-3	-114.668E-12	705.284E-3	-292.385E-6
-2.80390E-3	-114.651E-12	705.323E-3	-35.2999E-3	-114.844E-12	698.750E-3	-18.7687E-3
-2.80890E-3	-115.346E-12	698.904E-3	-26.3476E-3	-115.662E-12	713.336E-3	-28.7061E-3
-2.81391E-3	-115.690E-12	694.876E-3	-22.6246E-3	-116.301E-12	722.917E-3	-16.7556E-3
-2.81891E-3	-115.882E-12	697.951E-3	-18.5360E-3	-116.813E-12	719.996E-3	-5.15952E-3
-2.82391E-3	-116.350E-12	707.860E-3	-12.1091E-3	-116.832E-12	706.460E-3	2.42871E-3
-2.82891E-3	-116.955E-12	705.493E-3	-9.51161E-3	-118.177E-12	706.149E-3	2.24361E-3
-2.83392E-3	-117.795E-12	689.644E-3	-12.8472E-3	-118.325E-12	729.407E-3	-2.49369E-3
-2.83892E-3	-118.115E-12	689.427E-3	-14.3172E-3	-118.660E-12	730.866E-3	-6.62210E-3
-2.84392E-3	-118.518E-12	706.980E-3	-8.65631E-3	-119.219E-12	714.440E-3	1.01335E-3
-2.84892E-3	-119.279E-12	711.991E-3	-7.18590E-3	-119.699E-12	714.779E-3	2.54247E-3
-2.85393E-3	-119.492E-12	696.896E-3	-15.9994E-3	-119.753E-12	719.011E-3	-21.9677E-3
-2.85893E-3	-119.652E-12	695.766E-3	-28.9767E-3	-119.700E-12	716.643E-3	-30.3389E-3
-2.86393E-3	-119.744E-12	715.166E-3	-33.2341E-3	-119.507E-12	709.224E-3	-4.45122E-3
-2.86893E-3	-120.035E-12	723.842E-3	-27.7516E-3	-118.987E-12	703.720E-3	-8.81959E-3
-2.87394E-3	-120.204E-12	726.188E-3	-23.2331E-3	-118.879E-12	703.452E-3	-35.9878E-3
-2.87894E-3	-120.375E-12	730.447E-3	-19.4455E-3	-118.793E-12	691.983E-3	-31.4124E-3
-2.88394E-3	-120.805E-12	720.356E-3	-15.2389E-3	-119.000E-12	682.628E-3	-25.4162E-3
-2.88894E-3	-120.645E-12	699.860E-3	-14.7172E-3	-118.675E-12	699.762E-3	-33.7880E-3
-2.89395E-3	-121.191E-12	689.804E-3	-24.2482E-3	-118.504E-12	716.488E-3	-37.0352E-3
-2.89895E-3	-121.061E-12	705.122E-3	-38.7058E-3	-118.652E-12	711.987E-3	-27.7579E-3
-2.90395E-3	-121.649E-12	731.562E-3	-31.4534E-3	-118.444E-12	692.438E-3	-19.2592E-3
-2.90895E-3	-121.516E-12	734.563E-3	-13.1934E-3	-119.084E-12	683.066E-3	-27.7440E-3
-2.91396E-3	-121.814E-12	722.468E-3	-12.5313E-3	-119.298E-12	696.623E-3	-26.9708E-3
-2.91896E-3	-122.512E-12	708.103E-3	-17.1614E-3	-119.797E-12	703.139E-3	-6.26390E-3
-2.92396E-3	-123.044E-12	689.136E-3	-22.3490E-3	-119.847E-12	701.554E-3	1.58214E-3
-2.92896E-3	-123.430E-12	678.783E-3	-26.0217E-3	-120.827E-12	698.674E-3	-18.0258E-3
-2.93397E-3	-123.482E-12	685.185E-3	-22.5271E-3	-121.241E-12	698.449E-3	-33.2363E-3
-2.93897E-3	-123.926E-12	692.820E-3	-23.0308E-3	-121.902E-12	699.699E-3	-14.3600E-3
-2.94397E-3	-124.209E-12	697.711E-3	-23.9886E-3	-122.570E-12	704.671E-3	-4.46847E-3
-2.94897E-3	-123.938E-12	706.452E-3	-19.7505E-3	-122.547E-12	709.862E-3	-19.4446E-3
-2.95398E-3	-123.745E-12	716.062E-3	-20.0222E-3	-122.606E-12	702.699E-3	-19.4353E-3
-2.95898E-3	-123.264E-12	714.335E-3	-29.3224E-3	-122.895E-12	695.365E-3	-15.8465E-3
-2.96398E-3	-123.133E-12	709.692E-3	-33.1871E-3	-122.715E-12	669.677E-3	-20.8828E-3
-2.96898E-3	-122.401E-12	719.480E-3	-11.0704E-3	-122.837E-12	640.920E-3	-23.8850E-3
-2.97399E-3	-122.884E-12	715.959E-3	7.15574E-3	-122.899E-12	651.671E-3	-23.5549E-3
-2.97899E-3	-122.577E-12	688.427E-3	-16.1562E-3	-122.809E-12	667.590E-3	-18.8732E-3
-2.98399E-3	-122.462E-12	670.324E-3	-34.1337E-3	-122.875E-12	669.704E-3	-26.9439E-3
-2.98899E-3	-122.469E-12	678.128E-3	-16.7295E-3	-123.153E-12	685.082E-3	-39.3161E-3
-2.99400E-3	-122.616E-12	697.026E-3	848.738E-6	-122.907E-12	693.420E-3	-21.5116E-3
-2.99900E-3	-123.003E-12	706.903E-3	-2.69902E-3	-123.182E-12	677.183E-3	1.53098E-3
-3.00400E-3	-123.003E-12	690.986E-3	-20.9706E-3	-123.661E-12	663.646E-3	-8.28372E-3
-3.00900E-3	-123.377E-12	662.537E-3	-30.4626E-3	-123.949E-12	668.231E-3	-25.9024E-3
-3.01401E-3	-124.182E-12	660.746E-3	-23.1803E-3	-124.485E-12	674.993E-3	-16.4558E-3
-3.01901E-3	-124.085E-12	674.194E-3	-20.0576E-3	-124.660E-12	682.911E-3	-2.86134E-3
-3.02401E-3	-124.794E-12	674.644E-3	-30.2869E-3	-126.099E-12	704.203E-3	1.10596E-3
-3.02901E-3	-125.011E-12	676.101E-3	-40.5611E-3	-126.397E-12	713.882E-3	9.29709E-3
-3.03402E-3	-125.812E-12	686.128E-3	-40.5799E-3	-127.246E-12	708.705E-3	11.5675E-3
-3.03902E-3	-125.793E-12	693.338E-3	-27.9567E-3	-127.440E-12	718.410E-3	-10.3203E-3
-3.04402E-3	-126.892E-12	695.975E-3	-15.8670E-3	-127.903E-12	720.698E-3	-34.7875E-3
-3.04902E-3	-126.306E-12	707.894E-3	-10.5385E-3	-127.490E-12	697.414E-3	-28.0173E-3
-3.05403E-3	-126.151E-12	710.218E-3	-11.4758E-3	-127.663E-12	690.055E-3	-26.7460E-3
-3.05903E-3	-126.275E-12	706.622E-3	-33.5731E-3	-127.457E-12	706.041E-3	-39.5579E-3
-3.06403E-3	-126.348E-12	713.325E-3	-52.1489E-3	-127.946E-12	713.995E-3	-21.5376E-3
-3.06903E-3	-126.015E-12	707.966E-3	-35.9827E-3	-127.635E-12	705.140E-3	-10.8874E-3
-3.07404E-3	-126.325E-12	698.928E-3	-13.5625E-3	-127.530E-12	695.111E-3	-23.9425E-3
-3.07904E-3	-126.398E-12	688.461E-3	135.071E-6	-127.694E-12	690.319E-3	-13.1846E-3
-3.08404E-3	-126.802E-12	675.468E-3	-5.68518E-3	-127.971E-12	679.474E-3	-52.0456E-6
-3.08904E-3	-126.774E-12	673.681E-3	-24.2064E-3	-127.789E-12	670.025E-3	-8.98107E-3
-3.09405E-3	-127.745E-12	676.591E-3	-23.8682E-3	-128.120E-12	673.898E-3	-12.0921E-3
-3.09905E-3	-128.604E-12	687.355E-3	-14.7826E-3	-128.389E-12	686.248E-3	-16.6796E-3
-3.10405E-3	-128.977E-12	703.999E-3	-31.6406E-3	-128.825E-12	695.301E-3	-30.1620E-3
-3.10905E-3	-129.458E-12	707.352E-3	-49.1101E-3	-129.067E-12	710.210E-3	-16.5418E-3
-3.11406E-3	-130.046E-12	704.363E-3	-48.0924E-3	-129.714E-12	722.465E-3	-12.5168E-3
-3.11906E-3	-130.511E-12	686.116E-3	-43.2777E-3	-129.982E-12	712.973E-3	-35.3482E-3
-3.12406E-3	-131.044E-12	660.430E-3	-34.9445E-3	-131.275E-12	705.652E-3	-34.1575E-3
-3.12906E-3	-130.876E-12	668.319E-3	-18.1785E-3	-131.703E-12	714.151E-3	-20.4694E-3
-3.13407E-3	-131.568E-12	703.816E-3	4.23427E-3	-132.337E-12	711.575E-3	-12.3163E-3
-3.13907E-3	-131.878E-12	726.313E-3	6.45127E-3	-133.047E-12	684.066E-3	-1.70796E-3
-3.14407E-3	-132.408E-12	717.876E-3	-8.98164E-3	-133.273E-12	669.589E-3	6.71887E-3
-3.14907E-3	-132.235E-12	696.404E-3	-30.1975E-3	-132.697E-12	677.880E-3	3.82949E-3
-3.15408E-3	-133.224E-12	692.482E-3	-47.4549E-3	-133.231E-12	693.532E-3	-7.94717E-3
-3.15908E-3	-133.063E-12	709.937E-3	-48.0029E-3	-133.103E-12	708.945E-3	-16.5300E-3
-3.16408E-3	-133.662E-12	700.650E-3	-44.8278E-3	-133.101E-12	698.096E-3	-21.7083E-3
-3.16908E-3	-133.467E-12	682.401E-3	-50.7276E-3	-132.589E-12	681.111E-3	-23.7009E-3
-3.17409E-3	-133.878E-12	698.031E-3	-40.8379E-3	-132.982E-12	692.146E-3	-14.0721E-3
-3.17909E-3	-133.886E-12	705.786E-3	-20.5017E-3	-132.640E-12	707.377E-3	625.148E-6
-3.18409E-3	-134.068E-12	695.320E-3	-10.4038E-3	-132.726E-12	703.951E-3	7.51236E-3
-3.18909E-3	-134.473E-12	706.851E-3	6.97386E-3	-133.028E-12	708.415E-3	-1.25331E-3
-3.19410E-3	-134.834E-12	720.646E-3	8.93146E-3	-132.902E-12	714.839E-3	-19.0784E-3
-3.19910E-3	-134.730E-12	704.247E-3	-20.0214E-3	-133.070E-12	703.753E-3	-18.7895E-3
-3.20410E-3	-134.283E-12	685.873E-3	-18.2214E-3	-133.176E-12	698.614E-3	-12.2214E-3
-3.20910E-3	-134.589E-12	680.257E-3	-9.24733E-3	-133.763E-12	702.862E-3	-15.9260E-3
-3.21411E-3	-135.070E-12	679.608E-3	-26.8408E-3	-134.043E-12	708.136E-3	-8.40665E-3
-3.21911E-3	-135.167E-12	687.421E-3	-27.6615E-3	-135.227E-12	708.119E-3	2.47526E-3
-3.22411E-3	-134.745E-12	700.347E-3	-18.3678E-3	-135.785E-12	694.474E-3	-11.5679E-3
-3.22911E-3	-135.724E-12	693.343E-3	-16.0140E-3	-136.197E-12	682.610E-3	-29.3169E-3
-3.23412E-3	-135.490E-12	670.322E-3	-10.0194E-3	-137.123E-12	683.542E-3	-22.7613E-3
-3.23912E-3	-136.223E-12	647.970E-3	-11.1917E-3	-137.512E-12	683.044E-3	-8.83456E-3
-3.24412E-3	-136.713E-12	646.216E-3	-22.9163E-3	-137.821E-12	672.171E-3	2.70502E-3
-3.24912E-3	-137.506E-12	671.850E-3	-25.4545E-3	-138.067E-12	659.194E-3	3.35451E-3
-3.25413E-3	-138.370E-12	678.178E-3	-16.0203E-3	-138.318E-12	657.414E-3	-9.44958E-3
-3.25913E-3	-137.777E-12	678.956E-3	-11.8652E-3	-138.346E-12	674.904E-3	-20.8788E-3
-3.26413E-3	-138.286E-12	711.020E-3	-26.2922E-3	-138.242E-12	694.398E-3	-18.4847E-3
-3.26913E-3	-138.769E-12	733.517E-3	-29.0738E-3	-137.867E-12	706.978E-3	-106.210E-6
-3.27414E-3	-138.718E-12	716.325E-3	-8.50984E-3	-137.523E-12	713.053E-3	7.09481E-3
-3.27914E-3	-138.732E-12	696.481E-3	-4.46215E-3	-137.042E-12	707.413E-3	-9.59447E-3
-3.28414E-3	-139.510E-12	691.581E-3	-22.5395E-3	-136.370E-12	697.869E-3	-15.2838E-3
-3.28914E-3	-139.942E-12	690.272E-3	-35.8064E-3	-136.861E-12	693.081E-3	427.944E-6
-3.29415E-3	-139.305E-12	693.526E-3	-42.7231E-3	-136.699E-12	686.426E-3	335.781E-6
-3.29915E-3	-139.669E-12	688.469E-3	-55.4506E-3	-136.653E-12	683.825E-3	-9.54197E-3
-3.30415E-3	-139.176E-12	670.256E-3	-60.8869E-3	-136.533E-12	693.408E-3	-3.45414E-3
-3.30915E-3	-139.324E-12	658.352E-3	-49.4072E-3	-136.814E-12	700.476E-3	7.66002E-3
-3.31416E-3	-138.047E-12	665.621E-3	-20.0635E-3	-136.880E-12	694.909E-3	7.80920E-3
-3.31916E-3	-138.012E-12	677.795E-3	12.6546E-3	-137.032E-12	675.858E-3	-10.6534E-3
-3.32416E-3	-137.857E-12	687.305E-3	3.32181E-3	-136.996E-12	669.748E-3	-22.2404E-3
-3.32916E-3	-137.390E-12	688.309E-3	-29.7838E-3	-137.615E-12	679.541E-3	-19.4885E-3
-3.33417E-3	-137.223E-12	674.208E-3	-26.6900E-3	-138.099E-12	686.088E-3	-14.7576E-3
-3.33917E-3	-137.212E-12	662.544E-3	-7.22748E-3	-138.672E-12	680.744E-3	4.84752E-3
-3.34417E-3	-137.389E-12	657.684E-3	-16.4949E-3	-139.832E-12	673.767E-3	14.3452E-3
-3.34917E-3	-137.907E-12	661.568E-3	-41.3104E-3	-140.675E-12	672.465E-3	-3.86142E-3
-3.35418E-3	-138.845E-12	678.385E-3	-40.1397E-3	-141.625E-12	663.647E-3	-22.5666E-3
-3.35918E-3	-139.270E-12	687.308E-3	-18.7719E-3	-142.539E-12	663.817E-3	-18.7308E-3
-3.36418E-3	-139.738E-12	686.206E-3	-18.6044E-3	-143.022E-12	680.272E-3	-10.7615E-3
-3.36918E-3	-140.143E-12	676.820E-3	-25.1755E-3	-143.578E-12	690.313E-3	-9.89386E-3
-3.37419E-3	-140.779E-12	676.109E-3	-20.5432E-3	-143.752E-12	695.904E-3	-1.69812E-3
-3.37919E-3	-141.325E-12	689.460E-3	-28.5821E-6	-143.682E-12	685.269E-3	6.62834E-3
-3.38419E-3	-141.976E-12	689.440E-3	25.6287E-3	-143.269E-12	660.946E-3	4.85068E-3
-3.38919E-3	-141.739E-12	677.109E-3	14.7016E-3	-142.932E-12	647.441E-3	-9.90961E-3
-3.39420E-3	-141.929E-12	667.129E-3	-8.23404E-3	-142.531E-12	626.655E-3	-26.6273E-3
-3.39920E-3	-142.025E-12	671.930E-3	-8.61978E-3	-142.244E-12	625.196E-3	-21.3872E-3
-3.40420E-3	-141.908E-12	683.452E-3	569.475E-6	-141.790E-12	653.062E-3	-12.8780E-3
-3.40920E-3	-142.157E-12	671.587E-3	2.69477E-3	-141.686E-12	658.946E-3	-26.9507E-3
-3.41421E-3	-142.138E-12	651.652E-3	926.793E-6	-141.390E-12	658.872E-3	-37.4453E-3
-3.41921E-3	-141.983E-12	645.445E-3	-3.87144E-3	-141.359E-12	672.820E-3	-29.3585E-3
-3.42421E-3	-142.564E-12	636.848E-3	-5.49354E-3	-141.656E-12	670.004E-3	-24.6724E-3
-3.42921E-3	-143.223E-12	629.602E-3	6.79466E-3	-141.897E-12	663.066E-3	-26.4665E-3
-3.43422E-3	-143.980E-12	634.263E-3	19.6821E-3	-143.047E-12	673.552E-3	-14.4590E-3
-3.43922E-3	-143.983E-12	652.779E-3	26.3130E-3	-144.191E-12	683.693E-3	-14.4414E-3
-3.44422E-3	-145.443E-12	675.581E-3	7.16934E-3	-145.955E-12	683.685E-3	-37.1120E-3
-3.44922E-3	-146.137E-12	678.588E-3	-20.0651E-3	-146.648E-12	684.428E-3	-34.5350E-3
-3.45423E-3	-146.427E-12	666.354E-3	-28.4459E-3	-148.242E-12	699.004E-3	-16.5388E-3
-3.45923E-3	-146.884E-12	668.428E-3	-45.4085E-3	-148.314E-12	710.731E-3	-9.33214E-3
-3.46423E-3	-147.033E-12	679.621E-3	-52.9460E-3	-149.385E-12	694.397E-3	-6.63546E-3
-3.46923E-3	-147.454E-12	685.463E-3	-32.8721E-3	-149.702E-12	677.341E-3	-13.2686E-3
-3.47424E-3	-147.218E-12	686.012E-3	-10.2459E-3	-150.184E-12	678.435E-3	-26.3459E-3
-3.47924E-3	-147.456E-12	680.937E-3	-4.99890E-3	-149.742E-12	693.323E-3	-23.3733E-3
-3.48424E-3	-147.148E-12	674.246E-3	-7.19462E-3	-149.918E-12	703.290E-3	-6.64167E-3
-3.48924E-3	-147.321E-12	669.168E-3	-5.90568E-3	-148.846E-12	673.066E-3	-5.78844E-3
-3.49425E-3	-147.181E-12	676.181E-3	-14.8825E-3	-148.325E-12	643.352E-3	-23.3638E-3
-3.49925E-3	-147.193E-12	691.443E-3	-14.9506E-3	-147.319E-12	644.651E-3	-39.3419E-3
-3.50425E-3	-147.671E-12	691.519E-3	-10.0966E-3	-146.715E-12	641.078E-3	-55.9251E-3
-3.50925E-3	-147.065E-12	678.503E-3	-19.2790E-3	-145.885E-12	631.589E-3	-71.6977E-3
-3.51426E-3	-147.989E-12	662.528E-3	-14.4577E-3	-145.764E-12	652.585E-3	-64.9342E-3
-3.51926E-3	-148.328E-12	658.474E-3	-15.8161E-3	-145.747E-12	691.493E-3	-35.9661E-3
-3.52426E-3	-148.666E-12	676.443E-3	-36.9966E-3	-145.757E-12	700.097E-3	-11.4170E-3
-3.52926E-3	-148.432E-12	691.726E-3	-24.1070E-3	-146.491E-12	692.438E-3	-18.2892E-3
-3.53427E-3	-149.212E-12	691.448E-3	9.92421E-3	-146.750E-12	699.323E-3	-33.0350E-3
-3.53927E-3	-150.131E-12	676.417E-3	16.2572E-3	-147.539E-12	698.141E-3	-24.6155E-3
-3.54427E-3	-149.846E-12	664.788E-3	-9.51647E-3	-147.520E-12	684.700E-3	-3.01056E-3
-3.54927E-3	-150.534E-12	668.027E-3	-33.4632E-3	-149.067E-12	679.642E-3	-8.73235E-3
-3.55428E-3	-150.160E-12	665.338E-3	-34.8200E-3	-149.323E-12	666.478E-3	-32.5425E-3
-3.55928E-3	-150.804E-12	663.135E-3	-36.3629E-3	-149.907E-12	655.967E-3	-41.4366E-3
-3.56428E-3	-150.071E-12	668.301E-3	-27.4582E-3	-150.998E-12	683.600E-3	-54.7904E-3
-3.56928E-3	-150.300E-12	666.161E-3	-6.41168E-3	-151.912E-12	699.077E-3	-53.0601E-3
-3.57429E-3	-150.559E-12	662.824E-3	1.86432E-3	-152.389E-12	672.806E-3	-27.7326E-3
-3.57929E-3	-150.206E-12	668.425E-3	2.10677E-3	-152.583E-12	664.715E-3	-15.4916E-3
-3.58429E-3	-150.389E-12	667.919E-3	6.53436E-3	-153.267E-12	667.861E-3	-15.4728E-3
-3.58929E-3	-150.332E-12	653.775E-3	19.6969E-3	-152.954E-12	658.500E-3	-8.33227E-3
-3.59430E-3	-150.470E-12	642.336E-3	25.5369E-3	-152.584E-12	651.371E-3	-14.5165E-3
-3.59930E-3	-150.142E-12	635.633E-3	1.06171E-3	-152.479E-12	653.915E-3	-37.9308E-3
-3.60430E-3	-150.297E-12	635.282E-3	-19.4318E-3	-152.189E-12	672.158E-3	-22.3090E-3
-3.60930E-3	-150.470E-12	637.351E-3	-18.5232E-3	-151.648E-12	683.758E-3	-8.34265E-3
-3.61431E-3	-150.913E-12	632.408E-3	-19.9333E-3	-151.246E-12	667.029E-3	-37.4061E-3
-3.61931E-3	-151.164E-12	628.309E-3	-13.2080E-3	-151.356E-12	651.442E-3	-28.1503E-3
-3.62431E-3	-152.010E-12	625.459E-3	-10.5610E-3	-150.827E-12	653.385E-3	9.67052E-3
-3.62931E-3	-152.900E-12	625.574E-3	-34.5804E-3	-151.108E-12	641.593E-3	11.8374E-3
-3.63432E-3	-152.966E-12	638.091E-3	-50.0820E-3	-151.553E-12	636.095E-3	7.25234E-3
-3.63932E-3	-153.208E-12	669.940E-3	-24.3348E-3	-151.876E-12	667.966E-3	2.02689E-3
-3.64432E-3	-153.931E-12	695.764E-3	8.95100E-3	-152.625E-12	692.147E-3	-34.5931E-3
-3.64932E-3	-154.006E-12	685.032E-3	3.07260E-3	-153.121E-12	683.764E-3	-46.5281E-3
-3.65433E-3	-154.546E-12	666.556E-3	-21.8278E-3	-153.685E-12	675.976E-3	-12.8715E-3
-3.65933E-3	-154.676E-12	648.268E-3	-23.2774E-3	-154.948E-12	681.352E-3	-11.7916E-3
-3.66433E-3	-154.926E-12	631.298E-3	-6.51237E-3	-155.123E-12	694.464E-3	-36.0164E-3
-3.66933E-3	-155.470E-12	642.848E-3	-3.86099E-3	-156.667E-12	704.126E-3	-44.4694E-3
-3.67434E-3	-155.884E-12	660.847E-3	-22.0360E-3	-157.242E-12	699.026E-3	-55.7053E-3
-3.67934E-3	-156.003E-12	656.586E-3	-33.1989E-3	-158.311E-12	680.579E-3	-49.4016E-3
-3.68434E-3	-156.684E-12	643.149E-3	-36.9198E-3	-158.752E-12	664.467E-3	-22.2399E-3
-3.68934E-3	-156.913E-12	632.272E-3	-28.3892E-3	-159.313E-12	669.459E-3	-25.4384E-3
-3.69435E-3	-156.814E-12	643.835E-3	-20.7971E-3	-159.436E-12	667.194E-3	-50.0973E-3
-3.69935E-3	-157.601E-12	676.637E-3	-40.4196E-3	-159.482E-12	657.186E-3	-40.3614E-3
-3.70435E-3	-158.246E-12	687.245E-3	-56.1117E-3	-158.515E-12	669.114E-3	-12.5572E-3
-3.70935E-3	-158.490E-12	672.773E-3	-46.8467E-3	-158.268E-12	679.992E-3	-7.06189E-3
-3.71436E-3	-159.222E-12	663.868E-3	-30.4249E-3	-158.305E-12	687.753E-3	506.635E-6
-3.71936E-3	-160.007E-12	670.635E-3	-26.3770E-3	-157.158E-12	680.605E-3	2.67113E-3
-3.72436E-3	-160.283E-12	683.858E-3	-31.4086E-3	-156.525E-12	635.252E-3	313.764E-6
-3.72936E-3	-160.901E-12	678.430E-3	-32.4841E-3	-155.949E-12	610.786E-3	14.8382E-3
-3.73437E-3	-160.927E-12	664.789E-3	-24.0144E-3	-155.663E-12	635.153E-3	29.3163E-3
-3.73937E-3	-161.059E-12	683.150E-3	-8.28699E-3	-154.899E-12	656.315E-3	32.1624E-3
-3.74437E-3	-160.821E-12	708.979E-3	9.71890E-3	-155.477E-12	657.671E-3	4.41450E-3
-3.74937E-3	-160.872E-12	694.640E-3	-2.79586E-3	-155.281E-12	675.005E-3	-31.7789E-3
-3.75438E-3	-160.727E-12	666.442E-3	-29.8072E-3	-155.521E-12	695.410E-3	-38.5596E-3
-3.75938E-3	-160.311E-12	663.296E-3	-27.1834E-3	-156.636E-12	690.099E-3	-19.3219E-3
-3.76438E-3	-160.579E-12	673.896E-3	-19.7916E-3	-157.317E-12	685.652E-3	-7.73404E-3
-3.76938E-3	-160.750E-12	682.184E-3	-12.7210E-3	-158.823E-12	669.633E-3	-28.2358E-3
-3.77439E-3	-161.221E-12	688.464E-3	-19.2215E-3	-159.525E-12	649.660E-3	-54.9030E-3
-3.77939E-3	-161.254E-12	691.589E-3	-39.3424E-3	-160.137E-12	667.383E-3	-36.9084E-3
-3.78439E-3	-161.490E-12	674.269E-3	-38.5871E-3	-161.735E-12	684.169E-3	3.31680E-3
-3.78939E-3	-162.366E-12	651.920E-3	-8.99518E-3	-161.880E-12	668.000E-3	-3.33736E-3
-3.79440E-3	-162.614E-12	658.471E-3	32.8661E-3	-162.869E-12	653.271E-3	-28.7270E-3
-3.79940E-3	-162.858E-12	673.700E-3	26.7820E-3	-162.634E-12	654.067E-3	-42.5572E-3
-3.80440E-3	-162.290E-12	683.670E-3	-22.4105E-3	-163.401E-12	650.306E-3	-48.7936E-3
-3.80940E-3	-162.775E-12	692.202E-3	-29.6680E-3	-162.988E-12	648.673E-3	-27.0929E-3
-3.81441E-3	-161.939E-12	681.496E-3	2.71171E-3	-163.007E-12	660.094E-3	2.89632E-3
-3.81941E-3	-161.488E-12	663.629E-3	13.9342E-3	-162.144E-12	673.243E-3	20.0376E-3
-3.82441E-3	-161.140E-12	654.769E-3	-14.5935E-3	-161.684E-12	670.314E-3	19.4571E-3
-3.82941E-3	-161.003E-12	654.017E-3	-51.6567E-3	-160.904E-12	654.129E-3	-4.13455E-3
-3.83442E-3	-160.188E-12	665.224E-3	-47.2455E-3	-160.381E-12	656.822E-3	-34.0936E-3
-3.83942E-3	-160.556E-12	683.643E-3	-10.2341E-3	-160.181E-12	678.690E-3	-48.7620E-3
-3.84442E-3	-160.285E-12	689.297E-3	14.7476E-3	-159.252E-12	677.568E-3	-48.2622E-3
-3.84942E-3	-161.029E-12	692.258E-3	5.74152E-3	-159.341E-12	647.513E-3	-34.5443E-3
-3.85443E-3	-161.578E-12	689.852E-3	-16.1505E-3	-160.218E-12	646.216E-3	-23.5566E-3
-3.85943E-3	-162.166E-12	668.019E-3	-20.7399E-3	-160.788E-12	669.809E-3	-17.0106E-3
-3.86443E-3	-162.958E-12	652.982E-3	-13.3988E-3	-162.322E-12	664.455E-3	6.28565E-3
-3.86943E-3	-163.745E-12	659.740E-3	-771.650E-6	-162.464E-12	660.585E-3	7.42308E-3
-3.87444E-3	-163.995E-12	669.206E-3	352.783E-6	-164.612E-12	673.159E-3	-13.2690E-3
-3.87944E-3	-165.017E-12	671.453E-3	-21.3401E-3	-164.815E-12	688.969E-3	-17.6025E-3
-3.88444E-3	-165.297E-12	668.590E-3	-39.7796E-3	-166.370E-12	710.963E-3	-24.1840E-3
-3.88944E-3	-165.148E-12	663.691E-3	-47.6440E-3	-166.734E-12	714.648E-3	-26.5625E-3
-3.89445E-3	-165.659E-12	666.056E-3	-44.8507E-3	-167.888E-12	701.386E-3	-23.2839E-3
-3.89945E-3	-165.068E-12	662.893E-3	-31.1959E-3	-167.441E-12	688.174E-3	-35.9243E-3
-3.90445E-3	-165.015E-12	648.396E-3	-33.1653E-3	-167.912E-12	664.403E-3	-46.9489E-3
-3.90945E-3	-164.731E-12	637.544E-3	-39.1371E-3	-168.148E-12	637.087E-3	-48.1311E-3
-3.91446E-3	-164.070E-12	641.754E-3	-19.7069E-3	-167.326E-12	634.597E-3	-25.7960E-3
-3.91946E-3	-164.324E-12	640.909E-3	-531.032E-6	-167.493E-12	647.024E-3	13.3773E-3
-3.92446E-3	-163.671E-12	630.127E-3	-12.5482E-3	-166.434E-12	642.238E-3	25.5333E-3
-3.92946E-3	-164.035E-12	628.622E-3	-33.9508E-3	-166.552E-12	641.761E-3	15.2518E-3
-3.93447E-3	-163.818E-12	624.397E-3	-27.7230E-3	-165.744E-12	662.350E-3	5.81506E-3
-3.93947E-3	-164.437E-12	631.701E-3	-8.02543E-3	-165.747E-12	665.182E-3	-205.662E-6
-3.94447E-3	-164.784E-12	657.876E-3	442.932E-6	-165.568E-12	654.102E-3	-5.03038E-3
-3.94947E-3	-165.925E-12	678.557E-3	6.98631E-3	-165.957E-12	662.548E-3	-11.4866E-3
-3.95448E-3	-167.164E-12	691.851E-3	14.3752E-3	-166.720E-12	674.149E-3	-33.8051E-3
-3.95948E-3	-167.781E-12	698.190E-3	2.77621E-3	-167.395E-12	675.618E-3	-42.0801E-3
-3.96448E-3	-168.969E-12	690.632E-3	-23.1243E-3	-168.430E-12	683.418E-3	-20.9932E-3
-3.96948E-3	-169.991E-12	675.983E-3	-34.6662E-3	-169.229E-12	690.565E-3	-3.49970E-3
-3.97449E-3	-171.123E-12	680.061E-3	-27.5246E-3	-170.485E-12	686.463E-3	4.50686E-3
-3.97949E-3	-172.056E-12	700.442E-3	-20.6789E-3	-171.138E-12	680.222E-3	-16.1213E-3
-3.98449E-3	-172.308E-12	709.973E-3	-22.5703E-3	-171.498E-12	660.615E-3	-44.1120E-3
-3.98949E-3	-173.063E-12	698.592E-3	-14.9305E-3	-172.537E-12	637.848E-3	-32.8029E-3
-3.99450E-3	-173.777E-12	676.121E-3	-8.52365E-3	-172.464E-12	647.372E-3	-4.14290E-3
-3.99950E-3	-174.207E-12	671.573E-3	-30.8054E-3	-172.807E-12	648.493E-3	4.03975E-3
-4.00450E-3	-173.997E-12	672.570E-3	-46.0346E-3	-171.906E-12	620.768E-3	6.70041E-3
-4.00950E-3	-174.431E-12	664.578E-3	-33.4867E-3	-172.281E-12	627.142E-3	17.6778E-3
-4.01451E-3	-173.553E-12	687.639E-3	-23.9264E-3	-171.415E-12	659.690E-3	6.92718E-3
-4.01951E-3	-173.704E-12	723.764E-3	-14.7641E-3	-171.883E-12	673.546E-3	-16.8959E-3
-4.02451E-3	-173.151E-12	736.898E-3	1.11261E-3	-171.114E-12	691.775E-3	-21.0659E-3
-4.02951E-3	-173.415E-12	720.198E-3	7.33385E-3	-171.159E-12	700.980E-3	-15.7859E-3
-4.03452E-3	-172.907E-12	687.504E-3	-1.51461E-3	-171.469E-12	679.351E-3	-18.8822E-3
-4.03952E-3	-173.111E-12	674.064E-3	-16.4898E-3	-171.677E-12	675.994E-3	-28.4578E-3
-4.04452E-3	-172.963E-12	676.411E-3	-29.5953E-3	-171.263E-12	693.490E-3	-30.2698E-3
-4.04952E-3	-173.119E-12	664.486E-3	-40.0611E-3	-171.772E-12	693.039E-3	-18.9017E-3
-4.05453E-3	-173.405E-12	642.939E-3	-31.7981E-3	-171.938E-12	676.026E-3	-11.9506E-3
-4.05953E-3	-173.143E-12	643.876E-3	-15.1556E-3	-172.591E-12	662.387E-3	-13.3745E-3
-4.06453E-3	-173.736E-12	646.909E-3	-6.02724E-3	-172.707E-12	661.536E-3	-13.4873E-3
-4.06953E-3	-174.086E-12	630.211E-3	-2.25488E-3	-173.058E-12	657.381E-3	-5.43210E-3
-4.07454E-3	-174.648E-12	624.215E-3	-23.2582E-3	-173.273E-12	644.078E-3	2.71414E-3
-4.07954E-3	-174.527E-12	639.803E-3	-54.0402E-3	-174.252E-12	632.381E-3	-8.84637E-3
-4.08454E-3	-175.313E-12	653.672E-3	-60.7634E-3	-174.311E-12	623.631E-3	-12.1955E-3
-4.08954E-3	-174.966E-12	667.850E-3	-38.3386E-3	-175.133E-12	633.924E-3	-16.5908E-3
-4.09455E-3	-174.732E-12	671.524E-3	-18.5003E-3	-175.661E-12	658.371E-3	-30.9973E-3
-4.09955E-3	-174.967E-12	664.280E-3	-14.2892E-3	-175.577E-12	672.932E-3	-28.4051E-3
-4.10455E-3	-174.435E-12	674.949E-3	-8.56719E-3	-174.702E-12	677.584E-3	-12.9191E-3
-4.10955E-3	-174.738E-12	675.003E-3	-291.627E-6	-175.580E-12	659.019E-3	-931.788E-6
-4.11456E-3	-174.910E-12	651.219E-3	-367.973E-6	-175.062E-12	645.700E-3	-4.45153E-3
-4.11956E-3	-175.668E-12	645.893E-3	-17.3643E-3	-175.511E-12	677.048E-3	-23.1942E-3
-4.12456E-3	-175.708E-12	661.839E-3	-29.5273E-3	-174.331E-12	697.612E-3	-38.6356E-3
-4.12956E-3	-175.899E-12	661.267E-3	-35.2112E-3	-175.396E-12	671.370E-3	-31.1850E-3
-4.13457E-3	-175.826E-12	643.085E-3	-42.8493E-3	-174.944E-12	641.502E-3	-12.2826E-3
-4.13957E-3	-176.086E-12	649.393E-3	-35.2475E-3	-175.295E-12	616.871E-3	671.875E-6
-4.14457E-3	-175.914E-12	670.440E-3	-18.0633E-3	-174.262E-12	612.718E-3	4.93153E-3
-4.14957E-3	-176.000E-12	670.443E-3	-20.8326E-3	-174.682E-12	649.624E-3	10.9112E-3
-4.15458E-3	-175.433E-12	667.299E-3	-40.5492E-3	-174.432E-12	668.762E-3	20.3319E-3
-4.15958E-3	-175.361E-12	655.606E-3	-42.3582E-3	-174.378E-12	640.940E-3	1.92735E-3
-4.16458E-3	-174.425E-12	644.569E-3	-38.1891E-3	-174.515E-12	609.598E-3	-36.0261E-3
-4.16958E-3	-175.160E-12	642.239E-3	-27.7503E-3	-174.936E-12	617.522E-3	-56.5234E-3
-4.17459E-3	-174.680E-12	628.179E-3	-9.93619E-3	-175.154E-12	646.131E-3	-43.5922E-3
-4.17959E-3	-175.202E-12	628.495E-3	989.581E-6	-175.375E-12	659.560E-3	-15.3982E-3
-4.18459E-3	-175.186E-12	650.242E-3	-98.1002E-6	-176.672E-12	666.432E-3	2.80107E-3
-4.18959E-3	-176.220E-12	673.339E-3	-23.6828E-3	-176.908E-12	659.802E-3	8.95608E-3
-4.19460E-3	-177.362E-12	683.148E-3	-29.3614E-3	-178.009E-12	658.529E-3	-548.532E-6
-4.19960E-3	-177.770E-12	679.620E-3	-16.5986E-3	-178.508E-12	679.846E-3	-3.20530E-3
-4.20460E-3	-179.043E-12	677.544E-3	-15.3732E-3	-179.730E-12	678.388E-3	9.06682E-3
-4.20960E-3	-179.949E-12	679.628E-3	-12.6739E-3	-180.379E-12	667.493E-3	20.1167E-3
-4.21461E-3	-181.249E-12	681.989E-3	-11.0805E-3	-180.576E-12	675.225E-3	6.96136E-3
-4.21961E-3	-181.138E-12	675.999E-3	-5.48286E-3	-181.378E-12	694.138E-3	-19.8159E-3
-4.22461E-3	-181.691E-12	668.422E-3	4.26534E-3	-181.494E-12	716.828E-3	-13.7270E-3
-4.22961E-3	-181.785E-12	660.656E-3	-16.5718E-3	-181.607E-12	710.380E-3	7.00825E-3
-4.23462E-3	-181.721E-12	659.907E-3	-37.7958E-3	-181.428E-12	694.000E-3	-10.5672E-3
-4.23962E-3	-181.273E-12	674.145E-3	-28.2080E-3	-181.942E-12	690.877E-3	-28.4992E-3
-4.24462E-3	-181.541E-12	672.044E-3	-23.7967E-3	-180.852E-12	686.816E-3	-16.4194E-3
-4.24962E-3	-181.506E-12	670.782E-3	-34.1692E-3	-181.366E-12	670.069E-3	-16.9870E-3
-4.25463E-3	-180.359E-12	679.887E-3	-32.4472E-3	-181.048E-12	643.510E-3	-27.7868E-3
-4.25963E-3	-180.603E-12	663.980E-3	-6.87857E-3	-180.816E-12	630.921E-3	-36.2630E-3
-4.26463E-3	-180.510E-12	644.744E-3	11.0960E-3	-181.336E-12	647.578E-3	-48.9289E-3
-4.26963E-3	-181.172E-12	648.137E-3	-1.44731E-3	-181.829E-12	693.728E-3	-43.4084E-3
-4.27464E-3	-181.016E-12	662.605E-3	-22.0223E-3	-181.801E-12	728.118E-3	-31.6717E-3
-4.27964E-3	-181.948E-12	671.637E-3	-28.7114E-3	-182.700E-12	728.403E-3	-18.7958E-3
-4.28464E-3	-182.792E-12	673.562E-3	-19.0899E-3	-183.305E-12	706.579E-3	-6.89925E-3
-4.28964E-3	-184.106E-12	662.499E-3	-13.7486E-3	-184.590E-12	686.076E-3	-14.7108E-3
-4.29465E-3	-184.584E-12	654.587E-3	-21.4227E-3	-186.002E-12	679.660E-3	-17.9839E-3
-4.29965E-3	-186.649E-12	671.896E-3	-26.5953E-3	-186.529E-12	676.805E-3	-9.36405E-3
-4.30465E-3	-187.119E-12	681.687E-3	-16.2530E-3	-187.243E-12	683.243E-3	-3.87351E-3
-4.30965E-3	-188.064E-12	685.281E-3	-21.6670E-3	-187.689E-12	690.118E-3	-9.44015E-3
-4.31466E-3	-188.470E-12	695.363E-3	-55.4411E-3	-188.134E-12	676.201E-3	-1.13235E-3
-4.31966E-3	-188.871E-12	682.398E-3	-57.8463E-3	-187.065E-12	663.186E-3	298.689E-6
-4.32466E-3	-188.679E-12	644.743E-3	-31.1588E-3	-187.071E-12	664.748E-3	-13.4722E-3
-4.32966E-3	-188.523E-12	632.562E-3	-30.7579E-3	-186.334E-12	663.341E-3	7.12467E-3
-4.33467E-3	-188.246E-12	662.700E-3	-45.7045E-3	-186.196E-12	663.274E-3	25.7256E-3
-4.33967E-3	-187.427E-12	674.816E-3	-38.6392E-3	-185.243E-12	653.071E-3	1.66936E-3
-4.34467E-3	-186.550E-12	664.043E-3	-20.8881E-3	-184.609E-12	630.908E-3	-17.5021E-3
-4.34967E-3	-186.154E-12	664.361E-3	-6.07586E-3	-184.235E-12	641.941E-3	-14.7797E-3
-4.35468E-3	-184.985E-12	658.650E-3	11.4867E-3	-183.305E-12	675.766E-3	-29.3224E-3
-4.35968E-3	-184.885E-12	669.851E-3	15.8201E-3	-183.397E-12	688.764E-3	-46.7231E-3
-4.36468E-3	-183.738E-12	703.654E-3	12.4962E-3	-183.362E-12	689.058E-3	-43.4417E-3
-4.36968E-3	-184.435E-12	706.338E-3	15.7754E-3	-183.590E-12	681.588E-3	-41.5597E-3
-4.37469E-3	-184.402E-12	691.410E-3	4.49429E-3	-183.864E-12	662.167E-3	-30.4535E-3
-4.37969E-3	-185.498E-12	688.550E-3	-8.90035E-3	-184.462E-12	653.381E-3	-18.2403E-3
-4.38469E-3	-184.820E-12	685.397E-3	-22.7206E-3	-186.273E-12	659.963E-3	-24.6223E-3
-4.38969E-3	-185.834E-12	667.726E-3	-36.8307E-3	-186.535E-12	667.469E-3	-11.0116E-3
-4.39470E-3	-186.625E-12	650.142E-3	-17.3366E-3	-188.342E-12	673.651E-3	6.79732E-3
-4.39970E-3	-187.259E-12	645.306E-3	3.22461E-3	-188.619E-12	684.875E-3	-13.7454E-3
-4.40470E-3	-187.435E-12	655.819E-3	3.64732E-3	-190.291E-12	685.543E-3	-47.9953E-3
-4.40970E-3	-187.993E-12	679.920E-3	15.0295E-3	-189.864E-12	672.601E-3	-53.2366E-3
-4.41471E-3	-187.846E-12	693.780E-3	20.5027E-3	-190.200E-12	674.358E-3	-39.1848E-3
-4.41971E-3	-187.425E-12	681.280E-3	-6.14775E-3	-189.804E-12	673.017E-3	-29.7948E-3
-4.42471E-3	-188.081E-12	669.713E-3	-34.3832E-3	-189.151E-12	654.118E-3	-20.9820E-3
-4.42971E-3	-188.267E-12	669.764E-3	-31.2677E-3	-188.569E-12	642.330E-3	-25.3072E-3
-4.43472E-3	-187.921E-12	649.433E-3	-17.6564E-3	-187.759E-12	653.283E-3	-31.3749E-3
-4.43972E-3	-188.439E-12	623.807E-3	-16.2616E-3	-187.745E-12	669.862E-3	-13.4692E-3
-4.44472E-3	-188.748E-12	622.710E-3	-14.3390E-3	-187.590E-12	672.476E-3	-6.03649E-3
-4.44972E-3	-188.959E-12	639.308E-3	-9.29314E-3	-186.819E-12	646.621E-3	-20.3146E-3
-4.45473E-3	-188.591E-12	651.569E-3	-9.36604E-3	-186.909E-12	622.980E-3	-10.3577E-3
-4.45973E-3	-189.149E-12	650.807E-3	-21.3585E-3	-187.062E-12	632.874E-3	11.2199E-3
-4.46473E-3	-189.252E-12	666.973E-3	-18.7774E-3	-187.355E-12	623.224E-3	-4.09966E-3
-4.46973E-3	-189.861E-12	690.137E-3	6.75061E-3	-187.641E-12	606.362E-3	-14.7765E-3
-4.47474E-3	-190.347E-12	693.118E-3	17.5850E-3	-188.404E-12	605.965E-3	-4.03102E-3
-4.47974E-3	-190.964E-12	678.702E-3	5.62144E-3	-189.472E-12	610.274E-3	-18.6307E-3
-4.48474E-3	-190.975E-12	656.141E-3	-19.9043E-3	-190.008E-12	634.030E-3	-20.5009E-3
-4.48974E-3	-191.253E-12	648.599E-3	-31.3213E-3	-191.107E-12	661.826E-3	-5.36688E-3
-4.49475E-3	-190.908E-12	649.698E-3	-29.6457E-3	-192.330E-12	674.691E-3	-24.1912E-3
-4.49975E-3	-191.566E-12	639.490E-3	-27.6480E-3	-192.842E-12	661.825E-3	-46.9830E-3
-4.50475E-3	-191.340E-12	624.638E-3	-34.3858E-3	-193.599E-12	654.938E-3	-39.9802E-3
-4.50975E-3	-191.194E-12	636.142E-3	-38.6746E-3	-195.150E-12	668.288E-3	-30.2055E-3
-4.51476E-3	-191.887E-12	666.295E-3	-30.6533E-3	-195.315E-12	662.284E-3	-45.6876E-3
-4.51976E-3	-192.086E-12	680.674E-3	-32.2025E-3	-195.237E-12	640.829E-3	-46.4211E-3
-4.52476E-3	-192.353E-12	678.292E-3	-29.3504E-3	-196.333E-12	638.438E-3	-26.3118E-3
-4.52976E-3	-192.834E-12	685.275E-3	-10.5422E-3	-196.111E-12	641.104E-3	-33.0021E-3
-4.53477E-3	-194.210E-12	701.076E-3	-3.15145E-3	-196.332E-12	647.133E-3	-36.0984E-3
-4.53977E-3	-194.300E-12	687.973E-3	-22.7370E-3	-195.753E-12	668.011E-3	-16.2381E-3
-4.54477E-3	-194.683E-12	654.005E-3	-37.6888E-3	-196.593E-12	670.454E-3	-5.75037E-3
-4.54977E-3	-194.805E-12	629.567E-3	-31.1377E-3	-196.301E-12	657.961E-3	-8.11198E-3
-4.55478E-3	-196.196E-12	625.904E-3	-33.6583E-3	-196.459E-12	671.124E-3	-13.8948E-3
-4.55978E-3	-195.994E-12	642.514E-3	-36.8414E-3	-196.242E-12	703.507E-3	-9.05011E-3
-4.56478E-3	-196.856E-12	650.076E-3	-7.33557E-3	-195.517E-12	726.350E-3	2.74251E-3
-4.56978E-3	-197.352E-12	635.125E-3	19.2274E-3	-195.714E-12	720.160E-3	125.026E-6
-4.57479E-3	-197.864E-12	631.812E-3	9.77099E-3	-194.955E-12	695.180E-3	-21.7141E-3
-4.57979E-3	-198.073E-12	658.554E-3	-673.219E-6	-195.295E-12	671.964E-3	-44.7704E-3
-4.58479E-3	-198.088E-12	692.002E-3	-125.688E-6	-193.909E-12	647.082E-3	-39.8720E-3
-4.58979E-3	-198.188E-12	692.852E-3	1.17254E-3	-195.165E-12	645.632E-3	-25.5805E-3
-4.59480E-3	-197.134E-12	675.748E-3	-73.5830E-6	-195.073E-12	665.051E-3	-33.9590E-3
-4.59980E-3	-197.592E-12	673.275E-3	-16.6167E-3	-196.027E-12	661.146E-3	-43.1281E-3
-4.60480E-3	-197.520E-12	663.894E-3	-22.9626E-3	-196.139E-12	658.204E-3	-43.8697E-3
-4.60980E-3	-197.801E-12	650.876E-3	-23.8850E-3	-197.148E-12	663.671E-3	-42.5119E-3
-4.61481E-3	-197.665E-12	664.097E-3	-52.5475E-3	-199.322E-12	655.282E-3	-36.9241E-3
-4.61981E-3	-197.579E-12	685.788E-3	-68.0710E-3	-199.943E-12	663.116E-3	-34.4209E-3
-4.62481E-3	-197.934E-12	677.791E-3	-47.9406E-3	-201.311E-12	662.713E-3	-35.7744E-3
-4.62981E-3	-198.337E-12	652.607E-3	-34.8593E-3	-202.764E-12	648.008E-3	-39.9333E-3
-4.63482E-3	-198.573E-12	638.664E-3	-38.1853E-3	-203.755E-12	678.616E-3	-1.80563E-3
-4.63982E-3	-199.090E-12	633.232E-3	-42.0882E-3	-204.467E-12	709.178E-3	51.5852E-3
-4.64482E-3	-200.099E-12	633.567E-3	-39.4057E-3	-204.472E-12	688.113E-3	21.8750E-3
-4.64982E-3	-199.548E-12	660.966E-3	-35.0299E-3	-204.316E-12	670.920E-3	-26.5966E-3
-4.65483E-3	-200.468E-12	692.163E-3	-42.6818E-3	-203.890E-12	673.769E-3	-10.8651E-3
-4.65983E-3	-200.246E-12	705.690E-3	-39.6324E-3	-204.076E-12	660.186E-3	14.4760E-3
-4.66483E-3	-200.251E-12	716.966E-3	-17.3207E-3	-201.643E-12	635.613E-3	11.0089E-3
-4.66983E-3	-200.336E-12	708.444E-3	-18.5449E-3	-200.553E-12	639.977E-3	4.72744E-3
-4.67484E-3	-199.670E-12	689.213E-3	-19.0540E-3	-199.418E-12	649.523E-3	-4.26767E-3
-4.67984E-3	-198.925E-12	676.124E-3	821.709E-6	-197.717E-12	641.442E-3	-25.3618E-3
-4.68484E-3	-198.164E-12	663.188E-3	-9.80247E-3	-197.253E-12	642.329E-3	-34.9237E-3
-4.68984E-3	-198.192E-12	659.163E-3	-41.3203E-3	-197.325E-12	646.799E-3	-21.4733E-3
-4.69485E-3	-198.182E-12	662.844E-3	-50.0126E-3	-198.212E-12	629.800E-3	-15.0319E-3
-4.69985E-3	-198.567E-12	658.662E-3	-37.2056E-3	-198.326E-12	619.552E-3	-27.3291E-3
-4.70485E-3	-199.204E-12	654.807E-3	-18.0053E-3	-199.830E-12	645.541E-3	-43.7525E-3
-4.70985E-3	-199.521E-12	665.796E-3	-10.3054E-3	-200.575E-12	669.431E-3	-56.5154E-3
-4.71486E-3	-200.663E-12	679.315E-3	-14.7100E-3	-201.491E-12	678.202E-3	-46.7613E-3
-4.71986E-3	-201.552E-12	681.026E-3	-3.02722E-3	-202.810E-12	696.157E-3	-14.3549E-3
-4.72486E-3	-201.679E-12	657.502E-3	13.8091E-3	-203.721E-12	714.553E-3	3.45149E-3
-4.72986E-3	-202.394E-12	654.464E-3	3.70373E-3	-203.588E-12	704.562E-3	7.99967E-3
-4.73487E-3	-202.618E-12	695.540E-3	-15.6155E-3	-203.993E-12	667.518E-3	15.4047E-3
-4.73987E-3	-203.009E-12	707.052E-3	-25.8004E-3	-205.056E-12	623.979E-3	20.2374E-3
-4.74487E-3	-203.529E-12	689.117E-3	-31.0050E-3	-205.158E-12	630.816E-3	17.5958E-3
-4.74988E-3	-203.729E-12	688.561E-3	-13.0194E-3	-205.212E-12	681.463E-3	-9.43381E-3
-4.75488E-3	-203.995E-12	678.854E-3	-658.264E-6	-205.376E-12	683.819E-3	-20.2580E-3
-4.75988E-3	-203.328E-12	653.201E-3	-13.2563E-3	-204.550E-12	646.323E-3	-3.92651E-3
-4.76488E-3	-203.660E-12	651.494E-3	-29.0325E-3	-203.302E-12	633.800E-3	-616.097E-6
-4.76988E-3	-202.960E-12	656.277E-3	-39.6348E-3	-202.499E-12	635.155E-3	-3.05746E-3
-4.77489E-3	-202.581E-12	654.791E-3	-24.6652E-3	-201.375E-12	626.869E-3	3.47458E-3
-4.77989E-3	-202.682E-12	654.901E-3	-6.14465E-3	-200.829E-12	632.371E-3	12.1002E-3
-4.78489E-3	-202.778E-12	648.148E-3	-1.57106E-3	-200.101E-12	638.576E-3	10.1530E-3
-4.78989E-3	-203.429E-12	666.531E-3	20.2970E-3	-199.983E-12	615.608E-3	-5.06269E-3
-4.79490E-3	-203.753E-12	682.620E-3	55.0511E-3	-200.545E-12	612.908E-3	-21.5343E-3
-4.79990E-3	-204.674E-12	651.286E-3	40.9501E-3	-200.906E-12	649.981E-3	-25.4313E-3
-4.80490E-3	-205.197E-12	629.412E-3	-18.7021E-3	-201.739E-12	665.962E-3	-28.4784E-3
-4.80990E-3	-206.311E-12	638.281E-3	-57.4254E-3	-202.779E-12	656.496E-3	-46.2031E-3
-4.81491E-3	-206.489E-12	659.648E-3	-57.3606E-3	-204.621E-12	655.356E-3	-60.9401E-3
-4.81991E-3	-207.778E-12	662.541E-3	-38.2294E-3	-205.762E-12	660.229E-3	-37.3430E-3
-4.82491E-3	-208.057E-12	658.939E-3	-36.3552E-3	-207.138E-12	685.658E-3	11.1864E-3
-4.82991E-3	-208.206E-12	666.749E-3	-46.6734E-3	-208.642E-12	710.690E-3	15.4205E-3
-4.83492E-3	-208.459E-12	650.696E-3	-23.6319E-3	-209.615E-12	698.148E-3	-13.6278E-3
-4.83992E-3	-208.992E-12	644.072E-3	16.5882E-3	-210.381E-12	684.555E-3	-6.22584E-3
-4.84492E-3	-209.636E-12	642.018E-3	23.6608E-3	-210.958E-12	694.572E-3	14.1728E-3
-4.84992E-3	-208.726E-12	630.075E-3	10.1337E-3	-210.978E-12	691.830E-3	5.67229E-3
-4.85493E-3	-209.586E-12	645.256E-3	-11.2568E-3	-211.448E-12	670.746E-3	-32.1191E-3
-4.85993E-3	-208.347E-12	670.459E-3	-10.5724E-3	-210.881E-12	668.838E-3	-74.4768E-3
-4.86493E-3	-208.866E-12	669.445E-3	1.32876E-3	-210.816E-12	668.678E-3	-63.8031E-3
-4.86993E-3	-208.625E-12	674.451E-3	-14.0877E-3	-211.017E-12	667.513E-3	-17.6768E-3
-4.87494E-3	-208.139E-12	695.358E-3	-2.82415E-3	-211.384E-12	686.711E-3	-18.5840E-3
-4.87994E-3	-209.059E-12	679.081E-3	6.65293E-3	-210.976E-12	690.954E-3	-60.0601E-3
-4.88494E-3	-208.931E-12	650.326E-3	-18.1455E-3	-210.923E-12	677.454E-3	-69.3449E-3
-4.88995E-3	-209.313E-12	648.112E-3	-11.8730E-3	-210.939E-12	666.160E-3	-56.0813E-3
-4.89495E-3	-209.187E-12	648.870E-3	2.50169E-3	-210.648E-12	659.718E-3	-68.9448E-3
-4.89995E-3	-210.448E-12	658.640E-3	-12.2510E-3	-210.932E-12	670.329E-3	-79.7384E-3
-4.90495E-3	-211.238E-12	665.093E-3	-11.5827E-3	-211.317E-12	696.865E-3	-51.7845E-3
-4.90995E-3	-212.457E-12	672.536E-3	8.99752E-3	-211.818E-12	699.126E-3	-17.0323E-3
-4.91496E-3	-212.060E-12	698.104E-3	24.4602E-3	-212.745E-12	670.855E-3	-9.37217E-3
-4.91996E-3	-212.793E-12	708.672E-3	18.8297E-3	-212.987E-12	654.240E-3	-13.7993E-3
-4.92496E-3	-212.833E-12	705.298E-3	2.66751E-3	-214.622E-12	665.572E-3	-23.5081E-3
-4.92996E-3	-212.071E-12	700.793E-3	5.78841E-3	-213.618E-12	681.257E-3	-41.3344E-3
-4.93497E-3	-211.874E-12	703.705E-3	915.650E-6	-214.476E-12	693.764E-3	-39.0551E-3
-4.93997E-3	-211.820E-12	697.654E-3	-26.4811E-3	-214.064E-12	709.935E-3	-20.2608E-3
-4.94497E-3	-211.181E-12	676.794E-3	-36.4511E-3	-214.791E-12	697.727E-3	-17.8883E-3
-4.94997E-3	-210.405E-12	686.722E-3	-20.7384E-3	-214.459E-12	680.367E-3	-25.1662E-3
-4.95498E-3	-210.527E-12	702.958E-3	-14.4252E-3	-214.972E-12	679.264E-3	-21.1562E-3
-4.95998E-3	-209.540E-12	671.718E-3	-20.4772E-3	-215.081E-12	670.857E-3	-11.0331E-3
-4.96498E-3	-209.686E-12	631.652E-3	-17.9151E-3	-215.299E-12	671.420E-3	-1.83154E-3
-4.96998E-3	-210.057E-12	631.468E-3	-3.05558E-3	-215.781E-12	684.945E-3	1.67439E-3
-4.97499E-3	-209.973E-12	648.270E-3	-7.28152E-3	-215.467E-12	670.870E-3	-17.7062E-3
-4.97999E-3	-210.526E-12	659.428E-3	-28.5806E-3	-214.703E-12	635.983E-3	-17.1012E-3
-4.98499E-3	-210.898E-12	663.404E-3	-33.7010E-3	-214.465E-12	635.277E-3	21.8371E-3
-4.98999E-3	-211.507E-12	664.257E-3	-34.7708E-3	-214.233E-12	655.837E-3	35.2361E-3
-4.99500E-3	-211.717E-12	658.597E-3	-41.8805E-3	-213.429E-12	669.622E-3	26.8949E-3
-5.00000E-3	-212.603E-12	660.609E-3	-22.6868E-3	-212.831E-12	672.192E-3	12.8253E-3
