Experiment	bias spectroscopy	
Date	19.01.2016 19:37:14	
User		
X (m)	50.2485E-9	
Y (m)	256.651E-9	
Z (m)	-132.536E-9	
Z offset (m)	0E+0	
Settling time (s)	200E-6	
Integration time (s)	5E-3	
Z-Ctrl hold	TRUE	
Final Z (m)	N/A	
Filter type	None	
Order		
Cutoff frq		
Comment01	MnPc/Pb(111)	
Comment02	dz =00pm	
Comment03	7 Sweeps	
Comment04	MagField =0.T	
Comment05	Divider 1:10	
Comment06	Setpoint:5mV,200 pA	
Comment07	Lockin: 50uVrms,5ms,5mV	
Comment08	Gain:9; 912Hz modulation	
Comment09	T=1.06K	
Bias>Bias (V)	5E-3	
Bias>Calibration (V/V)	81.475E-3	
Bias>Offset (V)	1.046E-3	
Bias Spectroscopy>Sweep Start (V)	5E-3	
Bias Spectroscopy>Sweep End (V)	-5E-3	
Bias Spectroscopy>Num Pixel	2000	
Bias Spectroscopy>Z Avg time (s)	500E-3	
Bias Spectroscopy>Z offset (m)	0E+0	
Bias Spectroscopy>1st Settling time (s)	500E-3	
Bias Spectroscopy>Settling time (s)	200E-6	
Bias Spectroscopy>Integration time (s)	5E-3	
Bias Spectroscopy>End Settling time (s)	500E-3	
Bias Spectroscopy>Z control time (s)	500E-3	
Bias Spectroscopy>Max Slew rate (V/s)	Inf	
Bias Spectroscopy>backward sweep	TRUE	
Bias Spectroscopy>Z-controller hold	TRUE	
Bias Spectroscopy>Number of sweeps	7	
Bias Spectroscopy>Channels	Current (A);X% LockIn (V);Y% LockIn (V)	
Bias Spectroscopy>Reset Bias	TRUE	
Bias Spectroscopy>Record final Z	FALSE	
Bias Spectroscopy>Lock-In run	FALSE	
Bias Spectroscopy>Sweep mode	Linear	
Bias Spectroscopy>MultiLine Settings : Segment Start (V), Segment End (V), Settling (s), Integration (s), Steps (xn)	100E-3,3.3E-3,100E-6,10E-3,2500;3.3E-3,-3.3E-3,100E-6,10E-3,10;-3.3E-3,-100E-3,100E-6,10E-3,2500	
Current>Current (A)	200.088E-12	
Current>Calibration (A/V)	999.99900E-12	
Current>Offset (A)	-455.429E-15	
Current>Gain	LN 10^9	
Z-Controller>Z (m)	-132.533E-9	
Z-Controller>Controller name	log Current	
Z-Controller>Controller status	ON	
Z-Controller>Setpoint	200E-12	
Z-Controller>Setpoint unit	A	
Z-Controller>P gain	2.96994E-12	
Z-Controller>I gain	67.0321E-9	
Z-Controller>Time const (s)	44.3062E-6	
Z-Controller>TipLift (m)	0E+0	
Z-Controller>Switch off delay (s)	50E-3	
Current (A)	200.413E-12	
Z (m)	-132.533E-9	

[DATA]
Bias calc (V)	Current (A)	X% LockIn (V)	Y% LockIn (V)	Current [bwd] (A)	X% LockIn [bwd] (V)	Y% LockIn [bwd] (V)
5.00000E-3	194.022E-12	558.046E-3	-16.8149E-3	190.713E-12	522.691E-3	18.6198E-3
4.99500E-3	194.392E-12	546.414E-3	-24.5843E-3	191.076E-12	553.640E-3	-9.35576E-3
4.98999E-3	194.860E-12	534.575E-3	-7.59517E-3	192.199E-12	549.148E-3	-24.6609E-3
4.98499E-3	195.083E-12	524.826E-3	-4.24461E-3	194.773E-12	537.233E-3	-13.5400E-3
4.97999E-3	195.878E-12	526.709E-3	-12.5643E-3	196.164E-12	540.063E-3	-1.20392E-3
4.97499E-3	197.022E-12	532.552E-3	-14.5649E-3	196.825E-12	551.038E-3	3.49514E-3
4.96998E-3	198.246E-12	534.083E-3	-23.9376E-3	199.676E-12	566.928E-3	-10.4834E-3
4.96498E-3	198.986E-12	535.047E-3	-23.3299E-3	202.244E-12	570.623E-3	-15.1690E-3
4.95998E-3	199.340E-12	544.313E-3	-2.59919E-3	203.241E-12	551.226E-3	-17.8715E-3
4.95498E-3	199.391E-12	567.585E-3	-5.62640E-3	203.190E-12	524.610E-3	-35.6010E-3
4.94997E-3	199.359E-12	573.878E-3	-20.7961E-3	204.078E-12	509.251E-3	-27.2770E-3
4.94497E-3	200.340E-12	554.464E-3	1.44078E-3	204.456E-12	496.864E-3	2.39819E-3
4.93997E-3	199.703E-12	531.754E-3	24.1834E-3	204.235E-12	493.929E-3	23.4947E-3
4.93497E-3	199.233E-12	535.571E-3	18.7882E-3	204.401E-12	513.353E-3	11.6781E-3
4.92996E-3	198.141E-12	556.157E-3	15.7758E-3	199.893E-12	537.851E-3	-13.5960E-3
4.92496E-3	197.798E-12	558.845E-3	16.7478E-3	198.870E-12	545.011E-3	-14.5168E-3
4.91996E-3	195.779E-12	562.555E-3	2.55245E-3	199.018E-12	529.548E-3	2.49093E-3
4.91496E-3	194.028E-12	556.074E-3	-7.62155E-3	196.114E-12	517.470E-3	13.7242E-3
4.90995E-3	193.250E-12	524.580E-3	-24.7300E-3	193.916E-12	520.730E-3	6.22472E-3
4.90495E-3	191.370E-12	527.461E-3	-65.4683E-3	192.379E-12	527.540E-3	-3.38914E-3
4.89995E-3	191.365E-12	533.970E-3	-75.8736E-3	193.204E-12	521.567E-3	-13.4154E-3
4.89495E-3	191.336E-12	511.437E-3	-51.2887E-3	193.880E-12	504.300E-3	-19.0861E-3
4.88995E-3	191.171E-12	523.168E-3	-15.5052E-3	193.192E-12	509.480E-3	-3.04494E-3
4.88494E-3	191.735E-12	538.569E-3	16.4466E-3	193.033E-12	528.497E-3	12.4060E-3
4.87994E-3	193.552E-12	535.936E-3	16.1801E-3	195.758E-12	536.487E-3	10.9606E-3
4.87494E-3	193.702E-12	541.615E-3	-5.01388E-3	197.656E-12	542.112E-3	9.93469E-3
4.86993E-3	194.601E-12	533.963E-3	-17.4604E-3	198.918E-12	556.290E-3	4.90040E-3
4.86493E-3	196.845E-12	523.292E-3	-25.8960E-3	199.714E-12	567.689E-3	-11.9728E-3
4.85993E-3	198.523E-12	538.925E-3	-26.5378E-3	201.641E-12	564.712E-3	-25.1773E-3
4.85493E-3	198.968E-12	556.620E-3	-23.1719E-3	203.392E-12	565.396E-3	-25.7603E-3
4.84992E-3	200.620E-12	551.389E-3	-38.5253E-3	204.467E-12	559.173E-3	-8.03733E-3
4.84492E-3	201.778E-12	549.012E-3	-47.1300E-3	203.349E-12	529.854E-3	13.0500E-3
4.83992E-3	201.000E-12	564.464E-3	-23.4958E-3	202.349E-12	516.580E-3	6.76858E-3
4.83492E-3	200.278E-12	579.396E-3	-5.48857E-3	201.717E-12	529.041E-3	-14.6512E-3
4.82991E-3	199.398E-12	570.943E-3	-41.1688E-3	200.287E-12	544.418E-3	-18.4911E-3
4.82491E-3	198.323E-12	566.999E-3	-85.3972E-3	197.000E-12	543.951E-3	-12.8877E-3
4.81991E-3	197.258E-12	584.291E-3	-76.9305E-3	192.856E-12	524.118E-3	-13.4898E-3
4.81491E-3	194.372E-12	589.308E-3	-50.0846E-3	191.658E-12	509.868E-3	-14.2313E-3
4.80990E-3	194.339E-12	574.282E-3	-39.6762E-3	190.230E-12	502.867E-3	-30.7934E-3
4.80490E-3	192.565E-12	542.758E-3	-22.3073E-3	187.776E-12	509.217E-3	-56.9787E-3
4.79990E-3	191.468E-12	534.895E-3	-28.3780E-3	185.127E-12	535.154E-3	-51.2966E-3
4.79490E-3	189.104E-12	546.186E-3	-50.7183E-3	184.123E-12	544.957E-3	-29.7269E-3
4.78989E-3	189.749E-12	525.606E-3	-40.8001E-3	184.369E-12	519.326E-3	-24.0186E-3
4.78489E-3	189.168E-12	511.895E-3	-31.7003E-3	184.757E-12	488.064E-3	-9.95278E-3
4.77989E-3	189.138E-12	541.513E-3	-21.9999E-3	184.435E-12	492.616E-3	-2.08457E-3
4.77489E-3	189.064E-12	552.451E-3	-4.16389E-3	184.849E-12	513.875E-3	-16.7952E-3
4.76988E-3	189.783E-12	527.242E-3	-4.36890E-3	187.210E-12	528.129E-3	112.130E-6
4.76488E-3	190.593E-12	522.637E-3	-29.5157E-3	189.006E-12	554.298E-3	31.8800E-3
4.75988E-3	191.082E-12	549.008E-3	-54.9539E-3	190.592E-12	575.503E-3	22.0741E-3
4.75488E-3	191.957E-12	555.903E-3	-53.9347E-3	191.599E-12	575.350E-3	-9.52992E-3
4.74988E-3	192.450E-12	543.501E-3	-33.5165E-3	193.606E-12	552.395E-3	-37.7424E-3
4.74487E-3	194.524E-12	558.008E-3	-14.1228E-3	194.640E-12	538.784E-3	-50.4429E-3
4.73987E-3	194.806E-12	567.812E-3	14.1733E-3	194.563E-12	563.764E-3	-25.8869E-3
4.73487E-3	194.047E-12	565.193E-3	28.3080E-3	194.177E-12	582.173E-3	7.21958E-3
4.72986E-3	194.203E-12	554.932E-3	19.6576E-3	194.335E-12	565.441E-3	4.77931E-3
4.72486E-3	193.838E-12	544.802E-3	15.8183E-3	192.850E-12	520.935E-3	-8.26583E-3
4.71986E-3	192.717E-12	547.636E-3	-3.65399E-3	191.660E-12	482.954E-3	-7.90744E-3
4.71486E-3	190.242E-12	531.200E-3	-9.81355E-3	190.293E-12	490.385E-3	-11.2874E-3
4.70985E-3	189.567E-12	498.752E-3	-517.247E-6	188.289E-12	510.104E-3	-11.9776E-3
4.70485E-3	187.002E-12	495.494E-3	-1.46912E-3	186.799E-12	525.185E-3	-9.18699E-3
4.69985E-3	185.520E-12	535.241E-3	1.70605E-3	185.515E-12	543.002E-3	-26.6846E-3
4.69485E-3	183.583E-12	558.671E-3	-3.21525E-3	184.112E-12	548.937E-3	-33.5596E-3
4.68984E-3	182.248E-12	561.599E-3	-14.8871E-3	182.901E-12	540.335E-3	-7.52550E-3
4.68484E-3	181.052E-12	537.659E-3	11.4448E-3	182.373E-12	522.023E-3	17.4068E-3
4.67984E-3	180.870E-12	485.166E-3	35.0270E-3	182.903E-12	512.179E-3	27.5146E-3
4.67484E-3	181.799E-12	483.443E-3	4.88212E-3	182.670E-12	510.037E-3	16.2534E-3
4.66983E-3	181.382E-12	507.149E-3	-15.7949E-3	184.035E-12	520.695E-3	-14.9835E-3
4.66483E-3	183.437E-12	494.175E-3	-26.0051E-3	184.903E-12	554.746E-3	-25.1268E-3
4.65983E-3	184.703E-12	487.190E-3	-24.5443E-3	186.201E-12	578.384E-3	-11.9291E-3
4.65483E-3	186.340E-12	509.324E-3	-4.44131E-3	188.569E-12	582.072E-3	4.60910E-3
4.64982E-3	186.178E-12	526.415E-3	-10.2412E-3	190.161E-12	563.287E-3	22.9471E-3
4.64482E-3	188.422E-12	527.347E-3	-30.1163E-3	190.775E-12	536.023E-3	12.9748E-3
4.63982E-3	189.575E-12	541.662E-3	-31.4246E-3	192.525E-12	550.610E-3	-29.0270E-3
4.63482E-3	189.782E-12	549.154E-3	-10.0580E-3	193.993E-12	579.740E-3	-39.5159E-3
4.62981E-3	189.842E-12	534.492E-3	-15.1374E-3	194.184E-12	576.621E-3	-23.3469E-3
4.62481E-3	190.228E-12	523.335E-3	-48.8497E-3	193.568E-12	559.397E-3	-27.2017E-3
4.61981E-3	191.683E-12	529.943E-3	-41.2884E-3	192.765E-12	571.068E-3	-21.8319E-3
4.61481E-3	189.913E-12	552.756E-3	-16.7508E-3	192.470E-12	592.348E-3	-3.53891E-3
4.60980E-3	189.180E-12	544.092E-3	-13.6769E-3	191.641E-12	585.992E-3	1.94001E-3
4.60480E-3	186.342E-12	527.646E-3	909.267E-6	188.701E-12	564.473E-3	-21.3445E-3
4.59980E-3	185.744E-12	535.357E-3	4.71850E-3	186.436E-12	541.887E-3	-41.0288E-3
4.59480E-3	185.266E-12	544.140E-3	-29.2946E-3	185.470E-12	534.202E-3	-16.3731E-3
4.58979E-3	184.277E-12	543.530E-3	-65.3916E-3	184.420E-12	534.023E-3	-3.80575E-3
4.58479E-3	182.555E-12	527.528E-3	-47.6969E-3	183.246E-12	535.445E-3	-16.9718E-3
4.57979E-3	181.503E-12	521.647E-3	-4.73613E-3	181.235E-12	543.617E-3	-7.89968E-3
4.57479E-3	182.595E-12	551.193E-3	2.19843E-3	180.944E-12	535.321E-3	6.83715E-3
4.56978E-3	182.415E-12	574.250E-3	-15.6092E-3	181.037E-12	502.504E-3	7.45942E-3
4.56478E-3	183.116E-12	549.379E-3	-34.9859E-3	182.510E-12	500.876E-3	-132.003E-6
4.55978E-3	182.255E-12	520.746E-3	-41.0587E-3	181.066E-12	547.011E-3	-15.4467E-3
4.55478E-3	183.724E-12	516.527E-3	-38.6571E-3	182.461E-12	577.895E-3	-34.5208E-3
4.54977E-3	185.199E-12	520.062E-3	-42.7957E-3	183.761E-12	567.635E-3	-40.1814E-3
4.54477E-3	186.514E-12	530.639E-3	-46.6460E-3	186.193E-12	545.931E-3	-34.4400E-3
4.53977E-3	186.283E-12	536.063E-3	-43.7195E-3	186.803E-12	546.418E-3	-41.6840E-3
4.53477E-3	186.920E-12	523.070E-3	-37.7978E-3	188.253E-12	558.171E-3	-38.9827E-3
4.52976E-3	188.666E-12	518.730E-3	-31.1082E-3	188.517E-12	551.741E-3	-5.68393E-3
4.52476E-3	187.565E-12	539.728E-3	-35.3749E-3	189.415E-12	525.399E-3	5.51771E-3
4.51976E-3	187.890E-12	575.224E-3	-43.9192E-3	189.164E-12	506.793E-3	-21.4533E-3
4.51476E-3	185.983E-12	594.755E-3	-43.8832E-3	188.244E-12	521.893E-3	-32.5290E-3
4.50975E-3	185.851E-12	581.102E-3	-38.4605E-3	187.432E-12	543.930E-3	-6.96478E-3
4.50475E-3	184.134E-12	577.803E-3	-18.0738E-3	186.038E-12	522.053E-3	10.1229E-3
4.49975E-3	181.631E-12	580.769E-3	5.48120E-3	183.732E-12	494.799E-3	-41.8270E-6
4.49475E-3	180.301E-12	581.716E-3	10.4524E-3	181.513E-12	509.157E-3	-9.70160E-3
4.48974E-3	179.818E-12	585.708E-3	-13.6158E-3	179.925E-12	526.965E-3	-904.681E-6
4.48474E-3	179.099E-12	564.716E-3	-33.0919E-3	178.353E-12	529.209E-3	14.1876E-3
4.47974E-3	177.565E-12	530.650E-3	-7.65861E-3	177.754E-12	514.859E-3	8.55468E-3
4.47474E-3	177.353E-12	513.300E-3	18.1132E-3	176.028E-12	517.472E-3	-8.97799E-3
4.46973E-3	176.985E-12	519.707E-3	9.28797E-3	174.597E-12	549.406E-3	-18.4858E-3
4.46473E-3	177.508E-12	518.962E-3	-11.2319E-3	174.327E-12	552.859E-3	-25.7940E-3
4.45973E-3	177.064E-12	516.244E-3	-27.1582E-3	174.410E-12	520.724E-3	-44.2570E-3
4.45473E-3	177.557E-12	534.337E-3	-27.7807E-3	175.531E-12	503.771E-3	-60.4287E-3
4.44972E-3	178.405E-12	530.854E-3	-19.8510E-3	175.405E-12	496.326E-3	-46.0949E-3
4.44472E-3	179.575E-12	494.456E-3	-32.2964E-3	177.146E-12	491.067E-3	-22.4915E-3
4.43972E-3	179.619E-12	484.424E-3	-48.9386E-3	178.131E-12	520.313E-3	-16.0565E-3
4.43472E-3	180.886E-12	504.773E-3	-26.9079E-3	179.207E-12	561.156E-3	-18.6812E-3
4.42971E-3	181.140E-12	510.983E-3	-1.09532E-3	180.313E-12	569.306E-3	-23.2203E-3
4.42471E-3	180.372E-12	506.036E-3	-451.930E-6	181.641E-12	545.750E-3	-16.1245E-3
4.41971E-3	179.765E-12	513.764E-3	-6.49753E-3	181.050E-12	545.016E-3	-7.89283E-3
4.41471E-3	180.747E-12	513.451E-3	-27.9129E-3	182.520E-12	561.526E-3	-14.4434E-3
4.40970E-3	179.860E-12	515.279E-3	-51.7775E-3	182.975E-12	554.637E-3	-16.2462E-3
4.40470E-3	179.549E-12	536.053E-3	-52.3487E-3	181.789E-12	536.737E-3	-18.2839E-3
4.39970E-3	178.209E-12	536.089E-3	-36.2481E-3	179.900E-12	511.257E-3	-30.5689E-3
4.39470E-3	177.878E-12	538.628E-3	-30.9085E-3	178.725E-12	504.286E-3	-27.3493E-3
4.38969E-3	176.533E-12	569.198E-3	-24.2406E-3	177.546E-12	507.978E-3	-20.5540E-3
4.38469E-3	175.966E-12	572.739E-3	-9.15285E-3	176.526E-12	510.122E-3	-33.3342E-3
4.37969E-3	175.376E-12	533.338E-3	-7.05938E-3	174.478E-12	543.993E-3	-36.7062E-3
4.37469E-3	174.539E-12	501.425E-3	-15.1100E-3	173.543E-12	561.605E-3	-35.7500E-3
4.36968E-3	175.467E-12	506.295E-3	-37.7337E-3	173.809E-12	542.062E-3	-30.5767E-3
4.36468E-3	174.740E-12	535.951E-3	-55.1674E-3	173.440E-12	526.623E-3	4.94224E-3
4.35968E-3	173.849E-12	549.464E-3	-47.9840E-3	173.224E-12	533.499E-3	21.7595E-3
4.35468E-3	174.226E-12	528.162E-3	-44.4443E-3	173.932E-12	551.510E-3	-13.1583E-3
4.34967E-3	175.298E-12	517.083E-3	-35.1444E-3	174.507E-12	555.516E-3	-44.4253E-3
4.34467E-3	176.384E-12	545.464E-3	-2.14151E-3	176.098E-12	548.232E-3	-63.1791E-3
4.33967E-3	176.202E-12	560.653E-3	14.3205E-3	176.718E-12	542.759E-3	-74.2277E-3
4.33467E-3	176.786E-12	536.403E-3	3.96292E-3	178.770E-12	549.648E-3	-51.1506E-3
4.32966E-3	176.736E-12	515.089E-3	6.17052E-3	179.938E-12	556.311E-3	-30.0555E-3
4.32466E-3	178.823E-12	523.821E-3	19.6270E-3	181.601E-12	547.653E-3	-25.9472E-3
4.31966E-3	178.250E-12	562.914E-3	17.8133E-3	182.029E-12	551.384E-3	-4.26955E-3
4.31466E-3	179.039E-12	579.124E-3	17.6752E-3	183.205E-12	564.314E-3	16.0939E-3
4.30965E-3	178.061E-12	557.085E-3	17.0347E-3	183.732E-12	547.341E-3	3.36637E-3
4.30465E-3	178.908E-12	541.280E-3	-6.14970E-3	183.275E-12	514.921E-3	-21.5822E-3
4.29965E-3	178.670E-12	555.368E-3	-1.24039E-3	181.803E-12	508.954E-3	-22.6813E-3
4.29465E-3	178.767E-12	566.013E-3	47.8324E-3	180.908E-12	523.508E-3	-25.9653E-3
4.28964E-3	177.373E-12	552.817E-3	61.9591E-3	179.404E-12	532.512E-3	-38.9052E-3
4.28464E-3	176.278E-12	541.120E-3	33.2818E-3	177.376E-12	536.075E-3	-16.1591E-3
4.27964E-3	175.494E-12	526.531E-3	11.3221E-3	175.482E-12	539.657E-3	6.15922E-3
4.27464E-3	174.382E-12	530.784E-3	-20.0729E-3	174.954E-12	537.013E-3	-20.2776E-3
4.26963E-3	172.718E-12	557.128E-3	-55.4695E-3	173.277E-12	523.460E-3	-57.7699E-3
4.26463E-3	172.868E-12	565.103E-3	-53.9309E-3	172.420E-12	509.979E-3	-60.1636E-3
4.25963E-3	172.529E-12	549.942E-3	-39.9807E-3	171.729E-12	516.649E-3	-35.3281E-3
4.25463E-3	171.273E-12	541.907E-3	-22.8061E-3	171.063E-12	534.187E-3	-15.2194E-3
4.24962E-3	170.523E-12	551.168E-3	-1.14036E-3	170.826E-12	537.828E-3	-7.95189E-3
4.24462E-3	170.454E-12	564.723E-3	-11.9466E-3	171.127E-12	551.558E-3	-16.3395E-3
4.23962E-3	171.673E-12	571.588E-3	-37.6438E-3	171.429E-12	555.624E-3	-33.4888E-3
4.23462E-3	171.489E-12	562.667E-3	-30.3062E-3	171.277E-12	547.410E-3	-31.7078E-3
4.22961E-3	171.409E-12	543.524E-3	-25.6203E-3	172.195E-12	557.287E-3	-4.17710E-3
4.22461E-3	173.124E-12	530.551E-3	-40.0491E-3	173.391E-12	570.657E-3	9.41489E-3
4.21961E-3	172.983E-12	533.307E-3	-21.6378E-3	173.160E-12	575.496E-3	-17.7224E-3
4.21461E-3	173.943E-12	542.671E-3	-11.1264E-3	173.495E-12	564.697E-3	-39.5168E-3
4.20960E-3	174.031E-12	553.502E-3	-41.4852E-3	173.338E-12	557.189E-3	-29.5814E-3
4.20460E-3	174.246E-12	567.498E-3	-53.5131E-3	172.869E-12	557.132E-3	-18.9850E-3
4.19960E-3	172.988E-12	576.415E-3	-47.9427E-3	171.506E-12	554.816E-3	-18.3658E-3
4.19460E-3	172.499E-12	561.927E-3	-39.6496E-3	170.659E-12	556.121E-3	-17.2838E-3
4.18959E-3	172.539E-12	538.398E-3	-5.83602E-3	169.427E-12	546.393E-3	-7.84664E-3
4.18459E-3	170.726E-12	529.030E-3	7.41759E-3	168.218E-12	534.978E-3	-10.8871E-3
4.17959E-3	168.796E-12	527.771E-3	-23.6108E-3	166.573E-12	535.733E-3	-24.4547E-3
4.17459E-3	167.837E-12	530.722E-3	-49.6140E-3	165.224E-12	529.936E-3	-22.1382E-3
4.16958E-3	167.346E-12	528.656E-3	-41.7696E-3	164.587E-12	519.769E-3	-15.4981E-3
4.16458E-3	165.822E-12	524.372E-3	-34.2451E-3	163.063E-12	520.173E-3	-3.10901E-3
4.15958E-3	165.222E-12	532.163E-3	-40.3474E-3	162.711E-12	539.132E-3	-177.237E-6
4.15458E-3	164.586E-12	531.877E-3	-27.5210E-3	162.561E-12	556.768E-3	-20.9411E-3
4.14957E-3	164.461E-12	540.593E-3	-15.8387E-3	162.717E-12	536.787E-3	-22.0519E-3
4.14457E-3	165.302E-12	571.466E-3	-12.7530E-3	161.694E-12	515.810E-3	-9.00220E-3
4.13957E-3	164.739E-12	555.569E-3	-6.83066E-3	162.803E-12	528.634E-3	-13.2380E-3
4.13457E-3	165.547E-12	515.162E-3	-12.3980E-3	165.219E-12	533.512E-3	-14.1176E-3
4.12956E-3	167.301E-12	523.756E-3	-28.8574E-3	166.476E-12	536.407E-3	-3.31699E-3
4.12456E-3	168.729E-12	562.006E-3	-31.2433E-3	166.113E-12	527.746E-3	-11.2062E-3
4.11956E-3	169.304E-12	582.338E-3	-10.1754E-3	167.690E-12	497.176E-3	-24.1617E-3
4.11456E-3	169.720E-12	575.934E-3	5.12757E-3	170.249E-12	506.968E-3	-12.5519E-3
4.10955E-3	168.943E-12	556.477E-3	6.99266E-3	171.491E-12	552.204E-3	2.42747E-3
4.10455E-3	170.413E-12	529.938E-3	4.41987E-3	171.848E-12	583.768E-3	16.0202E-3
4.09955E-3	170.302E-12	511.891E-3	-19.6788E-3	171.255E-12	589.298E-3	2.16894E-3
4.09455E-3	169.023E-12	512.921E-3	-32.0456E-3	172.167E-12	563.653E-3	-52.8762E-3
4.08954E-3	167.449E-12	522.118E-3	-7.71852E-3	172.613E-12	528.958E-3	-69.7419E-3
4.08454E-3	167.721E-12	541.608E-3	20.9700E-3	172.317E-12	532.810E-3	-30.2665E-3
4.07954E-3	167.476E-12	571.748E-3	26.3745E-3	169.354E-12	546.104E-3	2.97832E-3
4.07454E-3	165.752E-12	575.043E-3	-6.81804E-3	168.472E-12	546.460E-3	8.54259E-3
4.06953E-3	165.475E-12	567.312E-3	-18.4435E-3	167.446E-12	545.871E-3	-1.53528E-3
4.06453E-3	164.165E-12	556.439E-3	4.48633E-3	166.376E-12	530.308E-3	-19.0440E-3
4.05953E-3	164.023E-12	535.602E-3	-4.28115E-3	164.781E-12	530.197E-3	-28.1083E-3
4.05453E-3	164.055E-12	546.419E-3	-40.4062E-3	164.261E-12	549.109E-3	-13.5853E-3
4.04952E-3	163.187E-12	555.691E-3	-39.4289E-3	164.426E-12	537.059E-3	-5.72501E-3
4.04452E-3	164.063E-12	534.093E-3	-24.2459E-3	163.711E-12	515.193E-3	-25.1654E-3
4.03952E-3	165.049E-12	532.180E-3	-37.4679E-3	164.334E-12	521.686E-3	-50.9845E-3
4.03452E-3	165.292E-12	548.591E-3	-36.6201E-3	165.008E-12	547.052E-3	-50.5892E-3
4.02951E-3	165.025E-12	546.332E-3	-14.3128E-3	166.057E-12	565.497E-3	-37.6821E-3
4.02451E-3	165.958E-12	543.802E-3	-7.94123E-3	166.838E-12	569.210E-3	-22.4670E-3
4.01951E-3	166.471E-12	540.911E-3	-5.40064E-3	167.564E-12	573.723E-3	-18.4891E-3
4.01451E-3	166.813E-12	528.918E-3	7.76489E-3	169.163E-12	581.848E-3	-41.3168E-3
4.00950E-3	166.401E-12	549.983E-3	-2.60533E-3	170.579E-12	595.040E-3	-41.6936E-3
4.00450E-3	166.203E-12	589.084E-3	-15.8367E-3	170.103E-12	605.971E-3	-13.5809E-3
3.99950E-3	166.965E-12	577.804E-3	3.23683E-3	169.857E-12	578.890E-3	4.29422E-3
3.99450E-3	166.886E-12	549.986E-3	19.0607E-3	169.908E-12	537.140E-3	-15.5763E-3
3.98949E-3	166.293E-12	560.863E-3	13.5928E-3	169.845E-12	529.940E-3	-35.6789E-3
3.98449E-3	164.343E-12	563.772E-3	945.016E-6	169.136E-12	533.977E-3	-26.7457E-3
3.97949E-3	163.603E-12	553.952E-3	-26.0491E-3	167.186E-12	530.953E-3	-28.8201E-3
3.97449E-3	162.928E-12	549.643E-3	-35.6639E-3	166.241E-12	543.204E-3	-37.1809E-3
3.96948E-3	162.858E-12	544.108E-3	-21.0270E-3	164.549E-12	566.089E-3	-21.1057E-3
3.96448E-3	160.869E-12	547.225E-3	-14.2434E-3	162.048E-12	567.265E-3	-2.81459E-3
3.95948E-3	160.488E-12	544.711E-3	-20.6742E-3	160.866E-12	550.968E-3	-3.00369E-3
3.95448E-3	160.899E-12	534.666E-3	-34.2726E-3	159.703E-12	545.199E-3	-9.96133E-3
3.94947E-3	159.952E-12	535.186E-3	-36.4777E-3	157.344E-12	541.560E-3	-22.9690E-3
3.94447E-3	159.954E-12	548.192E-3	-32.0440E-3	155.856E-12	534.353E-3	-29.0408E-3
3.93947E-3	159.338E-12	547.926E-3	-39.6673E-3	156.161E-12	527.737E-3	-31.7856E-3
3.93447E-3	159.532E-12	542.494E-3	-39.2182E-3	155.814E-12	514.311E-3	-21.8577E-3
3.92946E-3	159.351E-12	563.198E-3	-25.9416E-3	155.908E-12	511.589E-3	180.934E-6
3.92446E-3	160.514E-12	584.402E-3	-36.2435E-3	156.825E-12	532.550E-3	-3.43806E-3
3.91946E-3	160.392E-12	571.482E-3	-35.5852E-3	158.448E-12	561.127E-3	-33.2544E-3
3.91446E-3	160.295E-12	556.425E-3	-13.4543E-3	159.086E-12	562.693E-3	-51.8507E-3
3.90945E-3	160.616E-12	565.221E-3	-22.3755E-3	160.531E-12	537.649E-3	-39.1047E-3
3.90445E-3	160.246E-12	577.939E-3	-41.8392E-3	162.402E-12	528.908E-3	-28.8870E-3
3.89945E-3	161.342E-12	580.719E-3	-28.1387E-3	163.306E-12	559.897E-3	-33.5424E-3
3.89445E-3	160.748E-12	569.589E-3	-3.23743E-3	163.274E-12	590.317E-3	-35.8427E-3
3.88944E-3	160.182E-12	549.826E-3	-3.31257E-3	163.189E-12	580.574E-3	-37.4846E-3
3.88444E-3	158.722E-12	546.720E-3	-4.62555E-3	163.158E-12	554.202E-3	-33.6970E-3
3.87944E-3	158.950E-12	544.886E-3	48.4276E-6	163.785E-12	532.540E-3	-13.7603E-3
3.87444E-3	158.338E-12	530.003E-3	-6.50154E-3	162.504E-12	513.511E-3	-3.24272E-3
3.86943E-3	157.936E-12	530.876E-3	-19.1035E-3	159.996E-12	502.327E-3	1.16782E-3
3.86443E-3	157.928E-12	529.505E-3	-27.3592E-3	158.220E-12	506.080E-3	12.0048E-3
3.85943E-3	156.641E-12	519.094E-3	-20.8826E-3	157.607E-12	518.322E-3	-4.89815E-3
3.85443E-3	156.299E-12	517.511E-3	-12.3144E-3	155.687E-12	530.585E-3	-16.0868E-3
3.84942E-3	156.290E-12	517.948E-3	-4.66718E-3	153.274E-12	530.828E-3	-11.9771E-3
3.84442E-3	155.716E-12	514.864E-3	-1.57186E-3	152.060E-12	526.885E-3	-20.0126E-3
3.83942E-3	154.188E-12	518.148E-3	-6.93929E-3	151.600E-12	519.877E-3	-14.1017E-3
3.83442E-3	155.353E-12	530.812E-3	-11.4164E-3	151.043E-12	519.906E-3	-5.39922E-3
3.82941E-3	155.501E-12	533.950E-3	-24.4422E-3	151.325E-12	552.140E-3	-21.3791E-3
3.82441E-3	155.329E-12	536.902E-3	-40.6119E-3	152.935E-12	572.678E-3	-36.5803E-3
3.81941E-3	154.984E-12	536.039E-3	-46.0677E-3	153.368E-12	570.987E-3	-30.0224E-3
3.81441E-3	155.904E-12	535.055E-3	-38.3776E-3	153.986E-12	568.605E-3	-16.9359E-3
3.80940E-3	156.985E-12	549.282E-3	-22.5249E-3	155.849E-12	564.035E-3	-227.505E-6
3.80440E-3	157.099E-12	558.073E-3	-10.4693E-3	158.191E-12	573.409E-3	8.80645E-3
3.79940E-3	157.598E-12	552.804E-3	-7.28251E-3	159.586E-12	593.655E-3	8.20067E-3
3.79440E-3	158.330E-12	547.678E-3	-10.9880E-3	160.265E-12	598.761E-3	-1.05988E-3
3.78939E-3	158.101E-12	549.273E-3	-2.80404E-3	161.085E-12	571.994E-3	-26.4324E-3
3.78439E-3	157.621E-12	554.869E-3	3.17318E-3	161.892E-12	551.280E-3	-40.2733E-3
3.77939E-3	157.229E-12	572.765E-3	-33.7641E-3	163.292E-12	554.344E-3	-31.9604E-3
3.77439E-3	157.100E-12	578.403E-3	-76.9917E-3	161.873E-12	544.609E-3	-16.5825E-3
3.76938E-3	156.837E-12	544.273E-3	-79.5949E-3	160.548E-12	541.026E-3	4.39646E-3
3.76438E-3	156.156E-12	517.905E-3	-48.9382E-3	159.031E-12	553.293E-3	11.8721E-3
3.75938E-3	154.945E-12	522.726E-3	-13.3056E-3	157.749E-12	559.084E-3	-3.03695E-3
3.75438E-3	153.432E-12	538.346E-3	5.01076E-3	156.053E-12	565.264E-3	-22.5026E-3
3.74937E-3	153.009E-12	558.818E-3	-16.1587E-3	153.043E-12	577.173E-3	-37.9003E-3
3.74437E-3	153.128E-12	583.660E-3	-48.3049E-3	151.903E-12	573.344E-3	-30.7421E-3
3.73937E-3	152.216E-12	588.584E-3	-40.4075E-3	150.710E-12	545.216E-3	-1.04769E-3
3.73437E-3	151.901E-12	552.567E-3	-20.7049E-3	150.006E-12	523.074E-3	9.60112E-3
3.72936E-3	151.521E-12	535.610E-3	-18.1435E-3	149.015E-12	524.571E-3	-7.96802E-3
3.72436E-3	152.179E-12	549.788E-3	-10.4777E-3	149.578E-12	531.756E-3	-21.8519E-3
3.71936E-3	153.284E-12	547.886E-3	13.6797E-3	149.989E-12	548.479E-3	-39.7449E-3
3.71436E-3	154.360E-12	544.161E-3	20.4082E-3	150.904E-12	576.053E-3	-65.1912E-3
3.70935E-3	153.453E-12	558.378E-3	2.27550E-3	151.828E-12	572.288E-3	-68.7150E-3
3.70435E-3	154.091E-12	573.934E-3	-6.85140E-3	153.416E-12	542.045E-3	-51.1993E-3
3.69935E-3	155.164E-12	572.452E-3	3.12604E-3	154.559E-12	539.413E-3	-31.9994E-3
3.69435E-3	156.441E-12	555.019E-3	-3.16722E-3	155.022E-12	565.210E-3	-22.9498E-3
3.68934E-3	155.884E-12	539.255E-3	-29.0794E-3	156.736E-12	571.095E-3	-25.0376E-3
3.68434E-3	155.186E-12	545.738E-3	-36.3174E-3	157.270E-12	554.272E-3	-30.5265E-3
3.67934E-3	154.521E-12	572.796E-3	-21.5956E-3	158.439E-12	553.669E-3	-31.9135E-3
3.67434E-3	154.916E-12	585.292E-3	-3.88788E-3	157.893E-12	566.320E-3	-16.6710E-3
3.66933E-3	153.442E-12	564.451E-3	4.43291E-3	157.469E-12	567.862E-3	18.0070E-3
3.66433E-3	152.479E-12	558.116E-3	1.52090E-3	155.827E-12	554.776E-3	22.8797E-3
3.65933E-3	150.749E-12	570.569E-3	-2.07598E-3	154.889E-12	557.651E-3	-4.16758E-3
3.65433E-3	149.057E-12	576.673E-3	-9.98523E-3	153.479E-12	565.946E-3	-17.1963E-3
3.64932E-3	148.997E-12	573.373E-3	-21.5322E-3	150.065E-12	557.379E-3	-22.2035E-3
3.64432E-3	147.229E-12	547.877E-3	-9.05006E-3	148.525E-12	553.775E-3	-24.3940E-3
3.63932E-3	146.232E-12	534.545E-3	654.236E-6	147.911E-12	541.724E-3	-23.5675E-3
3.63432E-3	145.558E-12	544.645E-3	-6.72734E-3	146.678E-12	537.285E-3	-26.4737E-3
3.62931E-3	146.087E-12	536.370E-3	-18.7233E-3	143.862E-12	543.274E-3	-27.8915E-3
3.62431E-3	145.805E-12	532.168E-3	-35.2526E-3	142.724E-12	540.378E-3	-14.5566E-3
3.61931E-3	145.977E-12	559.104E-3	-30.0860E-3	143.184E-12	539.326E-3	-1.57233E-3
3.61431E-3	146.579E-12	577.765E-3	-20.6881E-3	144.111E-12	531.375E-3	-8.38839E-3
3.60930E-3	147.375E-12	565.148E-3	-28.4984E-3	143.161E-12	517.698E-3	-7.66505E-3
3.60430E-3	147.571E-12	541.348E-3	-29.5240E-3	142.520E-12	513.401E-3	-681.405E-6
3.59930E-3	147.539E-12	526.010E-3	-12.0811E-3	144.233E-12	524.390E-3	-6.86530E-3
3.59430E-3	148.615E-12	522.133E-3	1.11754E-3	146.176E-12	544.927E-3	-7.76624E-3
3.58929E-3	148.827E-12	532.680E-3	-5.15071E-3	147.055E-12	555.010E-3	6.72974E-3
3.58429E-3	148.881E-12	548.663E-3	-3.03007E-3	147.311E-12	547.311E-3	11.1767E-3
3.57929E-3	147.573E-12	536.018E-3	11.5547E-3	148.595E-12	535.959E-3	-1.37648E-3
3.57429E-3	147.500E-12	523.453E-3	1.33513E-3	150.267E-12	539.565E-3	-1.78988E-3
3.56928E-3	147.460E-12	558.573E-3	-20.6550E-3	151.073E-12	554.071E-3	-1.28852E-3
3.56428E-3	147.177E-12	583.658E-3	-31.5453E-3	150.708E-12	559.969E-3	-21.8414E-3
3.55928E-3	146.018E-12	570.392E-3	-32.2848E-3	149.238E-12	556.015E-3	-41.5783E-3
3.55428E-3	144.434E-12	553.435E-3	-15.7243E-3	149.358E-12	546.403E-3	-40.8829E-3
3.54927E-3	143.987E-12	547.952E-3	8.03551E-3	149.373E-12	553.384E-3	-20.2274E-3
3.54427E-3	143.594E-12	560.261E-3	21.2445E-3	148.024E-12	575.947E-3	3.83789E-3
3.53927E-3	144.139E-12	556.468E-3	23.8881E-3	146.038E-12	572.837E-3	11.0579E-3
3.53427E-3	143.061E-12	539.336E-3	1.54475E-3	144.788E-12	553.697E-3	-835.710E-6
3.52926E-3	142.837E-12	543.574E-3	-31.3547E-3	144.446E-12	540.694E-3	-10.9736E-3
3.52426E-3	143.144E-12	546.000E-3	-25.1998E-3	144.379E-12	523.408E-3	-14.6465E-3
3.51926E-3	144.413E-12	540.869E-3	-18.5309E-3	143.920E-12	526.976E-3	-22.1747E-3
3.51426E-3	144.685E-12	537.836E-3	-39.3683E-3	142.776E-12	551.965E-3	-13.4011E-3
3.50925E-3	144.961E-12	543.944E-3	-43.7861E-3	142.123E-12	552.867E-3	6.63119E-3
3.50425E-3	145.873E-12	554.111E-3	-35.0186E-3	142.848E-12	545.091E-3	-571.010E-6
3.49925E-3	147.083E-12	555.989E-3	-28.8685E-3	144.045E-12	552.928E-3	-12.3398E-3
3.49425E-3	147.408E-12	553.319E-3	-17.6241E-3	144.656E-12	579.524E-3	-4.19048E-3
3.48924E-3	147.000E-12	537.446E-3	-13.3314E-3	145.217E-12	597.984E-3	-189.252E-6
3.48424E-3	147.492E-12	532.392E-3	-30.3060E-3	147.127E-12	571.080E-3	-4.38343E-3
3.47924E-3	148.475E-12	565.949E-3	-31.2831E-3	148.142E-12	552.370E-3	-4.74640E-3
3.47424E-3	148.123E-12	589.037E-3	-12.0448E-3	149.328E-12	569.969E-3	10.9383E-3
3.46923E-3	147.846E-12	584.936E-3	-19.8506E-3	150.710E-12	576.179E-3	13.9218E-3
3.46423E-3	147.494E-12	574.579E-3	-29.5692E-3	151.176E-12	579.136E-3	-8.91477E-3
3.45923E-3	146.914E-12	558.838E-3	-6.37586E-3	151.328E-12	590.646E-3	-19.8183E-3
3.45423E-3	146.016E-12	548.260E-3	-3.74974E-3	151.009E-12	577.736E-3	-14.2883E-3
3.44922E-3	145.790E-12	551.547E-3	-28.7950E-3	150.091E-12	559.861E-3	-12.5575E-3
3.44422E-3	145.336E-12	555.369E-3	-32.2594E-3	148.833E-12	567.435E-3	-21.7039E-3
3.43922E-3	144.134E-12	531.135E-3	-16.1260E-3	147.811E-12	565.919E-3	-19.5998E-3
3.43422E-3	143.356E-12	527.337E-3	-889.031E-6	145.701E-12	547.311E-3	-9.01351E-3
3.42921E-3	143.074E-12	548.394E-3	-10.4383E-3	143.722E-12	532.305E-3	-19.4870E-3
3.42421E-3	142.684E-12	542.145E-3	-41.0394E-3	142.656E-12	528.591E-3	-40.6271E-3
3.41921E-3	142.796E-12	547.421E-3	-59.5746E-3	141.467E-12	535.736E-3	-52.9707E-3
3.41421E-3	142.265E-12	575.117E-3	-46.7341E-3	140.586E-12	544.365E-3	-46.0632E-3
3.40920E-3	142.614E-12	590.459E-3	-21.2349E-3	139.271E-12	544.584E-3	-27.9802E-3
3.40420E-3	142.811E-12	592.710E-3	-8.15723E-3	138.713E-12	530.986E-3	-25.1315E-3
3.39920E-3	143.025E-12	581.917E-3	-14.1889E-3	138.551E-12	525.782E-3	-35.1256E-3
3.39420E-3	143.247E-12	567.135E-3	-37.0438E-3	138.828E-12	534.875E-3	-50.1548E-3
3.38919E-3	143.743E-12	559.256E-3	-46.0216E-3	139.146E-12	540.746E-3	-50.6263E-3
3.38419E-3	143.417E-12	553.867E-3	-26.9176E-3	139.552E-12	550.673E-3	-23.0514E-3
3.37919E-3	143.947E-12	562.416E-3	-5.24651E-3	140.240E-12	550.621E-3	-9.61408E-3
3.37419E-3	144.020E-12	587.804E-3	-336.217E-6	140.177E-12	535.693E-3	-29.7689E-3
3.36918E-3	143.895E-12	602.252E-3	-24.5914E-3	141.591E-12	551.169E-3	-38.8409E-3
3.36418E-3	142.961E-12	588.482E-3	-43.4152E-3	141.502E-12	574.770E-3	-30.8540E-3
3.35918E-3	143.274E-12	578.397E-3	-28.0289E-3	140.930E-12	548.306E-3	-36.0049E-3
3.35418E-3	141.636E-12	575.289E-3	-14.1534E-3	140.703E-12	506.821E-3	-34.4932E-3
3.34917E-3	139.503E-12	567.353E-3	-15.9428E-3	140.901E-12	506.309E-3	-25.6046E-3
3.34417E-3	139.122E-12	577.511E-3	-22.6123E-3	140.161E-12	525.837E-3	-29.3994E-3
3.33917E-3	138.808E-12	569.277E-3	-22.4818E-3	138.422E-12	541.813E-3	-30.8485E-3
3.33417E-3	137.268E-12	542.171E-3	-22.0822E-3	137.630E-12	540.023E-3	-29.2496E-3
3.32916E-3	135.938E-12	542.294E-3	-35.9052E-3	136.535E-12	512.397E-3	-29.0126E-3
3.32416E-3	134.724E-12	552.085E-3	-44.8569E-3	135.624E-12	510.535E-3	-26.3894E-3
3.31916E-3	134.440E-12	542.076E-3	-42.7270E-3	134.392E-12	539.572E-3	-15.9992E-3
3.31416E-3	134.173E-12	533.862E-3	-41.6634E-3	132.697E-12	558.268E-3	-7.00677E-3
3.30915E-3	133.637E-12	538.213E-3	-31.8474E-3	131.830E-12	555.558E-3	-1.10604E-3
3.30415E-3	132.689E-12	536.808E-3	-17.3824E-3	132.800E-12	541.961E-3	3.88694E-3
3.29915E-3	134.674E-12	539.013E-3	-8.69630E-3	133.122E-12	531.674E-3	-8.86611E-3
3.29415E-3	135.177E-12	535.878E-3	4.60905E-3	132.765E-12	527.143E-3	-23.6259E-3
3.28914E-3	135.244E-12	521.498E-3	8.69740E-3	134.404E-12	534.891E-3	-19.0684E-3
3.28414E-3	135.889E-12	514.036E-3	-11.2920E-3	135.270E-12	556.175E-3	-8.34968E-3
3.27914E-3	136.585E-12	520.248E-3	-24.9590E-3	135.396E-12	567.435E-3	-11.8685E-3
3.27414E-3	137.387E-12	534.673E-3	1.40988E-3	135.559E-12	557.388E-3	-32.2870E-3
3.26913E-3	137.901E-12	545.893E-3	20.7267E-3	136.840E-12	549.794E-3	-43.9996E-3
3.26413E-3	138.541E-12	547.943E-3	-8.41225E-3	138.303E-12	557.000E-3	-23.6899E-3
3.25913E-3	137.748E-12	538.372E-3	-28.1585E-3	138.250E-12	557.642E-3	-7.97130E-3
3.25413E-3	138.030E-12	537.917E-3	-28.8592E-3	138.995E-12	552.809E-3	-14.3326E-3
3.24912E-3	137.150E-12	552.351E-3	-35.4262E-3	138.987E-12	562.429E-3	-5.09640E-3
3.24412E-3	136.565E-12	549.244E-3	-35.0014E-3	138.868E-12	563.217E-3	-913.217E-6
3.23912E-3	134.249E-12	544.836E-3	-32.3015E-3	138.146E-12	539.413E-3	-12.3857E-3
3.23412E-3	133.702E-12	558.460E-3	-29.5522E-3	138.207E-12	533.022E-3	-4.45026E-3
3.22911E-3	134.225E-12	558.294E-3	-22.9516E-3	136.617E-12	548.631E-3	-4.01181E-3
3.22411E-3	133.094E-12	550.144E-3	-15.8396E-3	135.898E-12	556.966E-3	-29.3847E-3
3.21911E-3	131.750E-12	551.474E-3	-12.8326E-3	134.879E-12	549.840E-3	-47.4614E-3
3.21411E-3	130.939E-12	526.384E-3	-26.9001E-3	135.296E-12	546.889E-3	-43.2563E-3
3.20910E-3	132.039E-12	503.444E-3	-45.3587E-3	135.143E-12	556.232E-3	-27.9160E-3
3.20410E-3	132.526E-12	530.298E-3	-34.4453E-3	133.547E-12	553.963E-3	-16.7002E-3
3.19910E-3	132.371E-12	546.367E-3	-8.73474E-3	133.196E-12	552.481E-3	-17.0724E-3
3.19410E-3	132.722E-12	531.809E-3	193.037E-6	134.781E-12	558.166E-3	-30.3988E-3
3.18909E-3	133.034E-12	537.474E-3	-6.54651E-3	135.614E-12	565.497E-3	-36.4828E-3
3.18409E-3	134.024E-12	555.557E-3	-18.1563E-3	134.620E-12	577.341E-3	-13.2753E-3
3.17909E-3	134.383E-12	550.860E-3	-23.5374E-3	134.618E-12	564.649E-3	2.25684E-3
3.17409E-3	134.973E-12	544.353E-3	-20.6713E-3	135.886E-12	544.661E-3	-10.6314E-3
3.16908E-3	135.278E-12	549.176E-3	-9.52511E-3	137.000E-12	554.823E-3	-25.1146E-3
3.16408E-3	136.157E-12	550.865E-3	797.503E-6	136.123E-12	562.342E-3	-28.9808E-3
3.15908E-3	136.029E-12	559.670E-3	-7.04142E-3	135.760E-12	542.537E-3	-16.2679E-3
3.15408E-3	135.119E-12	581.416E-3	-14.4155E-3	136.670E-12	540.659E-3	-7.12323E-3
3.14907E-3	134.916E-12	583.458E-3	-11.5855E-3	136.615E-12	555.667E-3	-16.1787E-3
3.14407E-3	134.672E-12	562.973E-3	-14.7678E-3	135.916E-12	540.883E-3	-27.6382E-3
3.13907E-3	134.062E-12	563.259E-3	-26.2634E-3	134.510E-12	521.498E-3	-15.4460E-3
3.13407E-3	133.166E-12	575.392E-3	-31.2961E-3	133.420E-12	521.266E-3	11.5145E-3
3.12906E-3	131.282E-12	574.965E-3	-26.1216E-3	132.915E-12	527.002E-3	16.2348E-3
3.12406E-3	130.301E-12	564.048E-3	-22.8980E-3	131.738E-12	544.159E-3	2.85593E-3
3.11906E-3	130.522E-12	543.442E-3	-20.2885E-3	130.070E-12	554.356E-3	-15.5528E-3
3.11406E-3	130.120E-12	533.779E-3	-26.8664E-3	129.146E-12	546.157E-3	-20.5909E-3
3.10905E-3	129.005E-12	552.242E-3	-33.9191E-3	128.709E-12	540.743E-3	2.85797E-3
3.10405E-3	128.682E-12	558.524E-3	-18.5846E-3	127.469E-12	533.623E-3	26.2335E-3
3.09905E-3	130.000E-12	538.110E-3	-16.4795E-3	128.006E-12	534.053E-3	24.0259E-3
3.09405E-3	129.682E-12	546.211E-3	-28.3824E-3	127.309E-12	557.775E-3	-1.75793E-3
3.08904E-3	129.410E-12	571.895E-3	-25.0102E-3	126.602E-12	574.897E-3	-15.2537E-3
3.08404E-3	128.319E-12	575.050E-3	-23.1642E-3	126.562E-12	573.717E-3	-2.10524E-3
3.07904E-3	129.644E-12	573.624E-3	-20.1282E-3	127.544E-12	555.691E-3	-6.44802E-3
3.07404E-3	130.772E-12	559.520E-3	7.14869E-3	127.978E-12	536.318E-3	-38.1677E-3
3.06903E-3	131.014E-12	543.281E-3	13.7482E-3	127.889E-12	533.488E-3	-66.7806E-3
3.06403E-3	129.989E-12	554.293E-3	-10.7230E-3	128.119E-12	522.902E-3	-66.7682E-3
3.05903E-3	130.161E-12	560.871E-3	-12.3213E-3	128.192E-12	522.750E-3	-30.0678E-3
3.05403E-3	131.112E-12	552.702E-3	-12.8780E-3	128.814E-12	561.671E-3	15.4781E-3
3.04902E-3	130.666E-12	555.786E-3	-27.5646E-3	129.360E-12	595.320E-3	23.2145E-3
3.04402E-3	129.430E-12	572.069E-3	-27.7938E-3	129.722E-12	595.553E-3	-710.546E-6
3.03902E-3	127.884E-12	573.062E-3	-19.6452E-3	128.821E-12	566.171E-3	-11.7896E-3
3.03402E-3	128.387E-12	558.779E-3	-27.4332E-3	129.424E-12	534.922E-3	-7.74436E-3
3.02901E-3	128.057E-12	548.361E-3	-38.9284E-3	128.761E-12	539.135E-3	3.84864E-3
3.02401E-3	126.826E-12	540.149E-3	-34.7223E-3	127.656E-12	549.403E-3	18.5771E-3
3.01901E-3	125.236E-12	541.320E-3	-34.3165E-3	126.214E-12	540.520E-3	10.5813E-3
3.01401E-3	124.811E-12	550.610E-3	-27.8698E-3	125.418E-12	542.440E-3	-4.66981E-3
3.00900E-3	124.946E-12	554.151E-3	-12.1276E-3	124.682E-12	544.905E-3	-10.2661E-3
3.00400E-3	124.156E-12	543.757E-3	-27.3026E-3	124.040E-12	537.390E-3	-3.14286E-3
2.99900E-3	123.124E-12	528.390E-3	-40.6687E-3	123.063E-12	547.199E-3	-660.854E-6
2.99400E-3	122.125E-12	519.093E-3	-14.5244E-3	123.003E-12	553.964E-3	-12.2277E-3
2.98899E-3	122.787E-12	517.411E-3	-6.72786E-3	123.335E-12	545.460E-3	-18.6300E-3
2.98399E-3	123.973E-12	526.228E-3	-18.9882E-3	123.773E-12	563.839E-3	-18.9834E-3
2.97899E-3	123.835E-12	536.625E-3	-11.9744E-3	124.376E-12	584.762E-3	-10.2970E-3
2.97399E-3	123.810E-12	545.692E-3	-6.17960E-3	124.429E-12	571.836E-3	-4.66711E-3
2.96898E-3	124.787E-12	552.784E-3	1.10497E-3	126.072E-12	571.559E-3	-10.3543E-3
2.96398E-3	126.000E-12	541.728E-3	5.23186E-3	127.064E-12	588.702E-3	-26.9285E-3
2.95898E-3	126.091E-12	537.288E-3	-6.78757E-3	128.232E-12	594.592E-3	-49.2434E-3
2.95398E-3	126.247E-12	553.988E-3	-10.3110E-3	128.781E-12	594.379E-3	-43.7931E-3
2.94897E-3	125.732E-12	557.094E-3	-18.2309E-3	129.066E-12	584.713E-3	-25.1162E-3
2.94397E-3	126.259E-12	557.656E-3	-27.6861E-3	129.435E-12	576.149E-3	-26.2747E-3
2.93897E-3	126.722E-12	573.323E-3	-18.5944E-3	129.883E-12	583.077E-3	-20.6057E-3
2.93397E-3	125.816E-12	583.623E-3	-5.92395E-3	129.881E-12	588.436E-3	8.03245E-3
2.92896E-3	124.714E-12	589.277E-3	-3.33277E-3	128.400E-12	584.514E-3	24.9861E-3
2.92396E-3	124.845E-12	585.044E-3	-8.81782E-3	128.334E-12	579.568E-3	15.8685E-3
2.91896E-3	125.467E-12	566.993E-3	125.402E-6	127.123E-12	565.273E-3	-5.64434E-3
2.91396E-3	123.918E-12	567.407E-3	13.0662E-3	125.492E-12	550.613E-3	-31.2195E-3
2.90895E-3	122.141E-12	574.850E-3	-5.23743E-3	124.219E-12	552.370E-3	-36.4291E-3
2.90395E-3	122.176E-12	550.185E-3	-28.7189E-3	123.248E-12	542.117E-3	-13.0574E-3
2.89895E-3	122.874E-12	527.295E-3	-20.5537E-3	122.603E-12	518.024E-3	6.79967E-3
2.89395E-3	122.576E-12	538.228E-3	-14.9066E-3	121.257E-12	522.329E-3	3.58933E-3
2.88894E-3	120.260E-12	565.336E-3	-37.0338E-3	120.693E-12	546.631E-3	-11.8061E-3
2.88394E-3	120.165E-12	576.812E-3	-56.0757E-3	120.007E-12	557.874E-3	-27.1227E-3
2.87894E-3	121.996E-12	564.303E-3	-50.4241E-3	119.927E-12	568.129E-3	-22.2315E-3
2.87394E-3	122.686E-12	561.511E-3	-32.8245E-3	120.206E-12	578.974E-3	-17.3906E-3
2.86893E-3	121.493E-12	565.854E-3	-16.4814E-3	121.216E-12	568.334E-3	-22.8421E-3
2.86393E-3	121.298E-12	561.538E-3	1.56310E-3	121.856E-12	550.127E-3	-1.88026E-3
2.85893E-3	122.114E-12	551.864E-3	2.51139E-3	122.910E-12	562.824E-3	19.6934E-3
2.85393E-3	123.963E-12	538.553E-3	-28.4498E-3	123.603E-12	576.189E-3	20.0272E-3
2.84892E-3	123.908E-12	540.394E-3	-35.1506E-3	124.307E-12	563.884E-3	5.03572E-3
2.84392E-3	122.375E-12	554.949E-3	-3.47567E-3	125.052E-12	555.437E-3	-20.8213E-3
2.83892E-3	122.499E-12	555.664E-3	4.41119E-3	124.858E-12	557.049E-3	-26.9947E-3
2.83392E-3	123.789E-12	553.993E-3	-15.4845E-3	124.926E-12	577.867E-3	-12.5544E-3
2.82891E-3	123.548E-12	565.428E-3	-20.3656E-3	124.775E-12	603.624E-3	-14.1287E-3
2.82391E-3	122.016E-12	572.236E-3	-21.1642E-3	124.606E-12	599.063E-3	-32.8173E-3
2.81891E-3	119.675E-12	581.074E-3	-32.2181E-3	122.929E-12	568.232E-3	-41.7621E-3
2.81391E-3	119.772E-12	591.038E-3	-25.7513E-3	121.444E-12	538.209E-3	-48.0674E-3
2.80890E-3	119.019E-12	585.876E-3	-13.5686E-3	120.099E-12	531.227E-3	-47.7866E-3
2.80390E-3	118.159E-12	576.243E-3	-14.5676E-3	118.947E-12	539.071E-3	-29.7674E-3
2.79890E-3	116.776E-12	569.072E-3	-9.64353E-3	117.990E-12	548.729E-3	-14.4927E-3
2.79390E-3	116.727E-12	562.710E-3	-9.38836E-3	116.543E-12	551.771E-3	-11.8569E-3
2.78889E-3	116.861E-12	560.285E-3	-28.3765E-3	115.098E-12	539.694E-3	-10.3415E-3
2.78389E-3	117.025E-12	557.450E-3	-43.7507E-3	114.331E-12	542.637E-3	-6.22431E-3
2.77889E-3	116.162E-12	547.320E-3	-38.7577E-3	114.750E-12	558.718E-3	-8.50094E-3
2.77389E-3	116.695E-12	553.861E-3	-29.4651E-3	115.032E-12	560.451E-3	-6.32799E-3
2.76888E-3	117.445E-12	571.096E-3	-18.2721E-3	114.749E-12	571.930E-3	453.823E-6
2.76388E-3	117.471E-12	567.818E-3	-7.36056E-3	115.389E-12	582.718E-3	-1.76626E-3
2.75888E-3	118.825E-12	559.458E-3	-26.7894E-3	115.817E-12	580.907E-3	-6.89527E-3
2.75388E-3	118.460E-12	564.259E-3	-33.6030E-3	116.918E-12	584.438E-3	-16.5398E-3
2.74887E-3	118.199E-12	566.331E-3	-13.1201E-3	117.528E-12	582.120E-3	-44.3273E-3
2.74387E-3	118.055E-12	564.918E-3	-20.4562E-3	118.049E-12	564.688E-3	-63.5109E-3
2.73887E-3	118.016E-12	584.545E-3	-34.4599E-3	118.285E-12	553.616E-3	-46.9125E-3
2.73387E-3	117.300E-12	603.620E-3	-39.2397E-3	119.204E-12	563.044E-3	-26.3850E-3
2.72886E-3	116.109E-12	599.343E-3	-43.9829E-3	119.846E-12	565.003E-3	-26.8658E-3
2.72386E-3	116.259E-12	579.782E-3	-35.9457E-3	119.336E-12	553.706E-3	-21.0512E-3
2.71886E-3	115.328E-12	561.630E-3	-27.4945E-3	118.415E-12	562.757E-3	3.78469E-3
2.71386E-3	114.633E-12	576.276E-3	-27.5476E-3	116.827E-12	586.783E-3	4.81359E-3
2.70885E-3	113.430E-12	591.148E-3	-27.1524E-3	116.743E-12	592.345E-3	-4.09371E-3
2.70385E-3	113.046E-12	564.437E-3	-20.9942E-3	115.975E-12	572.535E-3	-370.999E-6
2.69885E-3	113.009E-12	536.347E-3	-19.1044E-3	114.228E-12	539.256E-3	-12.6075E-3
2.69385E-3	112.547E-12	539.484E-3	-20.6463E-3	113.277E-12	536.638E-3	-27.3502E-3
2.68884E-3	112.383E-12	548.534E-3	-22.5630E-3	112.451E-12	556.432E-3	-22.3867E-3
2.68384E-3	112.055E-12	540.982E-3	-27.6642E-3	112.287E-12	565.038E-3	-13.6217E-3
2.67884E-3	112.012E-12	540.343E-3	-27.5418E-3	111.633E-12	567.106E-3	-17.6555E-3
2.67384E-3	112.990E-12	548.534E-3	-19.7650E-3	111.465E-12	554.119E-3	-12.1905E-3
2.66883E-3	113.305E-12	537.933E-3	-33.0250E-3	111.130E-12	535.579E-3	9.54069E-3
2.66383E-3	113.308E-12	534.421E-3	-58.5744E-3	111.477E-12	537.825E-3	11.5179E-3
2.65883E-3	113.663E-12	545.551E-3	-40.7133E-3	112.471E-12	561.807E-3	-2.81178E-3
2.65383E-3	114.638E-12	549.108E-3	-3.28798E-3	113.351E-12	584.185E-3	-5.50855E-3
2.64882E-3	115.088E-12	558.636E-3	13.9186E-3	113.943E-12	593.306E-3	2.56511E-3
2.64382E-3	115.054E-12	572.579E-3	28.0189E-3	114.127E-12	597.305E-3	-8.98644E-3
2.63882E-3	114.810E-12	578.650E-3	32.6809E-3	115.641E-12	600.832E-3	-28.8125E-3
2.63382E-3	115.705E-12	591.048E-3	12.6642E-3	116.755E-12	600.195E-3	-28.1518E-3
2.62881E-3	115.030E-12	604.115E-3	-3.07493E-3	116.935E-12	591.736E-3	-21.1474E-3
2.62381E-3	114.664E-12	591.216E-3	-10.0711E-3	116.555E-12	579.520E-3	-13.6844E-3
2.61881E-3	113.359E-12	583.601E-3	-16.5694E-3	116.489E-12	568.052E-3	-13.3155E-3
2.61381E-3	112.922E-12	605.243E-3	-75.9277E-6	116.976E-12	562.262E-3	-10.2678E-3
2.60880E-3	112.405E-12	611.105E-3	3.71044E-3	116.179E-12	561.199E-3	-362.305E-6
2.60380E-3	111.444E-12	606.213E-3	-30.9098E-3	115.214E-12	557.689E-3	-6.91520E-3
2.59880E-3	110.584E-12	598.557E-3	-41.1435E-3	113.981E-12	550.835E-3	-14.9598E-3
2.59380E-3	110.194E-12	574.248E-3	-12.7132E-3	113.759E-12	540.747E-3	-17.3727E-3
2.58879E-3	110.283E-12	563.315E-3	-1.57445E-3	112.486E-12	547.983E-3	-27.4268E-3
2.58379E-3	109.735E-12	566.711E-3	-12.9663E-3	110.163E-12	581.294E-3	-27.5101E-3
2.57879E-3	109.458E-12	568.878E-3	-23.1237E-3	108.567E-12	595.577E-3	-19.3619E-3
2.57379E-3	109.122E-12	575.126E-3	-29.0289E-3	108.667E-12	578.212E-3	-20.7851E-3
2.56878E-3	109.544E-12	575.129E-3	-26.1625E-3	108.247E-12	563.494E-3	-19.8193E-3
2.56378E-3	110.039E-12	558.648E-3	-34.1308E-3	107.077E-12	563.037E-3	-8.39995E-3
2.55878E-3	109.538E-12	549.029E-3	-49.3818E-3	106.922E-12	570.345E-3	-4.68728E-3
2.55378E-3	109.880E-12	570.191E-3	-29.7986E-3	107.434E-12	587.138E-3	-6.48432E-3
2.54877E-3	110.354E-12	588.022E-3	3.73304E-3	108.279E-12	600.231E-3	7.81015E-3
2.54377E-3	110.888E-12	578.308E-3	-27.2311E-6	108.032E-12	578.549E-3	6.06542E-3
2.53877E-3	111.112E-12	577.157E-3	-5.97120E-3	107.942E-12	557.729E-3	-18.3647E-3
2.53377E-3	111.133E-12	594.836E-3	4.66034E-3	109.145E-12	561.791E-3	-27.9126E-3
2.52876E-3	110.999E-12	599.488E-3	-19.9285E-3	109.952E-12	570.466E-3	-30.3253E-3
2.52376E-3	111.772E-12	592.570E-3	-49.1028E-3	110.564E-12	590.779E-3	-13.3429E-3
2.51876E-3	111.616E-12	586.154E-3	-35.1840E-3	110.579E-12	608.031E-3	8.79574E-3
2.51376E-3	110.208E-12	575.222E-3	-1.75609E-3	110.240E-12	595.010E-3	5.40921E-3
2.50875E-3	109.884E-12	575.646E-3	564.663E-6	110.255E-12	576.438E-3	7.57084E-3
2.50375E-3	109.391E-12	585.291E-3	-13.2162E-3	110.452E-12	577.901E-3	10.8131E-3
2.49875E-3	108.812E-12	582.501E-3	-16.3124E-3	109.264E-12	565.922E-3	-2.42931E-3
2.49375E-3	107.148E-12	584.730E-3	-35.1076E-3	107.994E-12	542.002E-3	-3.69104E-3
2.48874E-3	107.098E-12	580.516E-3	-41.5108E-3	106.781E-12	539.249E-3	7.31632E-3
2.48374E-3	106.523E-12	556.624E-3	-26.3511E-3	105.887E-12	543.281E-3	-6.22880E-3
2.47874E-3	105.728E-12	547.287E-3	-16.5371E-3	104.593E-12	547.131E-3	-20.7817E-3
2.47374E-3	104.987E-12	548.960E-3	-619.411E-6	103.912E-12	576.199E-3	-12.1356E-3
2.46873E-3	104.510E-12	545.205E-3	9.33004E-3	102.830E-12	593.893E-3	-10.8935E-3
2.46373E-3	104.362E-12	551.099E-3	-713.361E-6	102.252E-12	574.441E-3	-7.32768E-3
2.45873E-3	104.793E-12	565.639E-3	-1.32228E-3	102.674E-12	567.883E-3	-3.55727E-3
2.45373E-3	105.050E-12	573.584E-3	-926.914E-6	102.768E-12	574.771E-3	-21.3477E-3
2.44872E-3	104.399E-12	576.294E-3	-21.1015E-3	102.806E-12	584.333E-3	-31.6611E-3
2.44372E-3	105.424E-12	576.944E-3	-29.0365E-3	102.643E-12	599.362E-3	-21.2011E-3
2.43872E-3	106.202E-12	573.798E-3	-27.3144E-3	103.558E-12	592.223E-3	-11.3436E-3
2.43372E-3	106.703E-12	570.333E-3	-39.5885E-3	104.670E-12	572.130E-3	-7.39312E-3
2.42871E-3	106.870E-12	575.990E-3	-37.1980E-3	106.124E-12	574.869E-3	-11.3276E-3
2.42371E-3	105.994E-12	577.098E-3	-21.6510E-3	105.984E-12	586.878E-3	-16.8877E-3
2.41871E-3	106.476E-12	560.824E-3	-19.4555E-3	106.581E-12	586.251E-3	-13.8897E-3
2.41371E-3	106.734E-12	558.328E-3	-17.9168E-3	107.560E-12	585.836E-3	-8.95203E-3
2.40870E-3	105.553E-12	576.132E-3	-10.7679E-3	108.405E-12	596.261E-3	-8.53403E-3
2.40370E-3	104.394E-12	587.068E-3	-23.2073E-3	108.052E-12	604.109E-3	-14.6468E-3
2.39870E-3	104.008E-12	591.060E-3	-37.3489E-3	107.862E-12	589.341E-3	-12.5697E-3
2.39370E-3	104.037E-12	582.309E-3	-25.1937E-3	106.907E-12	567.519E-3	-13.7347E-3
2.38869E-3	103.336E-12	570.382E-3	-11.9868E-3	106.540E-12	564.335E-3	-27.3786E-3
2.38369E-3	101.876E-12	572.674E-3	-5.10896E-3	105.849E-12	579.531E-3	-27.1335E-3
2.37869E-3	101.283E-12	563.216E-3	6.77550E-3	104.668E-12	574.280E-3	-22.3151E-3
2.37369E-3	101.019E-12	551.992E-3	11.1748E-3	103.083E-12	549.499E-3	-25.5688E-3
2.36868E-3	100.533E-12	562.481E-3	-1.52416E-3	102.209E-12	557.072E-3	-20.7915E-3
2.36368E-3	100.359E-12	553.748E-3	-12.1590E-3	101.853E-12	575.023E-3	-18.9778E-3
2.35868E-3	99.9707E-12	531.402E-3	-18.0256E-3	101.550E-12	566.319E-3	-27.0644E-3
2.35368E-3	100.547E-12	543.131E-3	-16.1509E-3	100.600E-12	568.672E-3	-23.9172E-3
2.34867E-3	101.391E-12	550.390E-3	-3.19573E-3	100.167E-12	591.495E-3	-11.9260E-3
2.34367E-3	102.029E-12	546.156E-3	-7.63679E-3	100.892E-12	594.017E-3	-5.67914E-3
2.33867E-3	102.184E-12	562.033E-3	-21.5371E-3	101.254E-12	577.871E-3	-425.668E-6
2.33367E-3	103.281E-12	576.705E-3	-14.2620E-3	101.683E-12	568.044E-3	-1.15904E-3
2.32866E-3	103.479E-12	572.261E-3	-5.58432E-3	101.631E-12	559.597E-3	-14.0669E-3
2.32366E-3	103.858E-12	571.049E-3	-11.1382E-3	102.075E-12	554.244E-3	-20.8758E-3
2.31866E-3	103.561E-12	577.970E-3	-17.6459E-3	102.808E-12	562.004E-3	-22.0178E-3
2.31366E-3	103.532E-12	578.394E-3	-31.4946E-3	103.564E-12	562.841E-3	-22.6090E-3
2.30865E-3	103.317E-12	585.234E-3	-40.4496E-3	103.469E-12	557.928E-3	-12.4406E-3
2.30365E-3	102.360E-12	590.572E-3	-24.7976E-3	102.783E-12	563.021E-3	-14.9462E-3
2.29865E-3	101.762E-12	582.358E-3	-13.5501E-3	103.230E-12	570.363E-3	-39.5707E-3
2.29365E-3	101.433E-12	581.404E-3	-27.9974E-3	103.239E-12	572.480E-3	-32.9478E-3
2.28864E-3	100.298E-12	583.548E-3	-30.4913E-3	102.591E-12	566.200E-3	1.14009E-3
2.28364E-3	99.5612E-12	577.848E-3	-18.8868E-3	101.402E-12	556.065E-3	15.0022E-3
2.27864E-3	98.6837E-12	568.800E-3	-17.7241E-3	100.681E-12	550.719E-3	16.0425E-3
2.27364E-3	98.1385E-12	557.107E-3	-8.00438E-3	99.7782E-12	548.926E-3	9.99443E-3
2.26863E-3	97.1066E-12	542.027E-3	-254.813E-6	98.5798E-12	548.125E-3	3.68325E-3
2.26363E-3	97.1731E-12	538.579E-3	-9.94675E-3	97.8997E-12	549.343E-3	16.3911E-3
2.25863E-3	96.9174E-12	566.468E-3	-4.88740E-3	96.1750E-12	554.914E-3	19.2168E-3
2.25363E-3	96.7401E-12	585.846E-3	14.1681E-3	95.8243E-12	563.582E-3	-9.79021E-3
2.24862E-3	96.9279E-12	573.480E-3	5.39903E-3	96.0733E-12	561.521E-3	-29.1422E-3
2.24362E-3	97.9270E-12	567.360E-3	-9.77752E-3	95.8909E-12	563.696E-3	-24.0513E-3
2.23862E-3	97.8380E-12	568.745E-3	958.941E-6	94.9833E-12	575.035E-3	-18.8193E-3
2.23362E-3	97.9391E-12	567.397E-3	677.962E-6	95.1198E-12	579.450E-3	-15.2820E-3
2.22861E-3	98.3338E-12	571.299E-3	-7.44096E-3	95.7575E-12	578.467E-3	-11.0962E-3
2.22361E-3	98.6317E-12	566.735E-3	-6.14567E-3	96.2764E-12	575.181E-3	-9.70190E-3
2.21861E-3	97.9990E-12	556.443E-3	-14.9414E-3	96.6062E-12	572.264E-3	-9.01690E-3
2.21361E-3	97.9273E-12	555.513E-3	-13.6753E-3	96.3998E-12	568.466E-3	-7.10917E-3
2.20860E-3	98.1294E-12	558.465E-3	-3.77470E-3	97.4381E-12	562.828E-3	-11.8368E-3
2.20360E-3	97.8408E-12	565.689E-3	-9.66711E-3	98.2196E-12	555.815E-3	-33.0877E-3
2.19860E-3	97.6210E-12	578.826E-3	-6.99281E-3	98.0496E-12	561.950E-3	-44.5402E-3
2.19360E-3	96.9603E-12	576.984E-3	-1.03886E-3	97.8390E-12	579.332E-3	-24.3518E-3
2.18859E-3	95.8749E-12	567.293E-3	-21.7207E-3	98.1994E-12	580.784E-3	-1.36648E-3
2.18359E-3	95.8224E-12	570.696E-3	-37.1257E-3	98.0692E-12	561.372E-3	-1.37024E-3
2.17859E-3	95.6508E-12	558.294E-3	-26.6279E-3	96.6205E-12	542.153E-3	-13.2171E-3
2.17359E-3	94.8189E-12	534.711E-3	-29.7704E-3	95.6055E-12	538.358E-3	-12.8125E-3
2.16858E-3	93.5144E-12	542.292E-3	-32.8928E-3	95.4372E-12	537.935E-3	-3.15928E-3
2.16358E-3	93.4033E-12	561.389E-3	-20.1167E-3	94.8955E-12	539.683E-3	-5.85595E-3
2.15858E-3	93.3284E-12	568.152E-3	-36.7508E-3	93.7311E-12	542.626E-3	-21.3090E-3
2.15358E-3	92.8967E-12	577.861E-3	-49.1100E-3	93.3909E-12	536.000E-3	-28.8553E-3
2.14857E-3	92.1479E-12	583.360E-3	-23.1382E-3	92.7844E-12	541.439E-3	-22.6982E-3
2.14357E-3	92.0332E-12	558.329E-3	-13.0359E-3	92.3491E-12	559.823E-3	-11.5495E-3
2.13857E-3	93.0595E-12	530.332E-3	-32.6584E-3	92.3686E-12	562.509E-3	-5.29901E-3
2.13357E-3	92.7734E-12	524.752E-3	-27.8267E-3	92.0592E-12	554.063E-3	-6.27604E-3
2.12856E-3	92.1560E-12	528.925E-3	-3.35540E-3	92.1977E-12	546.481E-3	-22.8811E-3
2.12356E-3	92.4508E-12	552.067E-3	-10.4139E-3	92.8929E-12	545.453E-3	-28.4174E-3
2.11856E-3	93.3276E-12	573.922E-3	-16.2132E-3	93.6193E-12	555.105E-3	-7.78942E-3
2.11356E-3	94.0542E-12	568.192E-3	-11.9811E-3	93.3431E-12	562.676E-3	-4.65235E-3
2.10855E-3	93.7473E-12	562.044E-3	-20.2320E-3	94.3063E-12	559.903E-3	-8.60337E-3
2.10355E-3	94.0703E-12	566.459E-3	-24.7257E-3	94.7789E-12	570.931E-3	-2.09277E-3
2.09855E-3	93.7591E-12	554.931E-3	-23.7547E-3	95.0680E-12	592.731E-3	-3.86345E-3
2.09355E-3	94.1359E-12	546.436E-3	-19.5211E-3	94.9227E-12	591.827E-3	-13.4047E-3
2.08854E-3	93.9164E-12	553.398E-3	-13.6140E-3	94.5797E-12	582.079E-3	-12.1528E-3
2.08354E-3	93.5842E-12	548.402E-3	-17.1564E-3	94.2560E-12	575.075E-3	-5.09149E-3
2.07854E-3	93.1270E-12	553.639E-3	-41.3478E-3	93.7362E-12	559.683E-3	-8.82691E-3
2.07354E-3	93.0342E-12	569.957E-3	-50.4919E-3	94.0052E-12	554.724E-3	-12.4828E-3
2.06853E-3	93.3423E-12	563.800E-3	-22.3634E-3	93.1386E-12	570.993E-3	-12.4863E-3
2.06353E-3	92.5569E-12	562.285E-3	-5.56059E-3	92.2587E-12	574.125E-3	59.6742E-6
2.05853E-3	91.1274E-12	574.640E-3	-6.65949E-3	91.3034E-12	555.275E-3	22.6293E-3
2.05353E-3	90.7148E-12	564.858E-3	1.84664E-3	91.0113E-12	546.437E-3	21.6985E-3
2.04852E-3	90.7744E-12	559.271E-3	7.12083E-3	91.0048E-12	545.322E-3	3.22159E-3
2.04352E-3	90.3928E-12	574.303E-3	-2.13842E-3	90.1851E-12	553.162E-3	-3.93378E-3
2.03852E-3	89.7825E-12	574.389E-3	-11.8633E-3	89.2108E-12	567.392E-3	-5.46878E-3
2.03352E-3	89.7298E-12	557.122E-3	-32.5497E-3	89.2210E-12	560.971E-3	-20.5099E-3
2.02851E-3	90.0954E-12	543.825E-3	-51.5618E-3	89.9304E-12	554.391E-3	-37.5672E-3
2.02351E-3	90.5542E-12	543.672E-3	-37.9271E-3	90.0028E-12	555.444E-3	-36.4407E-3
2.01851E-3	90.6010E-12	553.431E-3	-18.4959E-3	90.0246E-12	548.269E-3	-25.0062E-3
2.01351E-3	90.1819E-12	573.082E-3	-14.8911E-3	90.1927E-12	558.781E-3	-4.80871E-3
2.00850E-3	90.3975E-12	573.436E-3	-13.1290E-3	90.4859E-12	580.556E-3	-1.46953E-3
2.00350E-3	90.9182E-12	558.756E-3	-6.06476E-3	90.9438E-12	583.617E-3	-23.4492E-3
1.99850E-3	91.2105E-12	560.572E-3	4.61305E-3	90.5614E-12	577.015E-3	-31.8250E-3
1.99350E-3	90.5069E-12	557.756E-3	10.0774E-3	90.7242E-12	584.075E-3	-32.5636E-3
1.98849E-3	89.5770E-12	557.207E-3	-4.53028E-3	90.4699E-12	584.919E-3	-25.2797E-3
1.98349E-3	89.8184E-12	575.906E-3	-32.3177E-3	90.5394E-12	569.456E-3	-3.40153E-3
1.97849E-3	89.8313E-12	579.220E-3	-43.1629E-3	90.7065E-12	573.434E-3	-1.77750E-3
1.97349E-3	89.2547E-12	553.851E-3	-44.3133E-3	90.1727E-12	573.985E-3	-15.4342E-3
1.96848E-3	87.8084E-12	549.237E-3	-51.7430E-3	89.2068E-12	556.843E-3	-8.83867E-3
1.96348E-3	87.7207E-12	576.404E-3	-25.5488E-3	88.9812E-12	548.214E-3	-1.79715E-3
1.95848E-3	87.5493E-12	587.373E-3	8.60404E-3	88.6640E-12	536.198E-3	-10.3078E-3
1.95348E-3	86.8080E-12	580.660E-3	-3.98506E-3	87.4368E-12	520.256E-3	-6.67215E-3
1.94847E-3	86.0319E-12	572.658E-3	-16.9775E-3	86.5613E-12	530.485E-3	2.96647E-3
1.94347E-3	85.5892E-12	557.517E-3	-17.7942E-3	85.9527E-12	543.523E-3	5.80637E-3
1.93847E-3	85.7675E-12	547.089E-3	-28.9534E-3	85.8843E-12	528.291E-3	6.60191E-3
1.93347E-3	85.8383E-12	551.926E-3	-21.6930E-3	85.3241E-12	523.948E-3	3.76014E-3
1.92846E-3	85.6257E-12	547.616E-3	-3.79456E-3	84.9341E-12	553.688E-3	-3.45428E-3
1.92346E-3	85.1080E-12	533.427E-3	-3.95382E-3	84.8360E-12	586.471E-3	-16.6417E-3
1.91846E-3	85.6997E-12	538.365E-3	-4.62495E-3	84.7638E-12	598.989E-3	-25.2028E-3
1.91346E-3	86.1759E-12	536.979E-3	-7.67896E-3	84.7321E-12	587.098E-3	-29.2220E-3
1.90845E-3	86.5189E-12	535.189E-3	-26.4161E-3	84.4748E-12	563.320E-3	-26.0128E-3
1.90345E-3	85.6594E-12	544.135E-3	-29.2007E-3	84.5984E-12	562.213E-3	-9.09740E-3
1.89845E-3	85.4867E-12	545.191E-3	-19.5645E-3	84.8785E-12	579.593E-3	-4.58753E-3
1.89345E-3	86.0323E-12	568.532E-3	-25.2449E-3	85.4410E-12	580.065E-3	-11.2947E-3
1.88844E-3	86.2641E-12	591.140E-3	-24.4239E-3	84.8632E-12	565.796E-3	-5.55792E-3
1.88344E-3	85.4767E-12	570.686E-3	-8.68100E-3	84.8874E-12	559.368E-3	4.16976E-3
1.87844E-3	84.4976E-12	554.803E-3	-8.64031E-3	85.4932E-12	558.436E-3	1.70361E-3
1.87344E-3	84.3260E-12	570.066E-3	-14.3749E-3	85.7720E-12	554.202E-3	-6.43003E-3
1.86843E-3	84.2956E-12	574.911E-3	-17.0307E-3	84.9349E-12	556.665E-3	-9.72354E-3
1.86343E-3	83.2698E-12	564.945E-3	-31.4753E-3	84.3871E-12	564.904E-3	-13.7457E-3
1.85843E-3	82.4923E-12	571.090E-3	-40.4588E-3	84.1358E-12	568.798E-3	-15.6922E-3
1.85343E-3	81.8892E-12	575.756E-3	-35.3709E-3	83.7280E-12	558.648E-3	-23.6653E-3
1.84842E-3	82.1215E-12	571.515E-3	-29.0251E-3	83.0080E-12	526.660E-3	-36.7939E-3
1.84342E-3	82.2065E-12	576.639E-3	-25.8652E-3	82.1192E-12	512.020E-3	-17.0927E-3
1.83842E-3	82.1262E-12	572.466E-3	-22.4088E-3	82.1365E-12	540.300E-3	1.87020E-3
1.83342E-3	81.6916E-12	556.127E-3	-26.7863E-3	81.8662E-12	553.575E-3	-21.4819E-3
1.82841E-3	82.4227E-12	554.588E-3	-33.2431E-3	81.4553E-12	524.328E-3	-35.1119E-3
1.82341E-3	82.4745E-12	545.335E-3	-28.3475E-3	80.8241E-12	509.991E-3	-28.2619E-3
1.81841E-3	83.0171E-12	522.779E-3	-33.0336E-3	80.7766E-12	527.264E-3	-21.5505E-3
1.81341E-3	82.4731E-12	538.713E-3	-43.8288E-3	81.3567E-12	542.685E-3	-15.7801E-3
1.80840E-3	82.2287E-12	575.528E-3	-25.8553E-3	81.4160E-12	551.676E-3	-19.8648E-3
1.80340E-3	82.5362E-12	572.046E-3	-11.0745E-3	81.9226E-12	556.745E-3	-23.6360E-3
1.79840E-3	82.8763E-12	551.415E-3	-26.4509E-3	82.3606E-12	563.428E-3	-17.0690E-3
1.79340E-3	82.6390E-12	553.893E-3	-31.7407E-3	82.9240E-12	579.175E-3	-8.85133E-3
1.78839E-3	82.1365E-12	552.526E-3	-27.1299E-3	83.1599E-12	583.135E-3	-15.8842E-3
1.78339E-3	81.4984E-12	551.209E-3	-33.5390E-3	83.3703E-12	568.925E-3	-18.5306E-3
1.77839E-3	81.5031E-12	548.752E-3	-25.6265E-3	83.3389E-12	565.263E-3	3.16249E-3
1.77339E-3	81.7268E-12	532.323E-3	-6.56987E-3	83.3133E-12	566.152E-3	14.8511E-3
1.76838E-3	80.8238E-12	543.378E-3	-10.9432E-3	82.9613E-12	557.853E-3	15.4858E-3
1.76338E-3	80.2846E-12	559.502E-3	-28.4685E-3	82.4504E-12	570.935E-3	18.0033E-3
1.75838E-3	80.0061E-12	545.049E-3	-19.6316E-3	82.0093E-12	589.680E-3	-2.72056E-3
1.75338E-3	79.9204E-12	538.716E-3	-2.39063E-3	80.9993E-12	567.282E-3	-21.4408E-3
1.74837E-3	80.0578E-12	544.012E-3	-7.34943E-3	80.2017E-12	541.171E-3	-8.47110E-3
1.74337E-3	79.5543E-12	537.325E-3	-16.3268E-3	79.8612E-12	536.449E-3	-1.66747E-3
1.73837E-3	79.2212E-12	539.457E-3	-19.5780E-3	79.2204E-12	522.891E-3	479.723E-9
1.73337E-3	78.9146E-12	558.342E-3	-16.0301E-3	78.1987E-12	515.434E-3	7.34158E-3
1.72836E-3	79.5351E-12	556.946E-3	-11.7881E-3	77.4718E-12	526.082E-3	-8.66810E-3
1.72336E-3	79.2842E-12	543.388E-3	-17.7146E-3	77.7304E-12	540.463E-3	-19.6460E-3
1.71836E-3	78.8837E-12	565.129E-3	-24.8957E-3	77.2437E-12	557.775E-3	-19.7401E-3
1.71336E-3	78.4865E-12	580.876E-3	-25.3955E-3	77.5990E-12	555.914E-3	-28.7149E-3
1.70835E-3	79.0258E-12	559.243E-3	-36.3008E-3	76.8693E-12	531.069E-3	-20.9774E-3
1.70335E-3	78.7305E-12	546.569E-3	-43.0497E-3	77.1296E-12	530.032E-3	-6.64633E-3
1.69835E-3	78.1278E-12	542.093E-3	-33.4851E-3	77.7556E-12	552.757E-3	-13.7790E-3
1.69335E-3	78.3593E-12	543.980E-3	-30.7892E-3	77.9117E-12	556.415E-3	-19.9278E-3
1.68834E-3	78.2007E-12	564.827E-3	-22.6212E-3	77.8252E-12	549.766E-3	-8.74949E-3
1.68334E-3	78.3092E-12	565.394E-3	-5.50766E-3	77.9267E-12	553.052E-3	-13.2260E-3
1.67834E-3	77.2260E-12	538.459E-3	-1.13497E-3	77.2749E-12	561.255E-3	-24.1421E-3
1.67334E-3	77.2956E-12	533.585E-3	-4.74625E-3	77.4778E-12	570.601E-3	-17.6946E-3
1.66833E-3	77.0306E-12	550.530E-3	2.89177E-3	77.5523E-12	572.799E-3	-23.4161E-3
1.66333E-3	77.0936E-12	550.083E-3	-6.08729E-3	77.2242E-12	570.737E-3	-23.2449E-3
1.65833E-3	76.7244E-12	548.056E-3	-33.6547E-3	76.8978E-12	578.062E-3	4.31599E-3
1.65333E-3	76.3930E-12	555.957E-3	-30.9091E-3	76.8331E-12	590.208E-3	2.40222E-3
1.64832E-3	75.8314E-12	548.452E-3	-14.1386E-3	76.3590E-12	578.805E-3	-27.9353E-3
1.64332E-3	75.2585E-12	534.501E-3	-17.7561E-3	75.6799E-12	553.145E-3	-35.1421E-3
1.63832E-3	75.4337E-12	520.862E-3	-22.7758E-3	74.7452E-12	551.766E-3	-31.2097E-3
1.63332E-3	74.9152E-12	517.622E-3	-19.5232E-3	74.6626E-12	549.989E-3	-29.9353E-3
1.62831E-3	74.6590E-12	533.079E-3	-19.8689E-3	74.1030E-12	530.085E-3	-16.0271E-3
1.62331E-3	73.9306E-12	542.686E-3	-12.0384E-3	73.1492E-12	522.939E-3	-5.17135E-3
1.61831E-3	74.3529E-12	542.381E-3	-6.68426E-3	73.2763E-12	526.197E-3	-16.5031E-3
1.61331E-3	74.4599E-12	544.165E-3	-14.6462E-3	73.3899E-12	526.903E-3	-17.5950E-3
1.60830E-3	73.3061E-12	542.709E-3	-16.5114E-3	73.0966E-12	536.251E-3	173.968E-6
1.60330E-3	73.0552E-12	531.365E-3	-11.4147E-3	72.9010E-12	541.876E-3	18.5811E-6
1.59830E-3	73.8244E-12	535.221E-3	-9.44661E-3	73.3481E-12	529.992E-3	-7.86796E-3
1.59330E-3	74.5383E-12	552.405E-3	-3.42284E-3	73.3774E-12	530.672E-3	-13.7479E-3
1.58829E-3	73.6870E-12	541.967E-3	-5.67889E-3	73.9689E-12	548.484E-3	-32.2009E-3
1.58329E-3	73.7486E-12	517.522E-3	-23.0303E-3	74.2484E-12	543.780E-3	-31.1466E-3
1.57829E-3	73.9262E-12	519.496E-3	-24.5836E-3	73.9856E-12	528.155E-3	-14.1733E-3
1.57329E-3	74.3901E-12	529.635E-3	-15.0034E-3	74.2970E-12	533.179E-3	-20.8358E-3
1.56828E-3	74.2452E-12	539.217E-3	-23.0323E-3	74.5415E-12	536.851E-3	-23.1974E-3
1.56328E-3	73.3206E-12	564.118E-3	-31.9996E-3	74.5966E-12	525.099E-3	-7.31003E-3
1.55828E-3	73.0739E-12	570.467E-3	-20.1508E-3	74.6055E-12	518.631E-3	-11.5103E-3
1.55328E-3	72.6808E-12	549.889E-3	-14.6640E-3	74.0969E-12	510.113E-3	-30.3304E-3
1.54827E-3	72.4761E-12	535.517E-3	-17.1934E-3	73.8095E-12	497.273E-3	-26.2877E-3
1.54327E-3	71.6608E-12	530.099E-3	-13.7325E-3	73.3264E-12	498.039E-3	-11.6417E-3
1.53827E-3	71.3002E-12	529.133E-3	-22.6803E-3	73.4298E-12	516.462E-3	-3.34906E-3
1.53327E-3	71.0112E-12	539.756E-3	-30.5692E-3	72.6702E-12	536.221E-3	14.0641E-3
1.52826E-3	70.9322E-12	550.730E-3	-18.1509E-3	71.9406E-12	533.430E-3	23.7148E-3
1.52326E-3	70.8773E-12	544.000E-3	-13.9546E-3	71.6960E-12	503.409E-3	9.23612E-3
1.51826E-3	70.2643E-12	529.660E-3	-19.0339E-3	71.3007E-12	491.045E-3	-10.5569E-3
1.51326E-3	70.1657E-12	522.616E-3	-11.4692E-3	70.8819E-12	512.656E-3	-14.4311E-3
1.50825E-3	70.9214E-12	515.542E-3	-6.59232E-3	70.7646E-12	520.000E-3	-5.39296E-3
1.50325E-3	71.4452E-12	513.866E-3	-11.1485E-3	70.4902E-12	513.252E-3	-589.879E-6
1.49825E-3	71.4431E-12	516.386E-3	-9.91455E-3	70.3962E-12	505.336E-3	-1.33868E-3
1.49325E-3	71.6388E-12	506.793E-3	-12.1024E-3	70.7253E-12	492.691E-3	-6.05440E-3
1.48824E-3	71.6637E-12	501.505E-3	-22.8828E-3	70.5298E-12	490.374E-3	-10.0975E-3
1.48324E-3	72.0418E-12	508.104E-3	-14.3387E-3	70.5863E-12	499.151E-3	-11.1639E-3
1.47824E-3	72.0699E-12	505.181E-3	-7.33346E-3	70.6490E-12	502.061E-3	-8.43047E-3
1.47324E-3	71.6191E-12	509.518E-3	-27.2810E-3	70.8793E-12	500.553E-3	-2.60079E-3
1.46823E-3	71.2557E-12	520.086E-3	-17.4435E-3	71.0738E-12	501.404E-3	567.636E-6
1.46323E-3	70.8716E-12	509.470E-3	2.10181E-3	70.6313E-12	493.453E-3	-1.86882E-3
1.45823E-3	70.6472E-12	504.512E-3	-14.5596E-3	70.2894E-12	490.304E-3	-9.49098E-3
1.45323E-3	69.9916E-12	513.771E-3	-17.8165E-3	70.2513E-12	497.131E-3	-15.1206E-3
1.44822E-3	69.4231E-12	510.337E-3	-6.19421E-3	70.0285E-12	484.293E-3	-20.9356E-3
1.44322E-3	68.4846E-12	512.553E-3	-17.7815E-3	69.6259E-12	468.272E-3	-20.7874E-3
1.43822E-3	68.3488E-12	516.403E-3	-27.5403E-3	69.0831E-12	474.377E-3	-11.2161E-3
1.43322E-3	67.8280E-12	489.475E-3	-28.7021E-3	68.5533E-12	481.634E-3	-8.77891E-3
1.42821E-3	67.0858E-12	460.616E-3	-34.9159E-3	68.3153E-12	474.874E-3	-7.11189E-3
1.42321E-3	66.5185E-12	461.583E-3	-27.9343E-3	67.8333E-12	467.358E-3	900.286E-6
1.41821E-3	66.6897E-12	466.466E-3	-14.5769E-3	67.3858E-12	468.719E-3	-516.785E-6
1.41321E-3	67.0844E-12	464.131E-3	-18.0960E-3	66.8747E-12	464.379E-3	-7.17678E-3
1.40820E-3	67.2003E-12	467.009E-3	-32.1534E-3	66.4511E-12	455.140E-3	-6.66425E-3
1.40320E-3	67.5231E-12	466.917E-3	-36.2403E-3	66.3873E-12	451.839E-3	-8.29940E-3
1.39820E-3	67.6139E-12	464.225E-3	-34.5031E-3	66.3069E-12	442.719E-3	-15.3306E-3
1.39320E-3	68.0602E-12	474.300E-3	-32.7603E-3	66.1771E-12	429.868E-3	-16.8724E-3
1.38819E-3	68.0168E-12	469.235E-3	-28.7606E-3	65.8746E-12	427.965E-3	-10.4618E-3
1.38319E-3	68.3978E-12	453.255E-3	-28.6082E-3	66.0481E-12	424.681E-3	-7.81612E-3
1.37819E-3	67.9998E-12	472.007E-3	-21.8470E-3	66.7787E-12	425.050E-3	-12.8421E-3
1.37319E-3	67.8013E-12	481.138E-3	-17.6885E-3	66.7201E-12	431.873E-3	-16.5284E-3
1.36818E-3	67.7766E-12	463.995E-3	-22.3275E-3	66.3933E-12	426.756E-3	-1.77736E-3
1.36318E-3	67.6833E-12	465.682E-3	-12.9315E-3	66.0718E-12	419.196E-3	10.1717E-3
1.35818E-3	67.3387E-12	457.407E-3	-9.64366E-3	66.6387E-12	415.288E-3	-5.60279E-3
1.35318E-3	66.2409E-12	428.907E-3	-29.8165E-3	66.8821E-12	406.274E-3	-15.7054E-3
1.34817E-3	65.9226E-12	426.331E-3	-44.5326E-3	66.6806E-12	391.111E-3	-16.0087E-3
1.34317E-3	66.1271E-12	436.762E-3	-43.2623E-3	66.1897E-12	389.951E-3	-23.1103E-3
1.33817E-3	65.5801E-12	433.079E-3	-42.4024E-3	66.0073E-12	393.227E-3	-22.4626E-3
1.33317E-3	65.0290E-12	423.085E-3	-31.0600E-3	65.9535E-12	375.603E-3	-13.2340E-3
1.32816E-3	64.5651E-12	404.327E-3	-10.7599E-3	65.7225E-12	359.744E-3	-17.5127E-3
1.32316E-3	64.3971E-12	397.168E-3	-18.2461E-3	65.5972E-12	353.719E-3	-36.7458E-3
1.31816E-3	63.9249E-12	414.016E-3	-38.5892E-3	65.2112E-12	346.911E-3	-35.3927E-3
1.31316E-3	63.7671E-12	412.018E-3	-33.6392E-3	64.5323E-12	348.884E-3	-21.3415E-3
1.30815E-3	63.8068E-12	397.919E-3	-23.1848E-3	64.3743E-12	353.050E-3	-17.5167E-3
1.30315E-3	63.3558E-12	396.259E-3	-6.22868E-3	64.4946E-12	338.227E-3	-7.60148E-3
1.29815E-3	63.5650E-12	377.453E-3	18.3245E-3	64.0023E-12	321.705E-3	-4.02077E-3
1.29315E-3	63.8566E-12	352.038E-3	-865.130E-6	63.4805E-12	317.704E-3	-9.11422E-3
1.28814E-3	63.6787E-12	351.095E-3	-39.2303E-3	63.8476E-12	314.660E-3	-7.68214E-3
1.28314E-3	63.8063E-12	346.027E-3	-43.4314E-3	63.7840E-12	312.114E-3	-12.7475E-3
1.27814E-3	64.1662E-12	331.338E-3	-32.1272E-3	63.7702E-12	305.731E-3	-36.1713E-3
1.27314E-3	64.5777E-12	324.235E-3	-15.2624E-3	63.6619E-12	307.837E-3	-46.9047E-3
1.26813E-3	64.5832E-12	314.983E-3	2.17069E-3	63.8378E-12	319.447E-3	-34.1271E-3
1.26313E-3	64.4803E-12	309.759E-3	-3.36579E-3	63.9898E-12	311.994E-3	-36.3168E-3
1.25813E-3	65.0727E-12	310.615E-3	-23.2551E-3	64.0247E-12	298.210E-3	-39.3708E-3
1.25313E-3	64.7938E-12	308.318E-3	-25.8424E-3	64.4563E-12	304.007E-3	-21.4749E-3
1.24812E-3	64.7640E-12	293.833E-3	-12.5689E-3	64.6635E-12	301.331E-3	-10.3509E-3
1.24312E-3	64.4573E-12	299.215E-3	-17.1812E-3	64.7267E-12	285.148E-3	-15.2037E-3
1.23812E-3	64.4947E-12	322.918E-3	-37.6000E-3	64.7952E-12	289.180E-3	-18.2720E-3
1.23312E-3	64.1420E-12	318.525E-3	-44.3822E-3	64.8288E-12	294.080E-3	-32.3145E-3
1.22811E-3	63.4882E-12	313.835E-3	-33.7155E-3	64.6278E-12	275.057E-3	-45.7083E-3
1.22311E-3	63.1263E-12	316.406E-3	-11.0922E-3	64.4488E-12	259.354E-3	-21.0793E-3
1.21811E-3	62.8337E-12	297.137E-3	2.34741E-3	63.9368E-12	261.428E-3	1.24960E-3
1.21311E-3	62.4995E-12	283.415E-3	-13.7045E-3	63.7143E-12	255.520E-3	-5.17497E-3
1.20810E-3	62.2824E-12	285.822E-3	-24.8141E-3	63.3587E-12	251.564E-3	-11.9847E-3
1.20310E-3	62.0498E-12	270.798E-3	-15.7309E-3	62.6647E-12	267.994E-3	-19.5678E-3
1.19810E-3	62.2341E-12	245.397E-3	-18.1187E-3	62.4950E-12	271.384E-3	-24.5247E-3
1.19310E-3	62.3456E-12	244.370E-3	-8.09688E-3	62.9614E-12	254.319E-3	-25.1474E-3
1.18809E-3	62.0869E-12	240.040E-3	18.6877E-3	62.7734E-12	246.493E-3	-40.3991E-3
1.18309E-3	62.1518E-12	220.864E-3	10.1753E-3	62.3452E-12	248.824E-3	-50.0278E-3
1.17809E-3	62.9178E-12	230.886E-3	-14.6818E-3	62.5459E-12	244.908E-3	-36.5611E-3
1.17309E-3	63.2948E-12	256.390E-3	-11.0595E-3	62.8805E-12	234.215E-3	-33.1112E-3
1.16808E-3	63.1239E-12	265.528E-3	-6.18937E-3	62.3668E-12	228.430E-3	-36.7381E-3
1.16308E-3	62.9787E-12	258.000E-3	-20.2582E-3	62.0303E-12	230.181E-3	-19.8425E-3
1.15808E-3	62.9964E-12	236.727E-3	-20.1620E-3	62.5732E-12	222.842E-3	-15.4729E-3
1.15308E-3	63.4256E-12	216.036E-3	-8.25100E-3	62.6852E-12	215.924E-3	-36.1329E-3
1.14807E-3	63.4633E-12	215.481E-3	-2.01450E-3	62.5773E-12	224.948E-3	-27.7886E-3
1.14307E-3	62.8417E-12	218.229E-3	1.92809E-3	62.1186E-12	228.311E-3	3.14548E-3
1.13807E-3	62.5707E-12	218.665E-3	-5.69334E-3	62.1385E-12	216.521E-3	2.59811E-3
1.13307E-3	62.4333E-12	234.766E-3	-18.2540E-3	62.1640E-12	203.718E-3	-22.1746E-3
1.12806E-3	62.4469E-12	240.330E-3	-20.4139E-3	62.0091E-12	209.063E-3	-36.1946E-3
1.12306E-3	61.6826E-12	213.734E-3	-20.0247E-3	61.7777E-12	223.231E-3	-47.5777E-3
1.11806E-3	60.6433E-12	193.493E-3	-25.5091E-3	61.4675E-12	219.447E-3	-45.1036E-3
1.11306E-3	59.9650E-12	195.591E-3	-19.7134E-3	60.9838E-12	221.490E-3	-18.0550E-3
1.10805E-3	60.3787E-12	198.977E-3	-12.0117E-3	60.7523E-12	221.444E-3	-4.79367E-3
1.10305E-3	60.1081E-12	204.292E-3	-24.9329E-3	60.6645E-12	189.149E-3	-13.4210E-3
1.09805E-3	59.2017E-12	207.610E-3	-29.4384E-3	60.5138E-12	169.401E-3	-24.1077E-3
1.09305E-3	59.0958E-12	200.543E-3	-21.8076E-3	59.8771E-12	184.224E-3	-28.0024E-3
1.08804E-3	59.5737E-12	203.381E-3	-20.9587E-3	59.7675E-12	198.341E-3	-20.4593E-3
1.08304E-3	59.6120E-12	217.751E-3	-16.0249E-3	60.0802E-12	209.013E-3	-19.4581E-3
1.07804E-3	59.1625E-12	220.028E-3	-15.3518E-3	60.0410E-12	211.671E-3	-23.0343E-3
1.07304E-3	59.9900E-12	218.397E-3	-39.9018E-3	59.6837E-12	192.142E-3	-11.9278E-3
1.06803E-3	60.2823E-12	209.286E-3	-44.9652E-3	59.5324E-12	186.822E-3	-9.55300E-3
1.06303E-3	60.5876E-12	194.953E-3	-26.9577E-3	59.8418E-12	195.319E-3	-24.2867E-3
1.05803E-3	60.6246E-12	205.065E-3	-31.9068E-3	59.7701E-12	190.275E-3	-34.0893E-3
1.05303E-3	60.8107E-12	217.158E-3	-23.4298E-3	59.6114E-12	200.155E-3	-32.3036E-3
1.04802E-3	60.9599E-12	203.028E-3	-4.11811E-3	59.4670E-12	221.529E-3	-24.0644E-3
1.04302E-3	61.0227E-12	194.555E-3	-10.3197E-3	59.7122E-12	227.433E-3	-8.99102E-3
1.03802E-3	60.9390E-12	213.969E-3	-10.7848E-3	60.2837E-12	229.592E-3	-521.842E-6
1.03302E-3	60.4341E-12	219.092E-3	1.50774E-3	59.9249E-12	237.186E-3	-17.0927E-3
1.02801E-3	60.0029E-12	206.068E-3	-8.60513E-3	59.3692E-12	247.179E-3	-34.3912E-3
1.02301E-3	59.3972E-12	210.587E-3	-25.1192E-3	59.4136E-12	259.372E-3	-29.0315E-3
1.01801E-3	58.8143E-12	214.513E-3	-26.4225E-3	59.8439E-12	263.596E-3	-21.9378E-3
1.01301E-3	58.4210E-12	215.740E-3	-31.4112E-3	59.6629E-12	259.880E-3	-18.5942E-3
1.00800E-3	58.4061E-12	234.152E-3	-30.6084E-3	59.2805E-12	264.550E-3	-5.39932E-3
1.00300E-3	58.2525E-12	247.140E-3	-20.4124E-3	59.1928E-12	277.608E-3	-2.90962E-3
997.999E-6	57.5799E-12	245.568E-3	-21.9347E-3	59.5756E-12	286.399E-3	-24.0500E-3
992.997E-6	57.6939E-12	252.729E-3	-28.6146E-3	59.3866E-12	295.103E-3	-33.0108E-3
987.994E-6	58.1002E-12	255.900E-3	-32.1883E-3	59.0609E-12	305.288E-3	-22.1089E-3
982.991E-6	58.2615E-12	247.403E-3	-32.6627E-3	59.4243E-12	301.387E-3	-10.5495E-3
977.989E-6	58.3383E-12	263.787E-3	-27.1648E-3	59.8493E-12	305.544E-3	3.01110E-3
972.986E-6	57.9411E-12	283.863E-3	-21.1070E-3	59.5642E-12	335.584E-3	2.37589E-3
967.984E-6	58.1395E-12	283.308E-3	-18.7270E-3	59.0653E-12	351.739E-3	-9.19103E-3
962.981E-6	58.6029E-12	298.539E-3	-11.6206E-3	59.3620E-12	350.578E-3	-8.20763E-3
957.979E-6	59.1725E-12	315.288E-3	-2.76968E-3	59.6686E-12	374.941E-3	-12.6960E-3
952.976E-6	58.8236E-12	310.056E-3	-15.0052E-3	59.4730E-12	402.879E-3	-21.0545E-3
947.974E-6	59.0907E-12	320.818E-3	-29.8954E-3	59.4431E-12	403.411E-3	-9.10142E-3
942.971E-6	58.8784E-12	340.426E-3	-12.3957E-3	59.3119E-12	411.012E-3	-7.25478E-3
937.969E-6	59.0204E-12	345.018E-3	3.80163E-3	59.6202E-12	426.160E-3	-22.5458E-3
932.966E-6	59.0905E-12	370.756E-3	-18.8979E-3	59.4268E-12	431.019E-3	-20.1623E-3
927.964E-6	59.0531E-12	399.871E-3	-35.8278E-3	58.9795E-12	442.172E-3	-14.3326E-3
922.961E-6	58.2225E-12	392.632E-3	-21.7804E-3	58.5886E-12	452.057E-3	-22.5359E-3
917.959E-6	58.1578E-12	389.858E-3	-11.6006E-3	58.6030E-12	456.786E-3	-23.8735E-3
912.956E-6	58.1683E-12	400.336E-3	-8.84405E-3	58.6365E-12	470.903E-3	-28.7629E-3
907.954E-6	57.3721E-12	409.682E-3	-15.4051E-3	58.1082E-12	481.707E-3	-32.2560E-3
902.951E-6	56.8281E-12	431.589E-3	-35.4020E-3	57.8564E-12	500.342E-3	-12.1778E-3
897.949E-6	57.0017E-12	450.648E-3	-39.5564E-3	57.5105E-12	533.307E-3	12.1236E-3
892.946E-6	57.2004E-12	452.990E-3	-19.2089E-3	57.4781E-12	557.021E-3	21.9069E-3
887.944E-6	56.7707E-12	472.529E-3	4.30675E-3	57.1813E-12	573.335E-3	14.3105E-3
882.941E-6	55.9488E-12	507.819E-3	19.0741E-3	56.9681E-12	586.994E-3	3.48198E-3
877.939E-6	56.4093E-12	514.865E-3	10.5817E-3	56.2113E-12	593.317E-3	-13.0381E-3
872.936E-6	56.7779E-12	527.062E-3	-17.9431E-3	55.4435E-12	604.561E-3	-23.6862E-3
867.934E-6	56.5618E-12	560.772E-3	-28.9913E-3	54.8712E-12	630.025E-3	-18.4180E-3
862.931E-6	55.5796E-12	571.714E-3	-24.9449E-3	54.7556E-12	655.419E-3	-20.3949E-3
857.929E-6	55.8388E-12	580.902E-3	-36.9623E-3	54.8816E-12	679.670E-3	-28.1402E-3
852.926E-6	55.8679E-12	609.142E-3	-43.3189E-3	54.5481E-12	699.695E-3	-27.7614E-3
847.924E-6	55.9464E-12	626.635E-3	-24.0517E-3	54.3375E-12	715.004E-3	-23.3367E-3
842.921E-6	54.7809E-12	644.434E-3	-8.98138E-3	53.7363E-12	734.598E-3	-18.2509E-3
837.919E-6	54.6062E-12	677.638E-3	-4.90820E-3	53.4609E-12	745.879E-3	-7.70120E-3
832.916E-6	54.8892E-12	687.914E-3	946.263E-6	53.7388E-12	758.065E-3	-5.85471E-3
827.914E-6	54.6415E-12	685.226E-3	-8.50426E-3	53.6178E-12	788.745E-3	-22.4414E-3
822.911E-6	53.5959E-12	720.532E-3	-22.5588E-3	52.7365E-12	818.898E-3	-26.5593E-3
817.909E-6	53.3280E-12	759.647E-3	-15.2538E-3	52.2508E-12	838.746E-3	-19.9384E-3
812.906E-6	53.1430E-12	772.117E-3	-21.7140E-3	52.8028E-12	861.991E-3	-23.6316E-3
807.904E-6	52.3525E-12	797.289E-3	-37.5356E-3	52.4915E-12	898.538E-3	-20.8697E-3
802.901E-6	52.2740E-12	827.720E-3	-19.8234E-3	51.6643E-12	927.146E-3	-17.7837E-3
797.899E-6	51.8508E-12	838.912E-3	-8.71543E-3	51.3457E-12	938.298E-3	-29.7320E-3
792.896E-6	51.1247E-12	855.717E-3	-20.8544E-3	51.4079E-12	960.986E-3	-30.0380E-3
787.894E-6	50.6420E-12	873.739E-3	-22.4206E-3	51.1245E-12	989.971E-3	-14.3819E-3
782.891E-6	50.5525E-12	882.506E-3	-19.1252E-3	50.6019E-12	1.00846E+0	-8.27643E-3
777.889E-6	50.1688E-12	906.743E-3	-24.7491E-3	50.1938E-12	1.02170E+0	-11.2245E-3
772.886E-6	49.3402E-12	935.535E-3	-26.0817E-3	49.4430E-12	1.04899E+0	-15.0627E-3
767.884E-6	49.5836E-12	951.111E-3	-13.0268E-3	49.3275E-12	1.08114E+0	-17.1004E-3
762.881E-6	49.4258E-12	973.595E-3	-4.29572E-3	49.0188E-12	1.10032E+0	-9.65437E-3
757.879E-6	49.2720E-12	1.01054E+0	6.95878E-3	48.1482E-12	1.12708E+0	65.3950E-6
752.876E-6	49.1148E-12	1.04116E+0	8.02680E-3	48.3344E-12	1.15595E+0	-12.3211E-3
747.874E-6	48.4485E-12	1.06094E+0	-13.7543E-3	48.4958E-12	1.18921E+0	-32.9248E-3
742.871E-6	48.1056E-12	1.08610E+0	-15.9762E-3	48.0180E-12	1.24048E+0	-33.4076E-3
737.869E-6	48.4219E-12	1.12035E+0	-1.16808E-3	47.5853E-12	1.27704E+0	-24.2167E-3
732.866E-6	48.2773E-12	1.16129E+0	-8.47375E-3	47.7208E-12	1.28588E+0	-20.6411E-3
727.864E-6	47.0957E-12	1.20233E+0	-17.1957E-3	47.6205E-12	1.30852E+0	-20.1433E-3
722.861E-6	46.7464E-12	1.21655E+0	-16.3139E-3	47.1299E-12	1.34933E+0	-14.2890E-3
717.859E-6	46.7304E-12	1.22308E+0	-28.4590E-3	46.4719E-12	1.37163E+0	-5.62194E-3
712.856E-6	46.7203E-12	1.25732E+0	-35.3287E-3	46.4118E-12	1.38730E+0	-10.0892E-3
707.854E-6	45.9495E-12	1.29464E+0	-25.1740E-3	46.3778E-12	1.41137E+0	-38.0606E-3
702.851E-6	44.8503E-12	1.31857E+0	-29.3373E-3	45.7074E-12	1.42535E+0	-53.8256E-3
697.849E-6	44.2258E-12	1.33783E+0	-44.5441E-3	45.1234E-12	1.43973E+0	-41.7643E-3
692.846E-6	44.1807E-12	1.33916E+0	-36.1235E-3	44.9673E-12	1.47120E+0	-39.5813E-3
687.844E-6	43.7672E-12	1.34343E+0	-33.7147E-3	44.8428E-12	1.49280E+0	-35.8949E-3
682.841E-6	42.6976E-12	1.38495E+0	-42.3471E-3	44.3722E-12	1.50546E+0	-15.9086E-3
677.839E-6	42.1372E-12	1.40972E+0	-22.0087E-3	43.7287E-12	1.53690E+0	-22.8675E-3
672.836E-6	42.3507E-12	1.39988E+0	-7.13857E-3	43.1993E-12	1.54707E+0	-43.5311E-3
667.834E-6	42.0995E-12	1.40700E+0	-25.3275E-3	43.0446E-12	1.53902E+0	-41.1237E-3
662.831E-6	41.4062E-12	1.42022E+0	-34.9285E-3	42.2513E-12	1.56739E+0	-36.1502E-3
657.829E-6	40.8340E-12	1.43189E+0	-27.5762E-3	41.4073E-12	1.60257E+0	-36.8007E-3
652.826E-6	40.4021E-12	1.46854E+0	-17.6013E-3	41.4505E-12	1.62295E+0	-33.7719E-3
647.824E-6	40.2805E-12	1.51407E+0	-1.23080E-3	41.0063E-12	1.63815E+0	-28.6606E-3
642.821E-6	40.0554E-12	1.54951E+0	2.64872E-3	40.2034E-12	1.64490E+0	-34.4853E-3
637.819E-6	39.5121E-12	1.58212E+0	-9.74407E-3	39.5777E-12	1.65572E+0	-29.0924E-3
632.816E-6	38.8295E-12	1.59609E+0	-13.8180E-3	39.1246E-12	1.66029E+0	-12.2115E-3
627.814E-6	38.6784E-12	1.59046E+0	-14.4354E-3	38.2969E-12	1.64981E+0	-10.7374E-3
622.811E-6	38.1883E-12	1.61304E+0	-21.6252E-3	37.6635E-12	1.64424E+0	-7.35649E-3
617.809E-6	37.4178E-12	1.65497E+0	-23.7980E-3	36.8484E-12	1.65430E+0	-8.69159E-3
612.806E-6	36.6464E-12	1.67702E+0	-15.3070E-3	36.1751E-12	1.67789E+0	-19.8069E-3
607.804E-6	36.0944E-12	1.69062E+0	-7.55765E-3	35.8727E-12	1.68782E+0	-14.4293E-3
602.801E-6	35.6311E-12	1.69388E+0	-8.97811E-3	35.1773E-12	1.69261E+0	-2.92638E-3
597.799E-6	34.8374E-12	1.68522E+0	-18.4633E-3	34.6882E-12	1.72211E+0	-8.00358E-3
592.796E-6	33.8690E-12	1.69248E+0	-31.2133E-3	34.1975E-12	1.75044E+0	-21.1066E-3
587.794E-6	33.3240E-12	1.70496E+0	-25.7260E-3	33.7727E-12	1.75418E+0	-26.5656E-3
582.791E-6	32.9618E-12	1.69979E+0	-19.1033E-3	33.0886E-12	1.74349E+0	-20.0766E-3
577.789E-6	32.0265E-12	1.69759E+0	-25.3098E-3	32.4886E-12	1.73123E+0	-15.3340E-3
572.786E-6	31.0877E-12	1.69994E+0	-16.5741E-3	32.0039E-12	1.73102E+0	-20.8466E-3
567.784E-6	30.7817E-12	1.69128E+0	-7.69847E-3	31.1787E-12	1.73434E+0	-15.4646E-3
562.781E-6	30.4565E-12	1.68939E+0	-16.1584E-3	30.6413E-12	1.73024E+0	-6.19257E-3
557.779E-6	29.6711E-12	1.70249E+0	-19.3635E-3	30.1700E-12	1.72590E+0	-16.7968E-3
552.776E-6	28.9681E-12	1.70870E+0	-13.7126E-3	29.6033E-12	1.71813E+0	-26.1755E-3
547.774E-6	28.7272E-12	1.70080E+0	-13.8397E-3	28.7865E-12	1.70070E+0	-17.1021E-3
542.771E-6	28.4480E-12	1.70465E+0	-4.74996E-3	28.1886E-12	1.68378E+0	-9.88386E-3
537.769E-6	27.7175E-12	1.71473E+0	5.11417E-3	27.7258E-12	1.67700E+0	-21.1237E-3
532.766E-6	27.1155E-12	1.71272E+0	-5.04268E-3	27.1184E-12	1.67217E+0	-31.7068E-3
527.764E-6	26.6894E-12	1.72047E+0	-11.9282E-3	26.2610E-12	1.66854E+0	-23.8559E-3
522.761E-6	26.0320E-12	1.71597E+0	-8.47691E-3	25.5316E-12	1.66456E+0	-20.1717E-3
517.759E-6	25.3492E-12	1.69718E+0	-11.4732E-3	25.0755E-12	1.64643E+0	-30.3549E-3
512.756E-6	24.7696E-12	1.70655E+0	-2.07808E-3	24.6793E-12	1.63238E+0	-26.9293E-3
507.754E-6	24.1993E-12	1.70766E+0	21.3559E-3	23.8126E-12	1.63242E+0	-16.9573E-3
502.751E-6	23.4375E-12	1.67788E+0	5.88219E-3	23.2341E-12	1.62797E+0	-21.4452E-3
497.749E-6	22.7754E-12	1.65393E+0	-30.9795E-3	23.0561E-12	1.62460E+0	-19.2832E-3
492.746E-6	22.2908E-12	1.63701E+0	-33.7082E-3	22.4115E-12	1.62718E+0	-7.49456E-3
487.744E-6	21.8703E-12	1.62176E+0	-29.1345E-3	21.9808E-12	1.62135E+0	-1.54456E-3
482.741E-6	21.0423E-12	1.62046E+0	-30.2558E-3	21.6190E-12	1.60792E+0	1.03447E-3
477.739E-6	20.2529E-12	1.61482E+0	-4.84040E-3	21.2204E-12	1.59546E+0	-6.24532E-3
472.736E-6	20.0468E-12	1.58981E+0	6.83669E-3	20.6479E-12	1.57612E+0	-18.3952E-3
467.734E-6	19.7620E-12	1.57664E+0	-21.2266E-3	20.0097E-12	1.55094E+0	-19.4420E-3
462.731E-6	19.0962E-12	1.56555E+0	-28.6614E-3	19.5004E-12	1.52568E+0	-12.4986E-3
457.729E-6	18.4803E-12	1.53475E+0	-18.3750E-3	19.1667E-12	1.50369E+0	-5.81893E-3
452.726E-6	18.2998E-12	1.52497E+0	-22.2822E-3	18.5869E-12	1.49367E+0	-1.79381E-3
447.724E-6	18.0738E-12	1.53213E+0	-14.2008E-3	17.8424E-12	1.48193E+0	-4.14973E-3
442.721E-6	17.4876E-12	1.52513E+0	-5.73865E-3	17.4793E-12	1.44785E+0	-12.8361E-3
437.719E-6	17.1178E-12	1.51569E+0	-6.55299E-3	17.1392E-12	1.40974E+0	-9.26839E-3
432.716E-6	16.7122E-12	1.50768E+0	6.46930E-3	16.4862E-12	1.38371E+0	1.93910E-3
427.714E-6	16.3572E-12	1.49175E+0	12.8516E-3	15.7705E-12	1.35469E+0	-1.05634E-3
422.711E-6	15.7922E-12	1.47442E+0	-1.70775E-3	15.3261E-12	1.32672E+0	-8.74390E-3
417.709E-6	15.2778E-12	1.47174E+0	-12.7165E-3	15.0771E-12	1.31807E+0	-11.0379E-3
412.706E-6	14.9882E-12	1.45495E+0	-16.1360E-3	14.5594E-12	1.31074E+0	-10.6278E-3
407.704E-6	14.4517E-12	1.42139E+0	-21.4357E-3	13.9366E-12	1.28995E+0	-15.1335E-3
402.701E-6	13.9252E-12	1.40234E+0	-19.7809E-3	13.7129E-12	1.27079E+0	-26.6690E-3
397.699E-6	13.4892E-12	1.37921E+0	-16.5789E-3	13.3715E-12	1.25776E+0	-35.8416E-3
392.696E-6	13.0857E-12	1.35977E+0	-25.4079E-3	12.8348E-12	1.23445E+0	-32.0881E-3
387.694E-6	12.6275E-12	1.34904E+0	-29.6586E-3	12.4389E-12	1.20673E+0	-19.5785E-3
382.691E-6	12.1461E-12	1.31169E+0	-21.5396E-3	12.1513E-12	1.18596E+0	-8.01744E-3
377.689E-6	11.8321E-12	1.26563E+0	-24.9884E-3	11.8659E-12	1.15939E+0	4.76998E-3
372.686E-6	11.5270E-12	1.23961E+0	-19.4560E-3	11.4708E-12	1.12791E+0	4.72692E-3
367.684E-6	11.0358E-12	1.21203E+0	1.56787E-3	11.0120E-12	1.09451E+0	-13.8958E-3
362.681E-6	10.5350E-12	1.18444E+0	-4.92916E-3	10.7579E-12	1.05673E+0	-29.2279E-3
357.679E-6	10.3172E-12	1.17636E+0	-19.4268E-3	10.4315E-12	1.02867E+0	-28.1910E-3
352.676E-6	10.0747E-12	1.15410E+0	-15.7328E-3	9.91104E-12	1.00827E+0	-25.9067E-3
347.674E-6	9.59529E-12	1.10692E+0	-15.6692E-3	9.58219E-12	977.302E-3	-22.5901E-3
342.671E-6	9.15796E-12	1.07251E+0	-21.9224E-3	9.36004E-12	942.761E-3	-13.7190E-3
337.669E-6	8.99113E-12	1.04079E+0	-18.7676E-3	8.93898E-12	929.235E-3	-16.8707E-3
332.666E-6	8.79898E-12	1.00559E+0	-17.7261E-3	8.46346E-12	910.714E-3	-21.1458E-3
327.664E-6	8.28401E-12	988.357E-3	-25.9219E-3	8.13788E-12	861.263E-3	-15.7553E-3
322.661E-6	7.95588E-12	972.552E-3	-26.4856E-3	7.92353E-12	824.021E-3	-16.7628E-3
317.659E-6	7.82434E-12	948.174E-3	-24.3351E-3	7.65650E-12	799.013E-3	-18.4985E-3
312.656E-6	7.46366E-12	928.704E-3	-17.5782E-3	7.16261E-12	770.171E-3	-16.0439E-3
307.654E-6	7.15583E-12	906.987E-3	-2.67885E-3	6.85305E-12	757.288E-3	-20.1247E-3
302.651E-6	6.77888E-12	872.680E-3	-9.48205E-3	6.79379E-12	745.065E-3	-25.2157E-3
297.649E-6	6.55351E-12	841.652E-3	-27.7420E-3	6.55718E-12	717.494E-3	-17.2614E-3
292.646E-6	6.28271E-12	809.743E-3	-15.6565E-3	6.10335E-12	688.993E-3	-5.56287E-3
287.644E-6	5.93790E-12	774.126E-3	-1.91629E-3	5.86385E-12	663.314E-3	-2.95633E-3
282.641E-6	5.72646E-12	744.786E-3	-10.7406E-3	5.77746E-12	634.086E-3	-3.98951E-3
277.639E-6	5.50744E-12	715.283E-3	-5.23121E-3	5.55349E-12	613.952E-3	-19.9508E-3
272.636E-6	5.27487E-12	695.271E-3	6.09462E-3	5.18380E-12	606.929E-3	-39.7554E-3
267.634E-6	4.91501E-12	686.129E-3	-4.49683E-3	4.96114E-12	597.301E-3	-31.7759E-3
262.631E-6	4.69997E-12	655.465E-3	-8.16296E-3	4.86744E-12	577.681E-3	-20.1188E-3
257.629E-6	4.59220E-12	602.086E-3	-8.55116E-3	4.63582E-12	545.405E-3	-23.9000E-3
252.626E-6	4.37410E-12	572.034E-3	-22.7362E-3	4.34929E-12	508.652E-3	-25.0763E-3
247.624E-6	4.11416E-12	567.633E-3	-13.6075E-3	4.22908E-12	486.522E-3	-18.5690E-3
242.621E-6	3.98649E-12	560.067E-3	-376.656E-6	4.15606E-12	478.563E-3	-19.2495E-3
237.619E-6	3.98955E-12	552.183E-3	-16.9068E-3	3.97722E-12	467.410E-3	-23.1819E-3
232.616E-6	3.78483E-12	548.385E-3	-25.8925E-3	3.70539E-12	452.492E-3	-21.9139E-3
227.614E-6	3.48681E-12	527.835E-3	-16.0573E-3	3.55501E-12	435.949E-3	-22.0923E-3
222.611E-6	3.32922E-12	488.529E-3	-12.1676E-3	3.34842E-12	404.390E-3	-20.1575E-3
217.609E-6	3.20670E-12	457.420E-3	-5.39500E-3	3.18561E-12	372.575E-3	-15.9930E-3
212.606E-6	3.06312E-12	434.017E-3	4.72368E-3	3.07765E-12	363.591E-3	-25.3069E-3
207.604E-6	2.94961E-12	415.258E-3	-10.2413E-3	2.94916E-12	369.701E-3	-33.7795E-3
202.601E-6	2.88196E-12	410.877E-3	-24.6935E-3	2.78436E-12	364.130E-3	-16.2299E-3
197.599E-6	2.61694E-12	400.249E-3	-23.4070E-3	2.61493E-12	341.130E-3	-1.02039E-3
192.596E-6	2.51939E-12	377.859E-3	-32.3543E-3	2.51425E-12	319.538E-3	-13.3265E-3
187.594E-6	2.44457E-12	369.267E-3	-29.1578E-3	2.47213E-12	309.771E-3	-24.8929E-3
182.591E-6	2.33315E-12	359.045E-3	-6.40247E-3	2.37020E-12	303.313E-3	-12.6668E-3
177.589E-6	2.16560E-12	335.941E-3	1.24263E-3	2.13058E-12	294.098E-3	5.44352E-3
172.586E-6	2.02425E-12	329.596E-3	-8.38422E-3	2.00909E-12	291.572E-3	6.97035E-3
167.584E-6	1.94596E-12	318.455E-3	-10.7786E-3	2.07375E-12	284.939E-3	-12.2745E-3
162.581E-6	1.93323E-12	289.362E-3	-12.8437E-3	1.95815E-12	255.369E-3	-34.9879E-3
157.579E-6	1.75658E-12	275.922E-3	-18.5523E-3	1.74266E-12	228.756E-3	-41.7157E-3
152.576E-6	1.60050E-12	264.762E-3	-11.7175E-3	1.61659E-12	228.657E-3	-31.8959E-3
147.574E-6	1.55067E-12	243.398E-3	-8.51476E-3	1.68119E-12	234.106E-3	-22.2564E-3
142.571E-6	1.56714E-12	232.067E-3	-18.2814E-3	1.56205E-12	224.839E-3	-13.0257E-3
137.569E-6	1.42231E-12	221.393E-3	-8.63263E-3	1.43527E-12	215.164E-3	-3.46900E-3
132.566E-6	1.32826E-12	205.648E-3	10.7796E-3	1.30578E-12	214.984E-3	-11.2225E-3
127.564E-6	1.24374E-12	210.228E-3	1.40148E-3	1.33167E-12	209.975E-3	-17.8820E-3
122.561E-6	1.23756E-12	213.978E-3	-9.67965E-3	1.28157E-12	201.817E-3	-6.58906E-3
117.559E-6	1.15387E-12	201.218E-3	-5.83256E-3	1.13728E-12	191.976E-3	6.61312E-3
112.556E-6	1.06138E-12	201.343E-3	-8.61207E-3	1.03577E-12	182.804E-3	13.6918E-3
107.554E-6	1.02559E-12	201.017E-3	-455.156E-6	1.00679E-12	177.189E-3	1.57554E-3
102.551E-6	946.923E-15	189.018E-3	13.3977E-3	953.864E-15	159.749E-3	-11.4284E-3
97.5488E-6	944.133E-15	195.564E-3	-3.12512E-3	893.195E-15	145.838E-3	-5.48328E-3
92.5463E-6	836.912E-15	201.505E-3	-16.6192E-3	852.249E-15	151.840E-3	-6.10310E-3
87.5438E-6	821.479E-15	183.015E-3	-10.5383E-3	710.247E-15	156.628E-3	-20.9736E-3
82.5413E-6	740.232E-15	172.100E-3	-20.5096E-3	673.285E-15	154.810E-3	-36.6640E-3
77.5388E-6	637.205E-15	173.559E-3	-25.7106E-3	595.753E-15	153.663E-3	-45.7718E-3
72.5363E-6	636.281E-15	153.927E-3	-19.2029E-3	623.899E-15	147.444E-3	-48.7941E-3
67.5338E-6	584.671E-15	135.398E-3	-26.4863E-3	570.903E-15	141.247E-3	-42.9425E-3
62.5313E-6	469.629E-15	145.018E-3	-27.1738E-3	413.938E-15	148.109E-3	-33.9145E-3
57.5288E-6	420.155E-15	151.158E-3	-23.6466E-3	404.321E-15	149.360E-3	-33.2673E-3
52.5263E-6	372.818E-15	148.635E-3	-26.0144E-3	456.253E-15	135.771E-3	-25.2666E-3
47.5238E-6	357.960E-15	145.403E-3	-17.4060E-3	371.929E-15	133.805E-3	-11.0203E-3
42.5213E-6	274.534E-15	134.606E-3	-12.4691E-3	196.052E-15	145.148E-3	-21.9238E-3
37.5188E-6	180.043E-15	124.503E-3	-20.6299E-3	151.304E-15	142.508E-3	-35.8669E-3
32.5163E-6	171.428E-15	126.912E-3	-21.0612E-3	270.078E-15	126.291E-3	-26.4164E-3
27.5138E-6	232.115E-15	132.361E-3	-15.2782E-3	229.473E-15	126.253E-3	-17.4222E-3
22.5113E-6	112.050E-15	132.296E-3	-18.5931E-3	68.2352E-15	135.146E-3	-15.8633E-3
17.5088E-6	30.1667E-15	125.825E-3	-13.3960E-3	-46.0749E-15	132.417E-3	-17.3687E-3
12.5063E-6	730.317E-18	112.524E-3	1.87894E-3	-17.1443E-15	125.861E-3	-23.4351E-3
7.50375E-6	33.2446E-15	111.292E-3	-13.4737E-3	3.36355E-15	131.650E-3	-22.1463E-3
2.50125E-6	-108.270E-15	131.005E-3	-35.9052E-3	-138.439E-15	145.711E-3	-13.8880E-3
-2.50125E-6	-216.904E-15	136.829E-3	-26.6800E-3	-232.084E-15	149.235E-3	-21.0809E-3
-7.50375E-6	-252.287E-15	128.514E-3	-26.6632E-3	-212.047E-15	143.664E-3	-41.4678E-3
-12.5063E-6	-197.634E-15	137.813E-3	-36.3700E-3	-241.588E-15	148.351E-3	-42.7153E-3
-17.5088E-6	-277.686E-15	147.082E-3	-31.0570E-3	-320.594E-15	167.523E-3	-28.1178E-3
-22.5113E-6	-345.060E-15	148.467E-3	-36.6436E-3	-360.223E-15	168.829E-3	-18.9779E-3
-27.5138E-6	-415.547E-15	155.778E-3	-48.4810E-3	-440.249E-15	153.626E-3	-15.4317E-3
-32.5163E-6	-473.147E-15	151.799E-3	-35.3140E-3	-484.569E-15	152.338E-3	-15.4466E-3
-37.5188E-6	-489.234E-15	139.821E-3	-22.4653E-3	-511.948E-15	161.369E-3	-13.0144E-3
-42.5213E-6	-576.723E-15	144.872E-3	-19.6886E-3	-566.007E-15	178.366E-3	-13.0674E-3
-47.5238E-6	-625.935E-15	154.471E-3	-7.49030E-3	-647.576E-15	192.447E-3	-17.7063E-3
-52.5263E-6	-700.799E-15	151.012E-3	222.787E-6	-736.766E-15	188.393E-3	-22.0970E-3
-57.5288E-6	-790.756E-15	157.577E-3	-62.8313E-6	-832.365E-15	195.314E-3	-20.7174E-3
-62.5313E-6	-807.968E-15	174.675E-3	4.40454E-3	-779.892E-15	214.591E-3	-12.9599E-3
-67.5338E-6	-836.986E-15	174.245E-3	7.99881E-3	-870.791E-15	219.297E-3	-19.5967E-3
-72.5363E-6	-962.683E-15	175.072E-3	5.50289E-3	-1.03993E-12	228.335E-3	-32.5353E-3
-77.5388E-6	-1.05388E-12	188.819E-3	-1.21266E-3	-1.11594E-12	241.890E-3	-26.2535E-3
-82.5413E-6	-1.09437E-12	197.215E-3	-14.0006E-3	-1.06833E-12	244.688E-3	-10.6054E-3
-87.5438E-6	-1.10404E-12	203.237E-3	-24.2354E-3	-1.16760E-12	240.747E-3	-3.03644E-3
-92.5463E-6	-1.28460E-12	210.095E-3	-19.6809E-3	-1.32858E-12	236.002E-3	-10.9728E-3
-97.5488E-6	-1.45564E-12	212.718E-3	-15.2417E-3	-1.41958E-12	239.831E-3	-32.2739E-3
-102.551E-6	-1.44545E-12	220.183E-3	-30.3128E-3	-1.42830E-12	263.447E-3	-41.0334E-3
-107.554E-6	-1.45155E-12	243.070E-3	-40.3194E-3	-1.45545E-12	297.973E-3	-27.2385E-3
-112.556E-6	-1.58577E-12	265.769E-3	-32.2164E-3	-1.65625E-12	316.823E-3	-15.4463E-3
-117.559E-6	-1.75938E-12	277.328E-3	-31.8345E-3	-1.79144E-12	323.167E-3	-13.3510E-3
-122.561E-6	-1.81923E-12	288.728E-3	-33.4401E-3	-1.83657E-12	327.735E-3	-15.6789E-3
-127.564E-6	-1.87407E-12	292.661E-3	-31.7486E-3	-1.86193E-12	334.280E-3	-14.2806E-3
-132.566E-6	-2.01247E-12	287.819E-3	-41.3656E-3	-2.06055E-12	349.740E-3	2.63269E-3
-137.569E-6	-2.17461E-12	302.579E-3	-43.1836E-3	-2.22114E-12	375.840E-3	20.3005E-3
-142.571E-6	-2.27698E-12	323.225E-3	-25.6718E-3	-2.24791E-12	396.477E-3	11.8394E-3
-147.574E-6	-2.38727E-12	336.616E-3	-18.8298E-3	-2.35493E-12	409.731E-3	-9.80032E-3
-152.576E-6	-2.47381E-12	358.191E-3	-22.7215E-3	-2.52737E-12	432.634E-3	-17.8326E-3
-157.579E-6	-2.59591E-12	362.552E-3	-13.4159E-3	-2.62128E-12	446.184E-3	-20.2347E-3
-162.581E-6	-2.73362E-12	354.764E-3	-15.3139E-3	-2.74904E-12	455.039E-3	-22.3008E-3
-167.584E-6	-2.93276E-12	375.161E-3	-27.2944E-3	-2.93859E-12	489.367E-3	-26.8330E-3
-172.586E-6	-3.09484E-12	402.749E-3	-21.1190E-3	-3.13290E-12	526.323E-3	-25.9908E-3
-177.589E-6	-3.26857E-12	419.119E-3	-17.6550E-3	-3.27668E-12	537.343E-3	-17.8772E-3
-182.591E-6	-3.38335E-12	443.261E-3	-16.6484E-3	-3.44520E-12	549.776E-3	-21.0488E-3
-187.594E-6	-3.61679E-12	467.956E-3	2.32649E-3	-3.64964E-12	580.045E-3	-26.9876E-3
-192.596E-6	-3.77864E-12	495.679E-3	8.50562E-3	-3.85311E-12	604.761E-3	-28.4589E-3
-197.599E-6	-4.01232E-12	534.872E-3	-9.08472E-3	-3.96550E-12	622.107E-3	-22.7273E-3
-202.601E-6	-4.18208E-12	561.303E-3	-17.7465E-3	-4.11798E-12	644.429E-3	-12.4966E-3
-207.604E-6	-4.40122E-12	567.148E-3	-19.7029E-3	-4.40790E-12	676.302E-3	-10.2378E-3
-212.606E-6	-4.65228E-12	582.853E-3	-20.5762E-3	-4.71059E-12	715.456E-3	-8.17926E-3
-217.609E-6	-4.94939E-12	613.651E-3	-11.7101E-3	-4.77640E-12	745.866E-3	-2.91878E-3
-222.611E-6	-5.13547E-12	639.012E-3	-11.7807E-3	-5.01885E-12	778.012E-3	-6.72506E-3
-227.614E-6	-5.40353E-12	666.909E-3	-21.6604E-3	-5.33399E-12	818.785E-3	-20.6800E-3
-232.616E-6	-5.68775E-12	701.030E-3	-12.0968E-3	-5.61700E-12	850.411E-3	-36.3279E-3
-237.619E-6	-5.86140E-12	726.382E-3	-1.23107E-3	-5.74731E-12	871.800E-3	-35.8573E-3
-242.621E-6	-6.10435E-12	759.477E-3	-10.0256E-3	-5.95806E-12	895.157E-3	-25.4533E-3
-247.624E-6	-6.44945E-12	810.418E-3	-8.28197E-3	-6.40399E-12	941.385E-3	-23.1136E-3
-252.626E-6	-6.75560E-12	843.410E-3	-6.73635E-3	-6.74815E-12	1.00245E+0	-24.1826E-3
-257.629E-6	-7.00331E-12	864.515E-3	-22.9116E-3	-6.88979E-12	1.04907E+0	-21.8287E-3
-262.631E-6	-7.30799E-12	898.533E-3	-22.0918E-3	-7.27980E-12	1.08310E+0	-14.2100E-3
-267.634E-6	-7.63868E-12	924.440E-3	-17.4011E-3	-7.80710E-12	1.12113E+0	-17.0447E-3
-272.636E-6	-7.98036E-12	951.550E-3	-24.5625E-3	-8.12366E-12	1.17153E+0	-30.4412E-3
-277.639E-6	-8.32300E-12	996.693E-3	-13.4414E-3	-8.47418E-12	1.22520E+0	-34.1322E-3
-282.641E-6	-8.67036E-12	1.03167E+0	-3.95887E-3	-8.85479E-12	1.27098E+0	-31.1740E-3
-287.644E-6	-9.01954E-12	1.06409E+0	-18.9714E-3	-9.31261E-12	1.31595E+0	-22.6381E-3
-292.646E-6	-9.52844E-12	1.12014E+0	-23.6599E-3	-9.71231E-12	1.36039E+0	-10.3900E-3
-297.649E-6	-10.0198E-12	1.17319E+0	-17.7719E-3	-10.1340E-12	1.39424E+0	-21.8935E-3
-302.651E-6	-10.4605E-12	1.21926E+0	-25.2637E-3	-10.5752E-12	1.42551E+0	-49.0749E-3
-307.654E-6	-10.9258E-12	1.27274E+0	-30.9517E-3	-11.0562E-12	1.46010E+0	-45.4189E-3
-312.656E-6	-11.4212E-12	1.30745E+0	-24.2721E-3	-11.4342E-12	1.48834E+0	-19.0136E-3
-317.659E-6	-11.9285E-12	1.33903E+0	-20.8378E-3	-11.7685E-12	1.52726E+0	-4.50566E-3
-322.661E-6	-12.3747E-12	1.40020E+0	-27.3066E-3	-12.2283E-12	1.59480E+0	1.11754E-3
-327.664E-6	-12.9237E-12	1.45894E+0	-29.4870E-3	-12.8047E-12	1.65932E+0	-2.23804E-3
-332.666E-6	-13.4078E-12	1.50139E+0	-29.1935E-3	-13.2579E-12	1.69901E+0	-19.8584E-3
-337.669E-6	-13.8535E-12	1.55691E+0	-16.3745E-3	-13.6531E-12	1.73839E+0	-30.7057E-3
-342.671E-6	-14.4251E-12	1.60979E+0	9.26868E-3	-14.2906E-12	1.79219E+0	-19.6919E-3
-347.674E-6	-14.8598E-12	1.64196E+0	8.86288E-3	-14.9398E-12	1.85395E+0	-11.1415E-3
-352.676E-6	-15.3838E-12	1.67895E+0	-7.67104E-3	-15.3658E-12	1.91352E+0	-17.4939E-3
-357.679E-6	-15.8009E-12	1.71914E+0	-12.8791E-3	-15.9905E-12	1.97179E+0	-22.1601E-3
-362.681E-6	-16.4559E-12	1.75244E+0	-25.8712E-3	-16.6942E-12	2.03568E+0	-18.5164E-3
-367.684E-6	-17.1109E-12	1.80692E+0	-36.7402E-3	-17.4221E-12	2.10415E+0	-9.24953E-3
-372.686E-6	-17.9050E-12	1.86860E+0	-18.2692E-3	-18.2360E-12	2.16817E+0	-4.22680E-3
-377.689E-6	-18.5096E-12	1.90439E+0	-3.80512E-3	-18.9555E-12	2.22869E+0	-12.5910E-3
-382.691E-6	-19.1195E-12	1.94863E+0	-13.4806E-3	-19.6678E-12	2.29127E+0	-9.84757E-3
-387.694E-6	-20.1273E-12	2.01057E+0	-12.2334E-3	-20.5616E-12	2.34893E+0	5.76335E-3
-392.696E-6	-21.0438E-12	2.06819E+0	-6.63074E-3	-21.3044E-12	2.39943E+0	676.322E-6
-397.699E-6	-21.7680E-12	2.14561E+0	-19.2998E-3	-21.9783E-12	2.43344E+0	-13.8698E-3
-402.701E-6	-22.3956E-12	2.23334E+0	-23.7200E-3	-22.8388E-12	2.46152E+0	-13.0932E-3
-407.704E-6	-23.2760E-12	2.28914E+0	-20.5709E-3	-23.7333E-12	2.51596E+0	-5.92474E-3
-412.706E-6	-24.4177E-12	2.33743E+0	-25.4602E-3	-24.2411E-12	2.57654E+0	-6.71645E-3
-417.709E-6	-25.0788E-12	2.39982E+0	-14.9517E-3	-25.0688E-12	2.62424E+0	-8.72951E-3
-422.711E-6	-25.6070E-12	2.45694E+0	-10.9981E-3	-25.9852E-12	2.66350E+0	-8.11216E-3
-427.714E-6	-26.6985E-12	2.50638E+0	-32.5307E-3	-26.8980E-12	2.69461E+0	-22.3578E-3
-432.716E-6	-27.6905E-12	2.55886E+0	-27.8553E-3	-27.5309E-12	2.73847E+0	-40.1235E-3
-437.719E-6	-28.4935E-12	2.59977E+0	-3.61471E-3	-28.2215E-12	2.78778E+0	-29.5159E-3
-442.721E-6	-29.1698E-12	2.63350E+0	-5.81233E-3	-29.2847E-12	2.82973E+0	-11.9336E-3
-447.724E-6	-30.0650E-12	2.68597E+0	-12.0120E-3	-30.2212E-12	2.88133E+0	-8.12564E-3
-452.726E-6	-31.0719E-12	2.73174E+0	-7.58384E-3	-30.8867E-12	2.93556E+0	-15.3358E-3
-457.729E-6	-31.8551E-12	2.76577E+0	-18.0880E-3	-31.6354E-12	2.98549E+0	-25.3862E-3
-462.731E-6	-32.5365E-12	2.80541E+0	-22.1458E-3	-33.1592E-12	3.03325E+0	-12.4736E-3
-467.734E-6	-33.7931E-12	2.83269E+0	-11.1665E-3	-34.3618E-12	3.06817E+0	9.21324E-3
-472.736E-6	-34.9263E-12	2.86420E+0	-10.5023E-3	-35.4283E-12	3.10653E+0	11.5539E-3
-477.739E-6	-35.4361E-12	2.92450E+0	-8.56328E-3	-36.1229E-12	3.15819E+0	-288.705E-6
-482.741E-6	-36.2584E-12	2.97657E+0	-6.12883E-3	-37.4280E-12	3.20041E+0	-7.99904E-3
-487.744E-6	-37.6293E-12	2.99651E+0	-7.26361E-3	-39.0737E-12	3.22553E+0	-1.81728E-3
-492.746E-6	-39.0584E-12	3.01901E+0	-9.31482E-3	-40.1100E-12	3.24880E+0	3.63445E-3
-497.749E-6	-39.7493E-12	3.06054E+0	-18.8444E-3	-40.7100E-12	3.28126E+0	-10.7368E-3
-502.751E-6	-40.7844E-12	3.10699E+0	-26.9313E-3	-41.8945E-12	3.30347E+0	-34.1195E-3
-507.754E-6	-42.1480E-12	3.14402E+0	-28.5113E-3	-43.2582E-12	3.29989E+0	-33.0531E-3
-512.756E-6	-43.5952E-12	3.16321E+0	-17.2682E-3	-44.2783E-12	3.30264E+0	-9.04978E-3
-517.759E-6	-44.6921E-12	3.18882E+0	-8.16253E-3	-44.9452E-12	3.32300E+0	3.94576E-3
-522.761E-6	-45.6123E-12	3.24378E+0	-20.4360E-3	-46.1099E-12	3.33748E+0	1.73384E-3
-527.764E-6	-46.7150E-12	3.29077E+0	-27.1155E-3	-47.0475E-12	3.33361E+0	-5.81570E-3
-532.766E-6	-48.0786E-12	3.29250E+0	-26.3598E-3	-47.8054E-12	3.31157E+0	-14.7764E-3
-537.769E-6	-49.4574E-12	3.29590E+0	-20.8885E-3	-48.8361E-12	3.29130E+0	-12.1371E-3
-542.771E-6	-50.3466E-12	3.32807E+0	-4.77435E-3	-49.9283E-12	3.29074E+0	63.6068E-6
-547.774E-6	-50.9986E-12	3.35239E+0	-3.41513E-3	-50.5042E-12	3.30136E+0	-312.666E-6
-552.776E-6	-51.8077E-12	3.36460E+0	-20.7308E-3	-50.9712E-12	3.30294E+0	-10.6115E-3
-557.779E-6	-52.6436E-12	3.35982E+0	-34.2577E-3	-51.6587E-12	3.29408E+0	-8.95963E-3
-562.781E-6	-54.2157E-12	3.33232E+0	-41.2838E-3	-53.4760E-12	3.28669E+0	-1.44608E-3
-567.784E-6	-55.5407E-12	3.32744E+0	-35.7558E-3	-54.7365E-12	3.28054E+0	-6.44180E-3
-572.786E-6	-56.5876E-12	3.34512E+0	-12.6433E-3	-56.0824E-12	3.27916E+0	-27.8000E-3
-577.789E-6	-57.4686E-12	3.34282E+0	-6.85044E-3	-57.2611E-12	3.27940E+0	-39.0636E-3
-582.791E-6	-59.1056E-12	3.32496E+0	-21.4967E-3	-58.6321E-12	3.26826E+0	-25.6902E-3
-587.794E-6	-59.8509E-12	3.30413E+0	-29.8765E-3	-59.4036E-12	3.26028E+0	-11.8245E-3
-592.796E-6	-60.6357E-12	3.28138E+0	-24.1942E-3	-60.8045E-12	3.25633E+0	-19.1096E-3
-597.799E-6	-61.6349E-12	3.26667E+0	-12.5652E-3	-61.7287E-12	3.24690E+0	-25.0048E-3
-602.801E-6	-62.9952E-12	3.25700E+0	-10.1748E-3	-63.4048E-12	3.23651E+0	-25.9495E-3
-607.804E-6	-64.3637E-12	3.24917E+0	-22.8681E-3	-64.5441E-12	3.22045E+0	-35.8457E-3
-612.806E-6	-65.4956E-12	3.25259E+0	-37.0829E-3	-65.1162E-12	3.19113E+0	-33.0653E-3
-617.809E-6	-66.5910E-12	3.26564E+0	-25.9990E-3	-66.4010E-12	3.15864E+0	-22.8809E-3
-622.811E-6	-67.9504E-12	3.25995E+0	-12.4269E-3	-68.1938E-12	3.13599E+0	-17.2398E-3
-627.814E-6	-69.5111E-12	3.23579E+0	-27.2837E-3	-68.9078E-12	3.10771E+0	-23.0317E-3
-632.816E-6	-70.6905E-12	3.23103E+0	-38.9562E-3	-69.1992E-12	3.08071E+0	-33.5580E-3
-637.819E-6	-71.1667E-12	3.22553E+0	-27.3793E-3	-70.1259E-12	3.05142E+0	-34.4160E-3
-642.821E-6	-72.0464E-12	3.20611E+0	-6.88985E-3	-71.1965E-12	3.00302E+0	-26.7804E-3
-647.824E-6	-73.4886E-12	3.18294E+0	-5.61750E-3	-72.3403E-12	2.97149E+0	-17.6580E-3
-652.826E-6	-74.5173E-12	3.14390E+0	-26.1602E-3	-72.6939E-12	2.96802E+0	-22.4196E-3
-657.829E-6	-74.5040E-12	3.11545E+0	-33.6769E-3	-73.5445E-12	2.94535E+0	-30.5916E-3
-662.831E-6	-75.2714E-12	3.09503E+0	-21.5020E-3	-74.9139E-12	2.89932E+0	-19.7700E-3
-667.834E-6	-76.6218E-12	3.02757E+0	-16.8530E-3	-76.3938E-12	2.87106E+0	-11.7467E-3
-672.836E-6	-77.0280E-12	2.94908E+0	-27.8620E-3	-77.4308E-12	2.85524E+0	-19.9269E-3
-677.839E-6	-77.2644E-12	2.92245E+0	-27.7562E-3	-78.0732E-12	2.82367E+0	-32.3604E-3
-682.841E-6	-77.9136E-12	2.90790E+0	-15.8831E-3	-79.4327E-12	2.78610E+0	-42.6450E-3
-687.844E-6	-79.2741E-12	2.85890E+0	-15.6143E-3	-81.0183E-12	2.75521E+0	-38.3439E-3
-692.846E-6	-80.2690E-12	2.80082E+0	-17.5016E-3	-82.1537E-12	2.72931E+0	-20.3097E-3
-697.849E-6	-80.6712E-12	2.76915E+0	-19.2546E-3	-83.2439E-12	2.70300E+0	6.40309E-3
-702.851E-6	-81.8415E-12	2.74243E+0	-26.7478E-3	-84.4746E-12	2.66443E+0	21.0323E-3
-707.854E-6	-83.0563E-12	2.71471E+0	-19.6839E-3	-86.0104E-12	2.60950E+0	6.40273E-3
-712.856E-6	-84.2638E-12	2.69053E+0	6.50239E-3	-86.7893E-12	2.56468E+0	-4.88375E-3
-717.859E-6	-85.4530E-12	2.65059E+0	21.1137E-3	-87.6880E-12	2.53902E+0	-202.515E-6
-722.861E-6	-86.3534E-12	2.60002E+0	16.4276E-3	-88.0471E-12	2.48807E+0	-3.93148E-3
-727.864E-6	-87.1479E-12	2.55156E+0	11.6743E-3	-89.3851E-12	2.40964E+0	-14.5609E-3
-732.866E-6	-89.0479E-12	2.50735E+0	370.396E-6	-89.9293E-12	2.34404E+0	-26.8125E-3
-737.869E-6	-90.1938E-12	2.49348E+0	-11.0431E-3	-90.4871E-12	2.30627E+0	-40.7851E-3
-742.871E-6	-91.0165E-12	2.49116E+0	-1.07252E-3	-90.4632E-12	2.28202E+0	-46.0297E-3
-747.874E-6	-91.1483E-12	2.45515E+0	204.137E-6	-91.3957E-12	2.24363E+0	-39.4046E-3
-752.876E-6	-92.0123E-12	2.41624E+0	-23.4744E-3	-92.1810E-12	2.19224E+0	-30.5768E-3
-757.879E-6	-93.1231E-12	2.37268E+0	-26.2084E-3	-92.2675E-12	2.14717E+0	-25.8611E-3
-762.881E-6	-93.5722E-12	2.31397E+0	-10.1729E-3	-92.8475E-12	2.09532E+0	-27.6192E-3
-767.884E-6	-93.1058E-12	2.26833E+0	-17.0844E-3	-93.7779E-12	2.03603E+0	-34.3900E-3
-772.886E-6	-94.0337E-12	2.22354E+0	-30.7717E-3	-94.5404E-12	1.97768E+0	-34.7287E-3
-777.889E-6	-95.2282E-12	2.15698E+0	-23.5907E-3	-95.0540E-12	1.91382E+0	-31.3239E-3
-782.891E-6	-95.8334E-12	2.09210E+0	-26.8578E-3	-95.4168E-12	1.85992E+0	-30.7176E-3
-787.894E-6	-95.5448E-12	2.04284E+0	-37.8539E-3	-95.6068E-12	1.82968E+0	-27.7100E-3
-792.896E-6	-95.6333E-12	2.00073E+0	-31.6468E-3	-96.9796E-12	1.81059E+0	-21.5111E-3
-797.899E-6	-97.1381E-12	1.95653E+0	-28.7033E-3	-97.7114E-12	1.77728E+0	-12.0252E-3
-802.901E-6	-97.7786E-12	1.91040E+0	-21.6607E-3	-98.3552E-12	1.73358E+0	-2.81551E-3
-807.904E-6	-98.2657E-12	1.87459E+0	-10.9161E-3	-99.2075E-12	1.67025E+0	-4.41619E-3
-812.906E-6	-99.2775E-12	1.84043E+0	-25.5575E-3	-99.7704E-12	1.59568E+0	-11.4722E-3
-817.909E-6	-100.329E-12	1.79159E+0	-42.8864E-3	-100.379E-12	1.55433E+0	-8.59340E-3
-822.911E-6	-101.537E-12	1.72323E+0	-21.4771E-3	-100.701E-12	1.52443E+0	-7.54243E-3
-827.914E-6	-102.160E-12	1.66527E+0	3.41975E-3	-100.994E-12	1.47784E+0	-18.9765E-3
-832.916E-6	-102.876E-12	1.64356E+0	2.67381E-3	-101.613E-12	1.44968E+0	-20.5595E-3
-837.919E-6	-103.984E-12	1.62389E+0	6.93556E-3	-102.195E-12	1.43000E+0	-16.9900E-3
-842.921E-6	-105.000E-12	1.57723E+0	5.86567E-3	-102.432E-12	1.37117E+0	-22.1472E-3
-847.924E-6	-105.357E-12	1.53846E+0	-11.6426E-3	-103.098E-12	1.29687E+0	-25.9676E-3
-852.926E-6	-105.062E-12	1.50538E+0	-18.6621E-3	-103.468E-12	1.24886E+0	-22.5831E-3
-857.929E-6	-105.571E-12	1.45348E+0	-23.0130E-3	-103.245E-12	1.21696E+0	-21.0785E-3
-862.931E-6	-105.966E-12	1.41346E+0	-34.4581E-3	-103.559E-12	1.18104E+0	-22.5382E-3
-867.934E-6	-106.819E-12	1.37821E+0	-27.9307E-3	-104.553E-12	1.14916E+0	-12.8570E-3
-872.936E-6	-105.301E-12	1.33472E+0	-11.5494E-3	-104.322E-12	1.11686E+0	-5.82914E-3
-877.939E-6	-104.829E-12	1.28938E+0	-20.0791E-3	-104.512E-12	1.06847E+0	-12.6017E-3
-882.941E-6	-105.589E-12	1.22314E+0	-28.5189E-3	-105.145E-12	1.02446E+0	-12.4165E-3
-887.944E-6	-105.856E-12	1.15783E+0	-21.1866E-3	-105.719E-12	993.764E-3	-6.34761E-3
-892.946E-6	-105.502E-12	1.13805E+0	-13.2679E-3	-106.253E-12	964.138E-3	-373.561E-6
-897.949E-6	-104.907E-12	1.12700E+0	2.80155E-3	-106.442E-12	943.125E-3	2.78856E-3
-902.951E-6	-105.789E-12	1.07022E+0	8.51933E-3	-107.110E-12	928.362E-3	-10.9523E-3
-907.954E-6	-106.445E-12	1.00615E+0	995.126E-6	-107.836E-12	898.225E-3	-16.1120E-3
-912.956E-6	-106.723E-12	979.107E-3	1.52706E-3	-108.523E-12	856.550E-3	-12.9210E-3
-917.959E-6	-106.759E-12	958.061E-3	-17.3554E-3	-109.324E-12	814.437E-3	-20.5547E-3
-922.961E-6	-107.263E-12	921.525E-3	-46.2465E-3	-109.224E-12	776.236E-3	-20.2219E-3
-927.964E-6	-108.132E-12	888.957E-3	-29.1967E-3	-109.515E-12	753.004E-3	-8.91452E-3
-932.966E-6	-108.628E-12	859.417E-3	-2.69427E-3	-110.012E-12	746.047E-3	-10.0460E-3
-937.969E-6	-108.902E-12	835.631E-3	-2.09821E-3	-110.683E-12	735.479E-3	-20.0220E-3
-942.971E-6	-109.225E-12	828.739E-3	-9.59345E-3	-110.369E-12	708.989E-3	-21.0881E-3
-947.974E-6	-110.620E-12	806.919E-3	-17.0950E-3	-110.587E-12	675.912E-3	-24.7559E-3
-952.976E-6	-111.302E-12	762.058E-3	-18.5233E-3	-111.169E-12	639.617E-3	-25.7168E-3
-957.979E-6	-111.040E-12	733.517E-3	-9.16652E-3	-111.298E-12	614.053E-3	-13.1158E-3
-962.981E-6	-110.867E-12	714.061E-3	-2.62115E-3	-111.143E-12	602.108E-3	-2.96008E-3
-967.984E-6	-111.302E-12	690.902E-3	-14.6314E-3	-111.709E-12	586.651E-3	-3.92219E-3
-972.986E-6	-111.995E-12	674.845E-3	-18.4342E-3	-111.427E-12	569.757E-3	-4.06692E-3
-977.989E-6	-111.966E-12	653.227E-3	-1.53642E-3	-111.649E-12	547.160E-3	-97.8044E-6
-982.991E-6	-110.774E-12	616.865E-3	14.1259E-3	-111.613E-12	520.215E-3	5.68676E-3
-987.994E-6	-110.236E-12	593.020E-3	7.00447E-3	-111.653E-12	507.466E-3	-1.51063E-3
-992.997E-6	-111.820E-12	570.913E-3	-6.68678E-3	-112.503E-12	503.577E-3	-23.5600E-3
-997.999E-6	-111.525E-12	534.972E-3	-12.0597E-3	-113.206E-12	488.370E-3	-38.7150E-3
-1.00300E-3	-111.497E-12	534.989E-3	-11.5901E-3	-113.076E-12	456.760E-3	-38.4062E-3
-1.00800E-3	-111.525E-12	551.666E-3	-7.42149E-3	-112.868E-12	442.677E-3	-35.3912E-3
-1.01301E-3	-112.401E-12	525.944E-3	-21.0058E-3	-114.023E-12	442.421E-3	-40.1944E-3
-1.01801E-3	-112.500E-12	486.787E-3	-40.9908E-3	-114.174E-12	422.372E-3	-36.2945E-3
-1.02301E-3	-112.723E-12	467.341E-3	-52.2213E-3	-113.753E-12	400.215E-3	-27.9451E-3
-1.02801E-3	-113.349E-12	442.840E-3	-42.8267E-3	-113.193E-12	391.559E-3	-34.1871E-3
-1.03302E-3	-113.951E-12	435.172E-3	-17.5595E-3	-113.885E-12	379.083E-3	-38.4555E-3
-1.03802E-3	-114.590E-12	442.287E-3	-17.3345E-3	-114.289E-12	375.605E-3	-36.0041E-3
-1.04302E-3	-114.458E-12	420.191E-3	-30.2132E-3	-114.520E-12	385.312E-3	-36.7802E-3
-1.04802E-3	-114.552E-12	405.367E-3	-29.9510E-3	-113.989E-12	372.220E-3	-24.9903E-3
-1.05303E-3	-114.767E-12	416.099E-3	-20.9290E-3	-113.610E-12	344.337E-3	-5.90768E-3
-1.05803E-3	-114.842E-12	405.346E-3	-22.6808E-3	-114.463E-12	338.821E-3	-7.30026E-3
-1.06303E-3	-115.244E-12	376.885E-3	-37.4221E-3	-114.219E-12	349.092E-3	-27.8309E-3
-1.06803E-3	-115.220E-12	356.749E-3	-36.5964E-3	-114.568E-12	350.909E-3	-27.1209E-3
-1.07304E-3	-115.452E-12	345.649E-3	-29.8686E-3	-114.357E-12	343.263E-3	-1.11269E-3
-1.07804E-3	-115.185E-12	335.718E-3	-41.8125E-3	-114.661E-12	328.887E-3	11.1703E-3
-1.08304E-3	-115.765E-12	327.909E-3	-45.2029E-3	-114.747E-12	314.251E-3	4.89547E-3
-1.08804E-3	-115.035E-12	324.432E-3	-30.1361E-3	-114.768E-12	308.619E-3	-8.48385E-3
-1.09305E-3	-114.707E-12	315.304E-3	-15.3125E-3	-115.053E-12	309.035E-3	-14.1007E-3
-1.09805E-3	-114.244E-12	310.849E-3	-4.03335E-3	-115.101E-12	309.728E-3	-8.19189E-3
-1.10305E-3	-114.161E-12	305.098E-3	-12.2000E-3	-115.058E-12	307.455E-3	-14.2401E-3
-1.10805E-3	-114.685E-12	297.592E-3	-34.0194E-3	-115.613E-12	299.718E-3	-26.2550E-3
-1.11306E-3	-114.148E-12	300.890E-3	-36.7748E-3	-116.226E-12	295.421E-3	-19.1904E-3
-1.11806E-3	-113.742E-12	296.516E-3	-15.6658E-3	-116.065E-12	310.517E-3	-12.4109E-3
-1.12306E-3	-113.946E-12	289.228E-3	-11.3392E-3	-115.793E-12	322.817E-3	-32.4931E-3
-1.12806E-3	-115.444E-12	306.606E-3	-18.4110E-3	-116.476E-12	300.045E-3	-44.4430E-3
-1.13307E-3	-115.535E-12	327.258E-3	-12.3308E-3	-116.564E-12	279.990E-3	-23.8947E-3
-1.13807E-3	-115.533E-12	315.773E-3	-17.9910E-3	-116.877E-12	284.698E-3	-10.8088E-3
-1.14307E-3	-114.878E-12	294.211E-3	-25.5943E-3	-116.838E-12	290.195E-3	-15.5323E-3
-1.14807E-3	-115.143E-12	275.624E-3	-19.7015E-3	-116.347E-12	302.461E-3	-11.1920E-3
-1.15308E-3	-116.337E-12	258.255E-3	-28.1633E-3	-115.862E-12	319.667E-3	-7.53510E-3
-1.15808E-3	-116.657E-12	260.590E-3	-26.8665E-3	-115.454E-12	324.902E-3	-3.14030E-3
-1.16308E-3	-116.089E-12	281.765E-3	-4.11215E-3	-116.081E-12	312.562E-3	7.88908E-3
-1.16808E-3	-115.425E-12	310.352E-3	-5.69202E-3	-116.087E-12	295.290E-3	1.91374E-3
-1.17309E-3	-116.852E-12	324.688E-3	-17.9458E-3	-115.145E-12	296.973E-3	-13.5392E-3
-1.17809E-3	-117.627E-12	307.497E-3	-11.6792E-3	-114.428E-12	309.565E-3	-6.85071E-3
-1.18309E-3	-117.729E-12	291.327E-3	-2.92828E-3	-114.833E-12	306.634E-3	15.1938E-3
-1.18809E-3	-116.414E-12	312.297E-3	-6.32569E-3	-114.712E-12	301.037E-3	25.0434E-3
-1.19310E-3	-116.032E-12	331.289E-3	-10.4445E-3	-113.561E-12	307.949E-3	23.7869E-3
-1.19810E-3	-116.428E-12	310.162E-3	-23.5271E-3	-114.329E-12	307.543E-3	4.58319E-3
-1.20310E-3	-116.138E-12	300.053E-3	-42.8946E-3	-115.408E-12	296.668E-3	-15.9580E-3
-1.20810E-3	-116.175E-12	319.813E-3	-36.2559E-3	-115.543E-12	318.533E-3	-15.4925E-3
-1.21311E-3	-116.114E-12	324.355E-3	-24.6904E-3	-114.724E-12	354.011E-3	-8.51577E-3
-1.21811E-3	-117.129E-12	328.540E-3	-23.6183E-3	-115.079E-12	351.480E-3	-6.70646E-3
-1.22311E-3	-116.527E-12	338.488E-3	-12.6090E-3	-115.758E-12	357.682E-3	-8.85396E-3
-1.22811E-3	-116.622E-12	333.781E-3	-22.1293E-3	-115.484E-12	397.811E-3	-12.9291E-3
-1.23312E-3	-116.381E-12	328.408E-3	-54.3702E-3	-115.810E-12	407.779E-3	-21.0772E-3
-1.23812E-3	-116.952E-12	331.544E-3	-53.8583E-3	-115.857E-12	383.170E-3	-22.8106E-3
-1.24312E-3	-117.338E-12	335.292E-3	-22.3384E-3	-115.957E-12	377.574E-3	-21.2612E-3
-1.24812E-3	-117.818E-12	334.015E-3	-8.57830E-3	-116.676E-12	390.198E-3	-33.9801E-3
-1.25313E-3	-117.885E-12	334.578E-3	-14.9551E-3	-117.188E-12	402.642E-3	-40.9484E-3
-1.25813E-3	-118.489E-12	339.946E-3	-20.2293E-3	-116.905E-12	411.907E-3	-26.2576E-3
-1.26313E-3	-119.430E-12	358.654E-3	-25.1482E-3	-116.649E-12	411.254E-3	-22.1425E-3
-1.26813E-3	-119.255E-12	393.043E-3	-27.6140E-3	-117.901E-12	412.175E-3	-24.5249E-3
-1.27314E-3	-119.407E-12	401.199E-3	-28.0591E-3	-117.274E-12	421.204E-3	-14.7377E-3
-1.27814E-3	-119.478E-12	389.855E-3	-22.1561E-3	-117.748E-12	420.333E-3	-13.1177E-3
-1.28314E-3	-120.682E-12	402.318E-3	-4.27405E-3	-117.741E-12	417.898E-3	-16.0058E-3
-1.28814E-3	-120.141E-12	398.678E-3	10.1014E-3	-117.923E-12	420.869E-3	-22.7454E-3
-1.29315E-3	-119.150E-12	391.614E-3	4.25090E-3	-118.495E-12	417.593E-3	-37.7456E-3
-1.29815E-3	-118.665E-12	419.079E-3	-6.01589E-3	-118.695E-12	419.835E-3	-40.3833E-3
-1.30315E-3	-119.948E-12	433.740E-3	1.41565E-3	-118.722E-12	448.464E-3	-46.6775E-3
-1.30815E-3	-119.460E-12	434.563E-3	5.29682E-3	-119.135E-12	478.448E-3	-66.4754E-3
-1.31316E-3	-118.441E-12	444.255E-3	1.51118E-3	-120.621E-12	478.824E-3	-67.6661E-3
-1.31816E-3	-118.692E-12	437.382E-3	1.93166E-3	-120.575E-12	467.523E-3	-38.0402E-3
-1.32316E-3	-119.605E-12	422.792E-3	-7.65213E-3	-121.011E-12	467.669E-3	3.06065E-3
-1.32816E-3	-119.730E-12	438.472E-3	-24.0578E-3	-121.043E-12	480.525E-3	16.6422E-3
-1.33317E-3	-119.729E-12	457.517E-3	-30.6118E-3	-121.724E-12	488.045E-3	-6.71338E-3
-1.33817E-3	-120.220E-12	461.368E-3	-25.6777E-3	-122.724E-12	492.159E-3	-45.3527E-3
-1.34317E-3	-120.496E-12	475.025E-3	-21.7688E-3	-122.301E-12	499.690E-3	-54.5157E-3
-1.34817E-3	-121.365E-12	481.278E-3	-25.6046E-3	-121.942E-12	504.176E-3	-34.2936E-3
-1.35318E-3	-121.656E-12	480.114E-3	-32.5749E-3	-121.555E-12	511.060E-3	-30.8302E-3
-1.35818E-3	-121.540E-12	502.120E-3	-30.4240E-3	-123.287E-12	526.461E-3	-43.1037E-3
-1.36318E-3	-121.516E-12	521.616E-3	-24.1764E-3	-123.055E-12	535.146E-3	-48.9696E-3
-1.36818E-3	-122.020E-12	523.953E-3	-30.6122E-3	-122.770E-12	536.028E-3	-32.1499E-3
-1.37319E-3	-123.105E-12	527.107E-3	-31.6829E-3	-122.089E-12	542.830E-3	-15.2648E-3
-1.37819E-3	-122.415E-12	526.291E-3	-23.4555E-3	-123.227E-12	545.506E-3	-26.7786E-3
-1.38319E-3	-122.338E-12	534.096E-3	-40.1653E-3	-123.489E-12	539.968E-3	-44.5655E-3
-1.38819E-3	-122.718E-12	554.814E-3	-65.5144E-3	-122.858E-12	547.093E-3	-43.3868E-3
-1.39320E-3	-123.092E-12	559.929E-3	-59.3337E-3	-122.560E-12	569.472E-3	-21.4794E-3
-1.39820E-3	-122.079E-12	545.310E-3	-50.8726E-3	-122.969E-12	579.379E-3	2.74736E-3
-1.40320E-3	-121.777E-12	543.679E-3	-48.3144E-3	-123.938E-12	554.829E-3	6.61142E-3
-1.40820E-3	-121.986E-12	554.851E-3	-25.0998E-3	-123.320E-12	532.140E-3	-6.10931E-3
-1.41321E-3	-122.023E-12	551.138E-3	-16.8702E-3	-122.700E-12	546.995E-3	-17.4832E-3
-1.41821E-3	-122.240E-12	545.047E-3	-27.7716E-3	-123.628E-12	571.953E-3	-14.8356E-3
-1.42321E-3	-121.584E-12	551.513E-3	-6.37544E-3	-124.131E-12	586.104E-3	-14.9662E-3
-1.42821E-3	-122.275E-12	555.318E-3	12.0731E-3	-123.923E-12	593.808E-3	-23.4926E-3
-1.43322E-3	-122.582E-12	555.058E-3	986.642E-6	-123.318E-12	587.756E-3	-23.5889E-3
-1.43822E-3	-122.647E-12	555.786E-3	-806.955E-6	-123.795E-12	592.010E-3	-20.4580E-3
-1.44322E-3	-122.706E-12	541.945E-3	937.012E-6	-124.697E-12	613.026E-3	-19.3675E-3
-1.44822E-3	-122.642E-12	541.579E-3	-10.7527E-3	-124.691E-12	607.773E-3	-7.57049E-3
-1.45323E-3	-122.971E-12	575.209E-3	-21.4497E-3	-123.555E-12	590.959E-3	17.0498E-3
-1.45823E-3	-123.922E-12	592.290E-3	-17.0484E-3	-123.404E-12	593.995E-3	10.5646E-3
-1.46323E-3	-124.551E-12	589.244E-3	-23.9355E-3	-124.118E-12	605.142E-3	-31.2162E-3
-1.46823E-3	-123.981E-12	601.076E-3	-30.7314E-3	-124.452E-12	606.220E-3	-45.8083E-3
-1.47324E-3	-124.448E-12	603.220E-3	-23.0535E-3	-124.139E-12	616.166E-3	-26.1784E-3
-1.47824E-3	-125.395E-12	591.554E-3	-18.7155E-3	-123.827E-12	635.381E-3	-11.6518E-3
-1.48324E-3	-125.265E-12	589.788E-3	-4.91236E-3	-123.375E-12	632.947E-3	-22.5801E-3
-1.48824E-3	-124.955E-12	581.787E-3	2.74319E-3	-124.695E-12	626.209E-3	-41.5213E-3
-1.49325E-3	-124.615E-12	575.952E-3	-15.5454E-3	-125.182E-12	624.133E-3	-43.0079E-3
-1.49825E-3	-124.809E-12	586.977E-3	-33.6168E-3	-124.102E-12	609.841E-3	-29.9416E-3
-1.50325E-3	-124.580E-12	584.674E-3	-30.5083E-3	-124.362E-12	597.435E-3	-14.9132E-3
-1.50825E-3	-124.375E-12	576.495E-3	-36.4222E-3	-125.619E-12	600.804E-3	-10.4037E-3
-1.51326E-3	-124.723E-12	601.337E-3	-39.5112E-3	-126.583E-12	608.828E-3	-10.5315E-3
-1.51826E-3	-125.792E-12	616.022E-3	-18.2994E-3	-126.115E-12	614.563E-3	-12.7273E-3
-1.52326E-3	-126.499E-12	595.798E-3	-21.7981E-3	-126.869E-12	632.842E-3	-30.6045E-3
-1.52826E-3	-126.498E-12	591.429E-3	-42.2082E-3	-127.617E-12	646.072E-3	-39.1704E-3
-1.53327E-3	-126.995E-12	609.994E-3	-28.7930E-3	-128.731E-12	631.692E-3	-13.9282E-3
-1.53827E-3	-128.093E-12	619.907E-3	-16.4368E-3	-128.981E-12	607.898E-3	636.265E-6
-1.54327E-3	-128.918E-12	619.314E-3	-17.0596E-3	-128.660E-12	596.044E-3	-19.3009E-3
-1.54827E-3	-128.723E-12	622.276E-3	6.32139E-3	-128.841E-12	618.240E-3	-40.1527E-3
-1.55328E-3	-129.060E-12	612.900E-3	17.4595E-3	-129.532E-12	647.926E-3	-42.5885E-3
-1.55828E-3	-128.988E-12	606.728E-3	-164.882E-6	-130.819E-12	653.879E-3	-20.3335E-3
-1.56328E-3	-129.592E-12	620.139E-3	-10.3767E-3	-130.361E-12	650.209E-3	1.54953E-3
-1.56828E-3	-130.584E-12	629.095E-3	-15.3133E-3	-130.260E-12	638.179E-3	-5.70376E-3
-1.57329E-3	-131.566E-12	640.261E-3	-30.9421E-3	-131.105E-12	617.617E-3	-18.1644E-3
-1.57829E-3	-131.477E-12	654.858E-3	-27.4740E-3	-131.529E-12	624.591E-3	408.997E-6
-1.58329E-3	-131.264E-12	657.840E-3	-13.8165E-3	-130.961E-12	652.475E-3	8.10118E-3
-1.58829E-3	-131.670E-12	655.360E-3	-25.0203E-3	-130.125E-12	654.854E-3	-15.5810E-3
-1.59330E-3	-131.728E-12	654.359E-3	-31.8657E-3	-130.628E-12	640.939E-3	-29.0036E-3
-1.59830E-3	-131.848E-12	648.715E-3	-16.6816E-3	-131.492E-12	643.508E-3	-36.0099E-3
-1.60330E-3	-132.089E-12	648.235E-3	-12.4429E-3	-130.829E-12	653.130E-3	-39.2868E-3
-1.60830E-3	-132.330E-12	663.919E-3	-19.7989E-3	-130.739E-12	655.275E-3	-22.4505E-3
-1.61331E-3	-132.517E-12	662.761E-3	-16.5218E-3	-130.305E-12	656.392E-3	7.70061E-3
-1.61831E-3	-133.041E-12	643.404E-3	-8.46527E-3	-130.855E-12	646.658E-3	4.82906E-3
-1.62331E-3	-132.886E-12	639.354E-3	3.84207E-3	-131.349E-12	634.348E-3	-24.6332E-3
-1.62831E-3	-132.898E-12	633.297E-3	4.50731E-3	-131.611E-12	647.370E-3	-21.9728E-3
-1.63332E-3	-133.347E-12	629.780E-3	-11.8830E-3	-131.413E-12	663.472E-3	-19.8678E-3
-1.63832E-3	-133.468E-12	650.386E-3	-11.1032E-3	-131.420E-12	661.729E-3	-28.4193E-3
-1.64332E-3	-133.734E-12	653.316E-3	-584.570E-6	-132.383E-12	655.897E-3	-12.9686E-3
-1.64832E-3	-133.235E-12	642.631E-3	-5.21862E-3	-132.622E-12	653.123E-3	-11.7196E-3
-1.65333E-3	-133.883E-12	668.858E-3	-20.0989E-3	-133.761E-12	643.222E-3	-16.1589E-3
-1.65833E-3	-133.415E-12	697.435E-3	-26.2694E-3	-133.333E-12	625.740E-3	-5.06838E-3
-1.66333E-3	-134.524E-12	679.179E-3	-13.6693E-3	-133.137E-12	612.608E-3	-9.32622E-3
-1.66833E-3	-135.534E-12	658.106E-3	-2.31229E-3	-133.717E-12	609.096E-3	-10.4891E-3
-1.67334E-3	-135.693E-12	648.075E-3	-1.76474E-3	-134.247E-12	614.213E-3	6.25451E-3
-1.67834E-3	-135.177E-12	617.584E-3	-15.5355E-3	-133.525E-12	627.163E-3	-10.3129E-3
-1.68334E-3	-135.744E-12	603.592E-3	-22.2412E-3	-132.164E-12	628.745E-3	-46.8469E-3
-1.68834E-3	-136.647E-12	611.799E-3	-15.8995E-3	-133.529E-12	623.025E-3	-44.9728E-3
-1.69335E-3	-136.158E-12	612.780E-3	-13.9286E-3	-133.224E-12	635.691E-3	-35.0619E-3
-1.69835E-3	-135.968E-12	632.676E-3	-12.5870E-3	-132.796E-12	639.578E-3	-31.1111E-3
-1.70335E-3	-135.509E-12	650.307E-3	-3.55603E-3	-132.347E-12	629.514E-3	-18.2335E-3
-1.70835E-3	-136.133E-12	633.978E-3	8.72810E-3	-133.081E-12	644.541E-3	-26.2415E-3
-1.71336E-3	-136.052E-12	625.147E-3	1.03427E-3	-134.124E-12	658.490E-3	-38.0423E-3
-1.71836E-3	-134.688E-12	650.160E-3	-20.7416E-3	-134.343E-12	639.614E-3	-6.37360E-3
-1.72336E-3	-133.626E-12	667.554E-3	-31.6785E-3	-134.933E-12	633.765E-3	18.8127E-3
-1.72836E-3	-133.599E-12	645.616E-3	-35.8223E-3	-135.518E-12	639.073E-3	2.43733E-3
-1.73337E-3	-134.247E-12	618.309E-3	-29.9396E-3	-135.906E-12	631.135E-3	-11.4109E-3
-1.73837E-3	-133.033E-12	608.156E-3	-16.4387E-3	-135.343E-12	634.997E-3	-15.5191E-3
-1.74337E-3	-132.728E-12	611.417E-3	-15.2866E-3	-136.246E-12	641.449E-3	-19.1353E-3
-1.74837E-3	-132.367E-12	630.670E-3	-7.57374E-3	-136.141E-12	640.434E-3	-9.37014E-3
-1.75338E-3	-133.113E-12	646.378E-3	-685.774E-6	-137.484E-12	652.994E-3	6.32514E-3
-1.75838E-3	-133.673E-12	648.467E-3	-14.3730E-3	-136.532E-12	672.875E-3	6.33106E-3
-1.76338E-3	-134.523E-12	648.970E-3	-16.3834E-3	-135.843E-12	686.288E-3	-2.26543E-3
-1.76838E-3	-135.186E-12	652.962E-3	-2.21871E-3	-136.353E-12	689.436E-3	-6.87812E-3
-1.77339E-3	-135.702E-12	648.645E-3	1.79103E-3	-137.412E-12	664.902E-3	-15.2648E-3
-1.77839E-3	-137.033E-12	632.055E-3	-8.65021E-3	-138.528E-12	625.681E-3	-15.6420E-3
-1.78339E-3	-138.606E-12	619.942E-3	-33.0704E-3	-137.436E-12	625.850E-3	2.49834E-3
-1.78839E-3	-139.613E-12	622.099E-3	-40.9527E-3	-137.967E-12	656.775E-3	254.386E-6
-1.79340E-3	-139.542E-12	635.926E-3	-19.0362E-3	-138.188E-12	659.749E-3	-19.7682E-3
-1.79840E-3	-139.654E-12	647.452E-3	-3.66372E-3	-138.907E-12	649.705E-3	-13.5032E-3
-1.80340E-3	-140.781E-12	672.502E-3	-8.77215E-3	-137.767E-12	658.907E-3	2.79090E-3
-1.80840E-3	-141.396E-12	695.858E-3	-20.8812E-3	-137.457E-12	660.492E-3	7.07381E-3
-1.81341E-3	-140.654E-12	687.568E-3	-21.1595E-3	-137.560E-12	648.726E-3	2.82645E-3
-1.81841E-3	-139.562E-12	681.630E-3	-4.64113E-3	-139.397E-12	633.530E-3	-3.73006E-3
-1.82341E-3	-140.281E-12	682.076E-3	13.9355E-3	-139.913E-12	623.094E-3	-10.2638E-3
-1.82841E-3	-140.661E-12	669.124E-3	17.0665E-3	-138.558E-12	629.835E-3	-22.1132E-3
-1.83342E-3	-140.400E-12	658.949E-3	15.8612E-3	-139.484E-12	644.059E-3	-17.0471E-3
-1.83842E-3	-138.987E-12	659.777E-3	20.5680E-3	-140.720E-12	662.222E-3	-7.60322E-3
-1.84342E-3	-139.720E-12	661.070E-3	10.7968E-3	-141.030E-12	665.725E-3	-20.2008E-3
-1.84842E-3	-140.141E-12	657.114E-3	-15.4504E-3	-140.186E-12	648.956E-3	-39.4080E-3
-1.85343E-3	-140.794E-12	659.039E-3	-23.1148E-3	-139.730E-12	637.822E-3	-45.2211E-3
-1.85843E-3	-140.943E-12	651.896E-3	-3.30311E-3	-141.247E-12	636.057E-3	-22.1633E-3
-1.86343E-3	-141.948E-12	625.016E-3	1.28071E-3	-142.658E-12	629.120E-3	-3.09322E-3
-1.86843E-3	-143.094E-12	623.905E-3	-17.4090E-3	-142.694E-12	626.210E-3	-17.1939E-3
-1.87344E-3	-143.666E-12	641.811E-3	-6.32920E-3	-141.403E-12	640.001E-3	-34.5622E-3
-1.87844E-3	-144.327E-12	636.846E-3	3.95646E-3	-142.837E-12	648.899E-3	-33.0319E-3
-1.88344E-3	-145.401E-12	642.661E-3	-26.2952E-3	-143.947E-12	640.100E-3	-27.2454E-3
-1.88844E-3	-145.472E-12	667.356E-3	-40.1477E-3	-144.274E-12	642.507E-3	-22.8789E-3
-1.89345E-3	-146.037E-12	665.476E-3	-37.1508E-3	-143.832E-12	668.553E-3	-18.0378E-3
-1.89845E-3	-147.003E-12	667.169E-3	-35.4970E-3	-143.843E-12	667.070E-3	-16.7576E-3
-1.90345E-3	-147.228E-12	685.805E-3	-4.39145E-3	-145.020E-12	662.058E-3	-23.5039E-3
-1.90845E-3	-146.825E-12	684.504E-3	17.4292E-3	-145.501E-12	691.144E-3	-51.9136E-3
-1.91346E-3	-146.772E-12	685.704E-3	-3.51533E-3	-145.207E-12	699.514E-3	-66.0702E-3
-1.91846E-3	-146.541E-12	699.308E-3	-8.26731E-3	-144.926E-12	685.912E-3	-35.4587E-3
-1.92346E-3	-146.154E-12	684.319E-3	-1.92685E-3	-146.065E-12	676.134E-3	-14.1487E-3
-1.92846E-3	-145.286E-12	666.259E-3	-21.6891E-3	-146.771E-12	667.045E-3	-25.0042E-3
-1.93347E-3	-145.606E-12	671.525E-3	-30.8620E-3	-146.144E-12	672.839E-3	-29.7506E-3
-1.93847E-3	-145.444E-12	666.459E-3	-34.5512E-3	-146.226E-12	676.531E-3	-17.6381E-3
-1.94347E-3	-145.603E-12	664.741E-3	-48.9095E-3	-147.478E-12	665.055E-3	-2.61949E-3
-1.94847E-3	-144.423E-12	673.565E-3	-21.1326E-3	-147.488E-12	663.468E-3	10.0222E-3
-1.95348E-3	-144.744E-12	666.145E-3	1.89005E-3	-146.640E-12	675.744E-3	3.15458E-3
-1.95848E-3	-145.006E-12	657.661E-3	-25.0294E-3	-147.487E-12	678.001E-3	-21.2456E-3
-1.96348E-3	-146.236E-12	650.890E-3	-32.4947E-3	-147.567E-12	666.893E-3	-35.3731E-3
-1.96848E-3	-146.704E-12	629.498E-3	-17.2227E-3	-148.011E-12	671.514E-3	-36.4404E-3
-1.97349E-3	-145.984E-12	619.576E-3	-14.9052E-3	-147.688E-12	687.202E-3	-37.0608E-3
-1.97849E-3	-146.764E-12	630.855E-3	-10.0106E-3	-147.522E-12	676.414E-3	-37.1068E-3
-1.98349E-3	-147.570E-12	639.004E-3	-12.8302E-3	-148.133E-12	668.630E-3	-29.1628E-3
-1.98849E-3	-147.833E-12	640.858E-3	-45.6219E-3	-149.095E-12	676.696E-3	-33.1398E-3
-1.99350E-3	-146.885E-12	651.901E-3	-49.2252E-3	-148.577E-12	673.087E-3	-55.2534E-3
-1.99850E-3	-147.490E-12	653.901E-3	-13.1692E-3	-147.902E-12	675.399E-3	-58.6561E-3
-2.00350E-3	-148.528E-12	644.391E-3	-15.8922E-3	-148.276E-12	680.888E-3	-49.5225E-3
-2.00850E-3	-149.593E-12	657.449E-3	-25.2005E-3	-148.419E-12	673.133E-3	-47.3240E-3
-2.01351E-3	-148.169E-12	683.626E-3	-4.03232E-3	-147.851E-12	664.530E-3	-42.8891E-3
-2.01851E-3	-147.273E-12	694.083E-3	3.64212E-3	-147.498E-12	658.545E-3	-49.4376E-3
-2.02351E-3	-148.193E-12	701.475E-3	-5.79606E-3	-146.999E-12	638.621E-3	-51.8976E-3
-2.02851E-3	-148.840E-12	693.309E-3	-15.4288E-3	-147.563E-12	631.792E-3	-35.9601E-3
-2.03352E-3	-148.229E-12	665.537E-3	-22.5733E-3	-147.932E-12	659.936E-3	-25.7103E-3
-2.03852E-3	-147.872E-12	667.321E-3	-27.3043E-3	-147.207E-12	684.199E-3	-20.2933E-3
-2.04352E-3	-148.791E-12	671.750E-3	-27.4593E-3	-145.491E-12	678.507E-3	-26.2121E-3
-2.04852E-3	-149.380E-12	663.258E-3	-39.0194E-3	-146.913E-12	660.852E-3	-29.8613E-3
-2.05353E-3	-148.935E-12	678.521E-3	-52.4592E-3	-148.496E-12	651.476E-3	-21.5138E-3
-2.05853E-3	-148.736E-12	676.925E-3	-33.4786E-3	-148.688E-12	642.089E-3	-15.3286E-3
-2.06353E-3	-148.689E-12	647.156E-3	-15.7533E-3	-147.703E-12	646.931E-3	-9.90810E-3
-2.06853E-3	-148.173E-12	651.725E-3	-27.0084E-3	-147.948E-12	657.355E-3	-10.9763E-3
-2.07354E-3	-149.108E-12	688.088E-3	-26.4689E-3	-148.949E-12	658.156E-3	-12.1252E-3
-2.07854E-3	-150.282E-12	696.688E-3	-17.0913E-3	-149.383E-12	666.317E-3	-9.19906E-3
-2.08354E-3	-149.868E-12	662.376E-3	-9.18160E-3	-148.957E-12	671.047E-3	-14.7740E-3
-2.08854E-3	-149.921E-12	636.072E-3	1.14350E-3	-149.432E-12	669.242E-3	-8.32845E-3
-2.09355E-3	-151.359E-12	636.330E-3	-14.0906E-3	-151.205E-12	679.921E-3	5.84015E-3
-2.09855E-3	-152.801E-12	647.871E-3	-28.7212E-3	-151.553E-12	688.284E-3	-8.84085E-3
-2.10355E-3	-153.460E-12	662.187E-3	-11.1356E-3	-150.490E-12	671.760E-3	-16.5466E-3
-2.10855E-3	-152.722E-12	679.499E-3	-5.49407E-3	-151.072E-12	655.322E-3	-11.7502E-3
-2.11356E-3	-153.332E-12	698.110E-3	-27.7485E-3	-153.487E-12	654.139E-3	-17.6034E-3
-2.11856E-3	-155.907E-12	700.173E-3	-45.4523E-3	-155.140E-12	664.431E-3	-12.5694E-3
-2.12356E-3	-155.418E-12	690.772E-3	-40.7350E-3	-153.943E-12	682.035E-3	-4.70245E-3
-2.12856E-3	-154.818E-12	685.262E-3	-33.4528E-3	-153.943E-12	680.798E-3	-14.1828E-3
-2.13357E-3	-155.344E-12	682.460E-3	-39.7958E-3	-156.352E-12	678.518E-3	-31.6241E-3
-2.13857E-3	-156.922E-12	675.275E-3	-41.1705E-3	-157.211E-12	692.221E-3	-34.0318E-3
-2.14357E-3	-156.332E-12	678.570E-3	-35.0604E-3	-157.352E-12	698.924E-3	-23.8792E-3
-2.14857E-3	-155.221E-12	700.310E-3	-13.7127E-3	-156.550E-12	700.756E-3	-7.90445E-3
-2.15358E-3	-154.554E-12	699.588E-3	6.10556E-3	-157.811E-12	707.389E-3	1.58137E-3
-2.15858E-3	-156.149E-12	675.556E-3	-9.58207E-3	-159.269E-12	705.577E-3	-14.1037E-3
-2.16358E-3	-156.764E-12	665.938E-3	-22.0231E-3	-159.010E-12	689.375E-3	-32.2007E-3
-2.16858E-3	-156.154E-12	667.023E-3	-14.3551E-3	-158.598E-12	685.721E-3	-22.7837E-3
-2.17359E-3	-155.326E-12	677.063E-3	-10.4951E-3	-157.876E-12	707.660E-3	-9.53740E-3
-2.17859E-3	-156.239E-12	701.986E-3	-13.2566E-3	-158.564E-12	709.657E-3	-15.2727E-3
-2.18359E-3	-157.832E-12	698.630E-3	-19.9900E-3	-159.039E-12	689.482E-3	-6.31719E-3
-2.18859E-3	-158.569E-12	663.196E-3	-28.0679E-3	-159.415E-12	676.913E-3	10.3089E-3
-2.19360E-3	-158.590E-12	664.272E-3	-30.8776E-3	-159.007E-12	670.460E-3	9.75217E-3
-2.19860E-3	-158.784E-12	687.222E-3	-26.4589E-3	-158.499E-12	677.564E-3	10.8372E-3
-2.20360E-3	-159.366E-12	693.085E-3	-33.8605E-3	-159.073E-12	692.599E-3	8.60180E-3
-2.20860E-3	-160.892E-12	697.738E-3	-58.5104E-3	-159.306E-12	691.723E-3	-7.05829E-3
-2.21361E-3	-161.364E-12	701.958E-3	-59.9761E-3	-159.212E-12	697.174E-3	-14.9095E-3
-2.21861E-3	-160.308E-12	707.592E-3	-31.3938E-3	-158.359E-12	709.655E-3	-25.0599E-3
-2.22361E-3	-160.059E-12	726.859E-3	-18.5238E-3	-159.516E-12	683.919E-3	-29.4885E-3
-2.22861E-3	-161.452E-12	732.708E-3	-20.6309E-3	-160.399E-12	671.466E-3	-9.46934E-3
-2.23362E-3	-161.688E-12	710.481E-3	-17.2156E-3	-160.265E-12	706.521E-3	-13.4942E-3
-2.23862E-3	-160.442E-12	700.972E-3	-12.7566E-3	-160.085E-12	723.678E-3	-27.2886E-3
-2.24362E-3	-158.574E-12	689.367E-3	-2.36346E-3	-160.627E-12	723.515E-3	-8.10181E-3
-2.24862E-3	-158.616E-12	657.652E-3	3.88765E-3	-161.138E-12	738.601E-3	8.11605E-3
-2.25363E-3	-159.274E-12	644.718E-3	-11.1103E-3	-160.767E-12	721.740E-3	-345.677E-6
-2.25863E-3	-159.301E-12	659.249E-3	-22.6645E-3	-159.638E-12	670.630E-3	-1.74657E-3
-2.26363E-3	-157.507E-12	685.093E-3	-13.5875E-3	-159.458E-12	659.180E-3	-2.17939E-3
-2.26863E-3	-156.772E-12	694.683E-3	4.95731E-3	-159.695E-12	690.429E-3	-13.9336E-3
-2.27364E-3	-157.715E-12	683.917E-3	17.4067E-3	-160.135E-12	689.317E-3	-13.9626E-3
-2.27864E-3	-157.637E-12	658.611E-3	3.47307E-3	-159.512E-12	659.507E-3	-13.7501E-3
-2.28364E-3	-158.465E-12	637.527E-3	-29.2671E-3	-159.353E-12	652.083E-3	-27.6175E-3
-2.28864E-3	-157.702E-12	646.073E-3	-42.2183E-3	-159.312E-12	660.302E-3	-43.4737E-3
-2.29365E-3	-158.643E-12	658.076E-3	-30.5147E-3	-159.603E-12	679.239E-3	-54.3489E-3
-2.29865E-3	-159.809E-12	683.445E-3	-29.5326E-3	-159.638E-12	692.439E-3	-53.0591E-3
-2.30365E-3	-160.591E-12	712.653E-3	-30.3397E-3	-158.639E-12	675.271E-3	-38.9469E-3
-2.30865E-3	-160.643E-12	693.215E-3	-26.9826E-3	-159.709E-12	664.604E-3	-25.6618E-3
-2.31366E-3	-161.293E-12	668.575E-3	-56.4338E-3	-160.497E-12	677.364E-3	-22.1785E-3
-2.31866E-3	-162.300E-12	679.627E-3	-71.8668E-3	-160.579E-12	666.111E-3	-28.6862E-3
-2.32366E-3	-161.710E-12	673.687E-3	-31.7881E-3	-160.464E-12	647.359E-3	-22.1959E-3
-2.32866E-3	-160.933E-12	656.766E-3	-13.2194E-3	-161.010E-12	661.271E-3	-12.9589E-3
-2.33367E-3	-160.995E-12	672.656E-3	-29.4683E-3	-161.683E-12	677.754E-3	-24.7987E-3
-2.33867E-3	-161.433E-12	696.206E-3	-30.8158E-3	-162.328E-12	693.145E-3	-29.8919E-3
-2.34367E-3	-161.945E-12	700.683E-3	-31.7578E-3	-162.542E-12	697.659E-3	-20.3440E-3
-2.34867E-3	-161.222E-12	687.064E-3	-27.6446E-3	-162.157E-12	682.939E-3	-4.02141E-3
-2.35368E-3	-161.014E-12	670.449E-3	-5.94344E-3	-163.306E-12	682.277E-3	11.3157E-3
-2.35868E-3	-161.165E-12	668.834E-3	-7.14725E-3	-163.196E-12	681.120E-3	1.34358E-3
-2.36368E-3	-161.480E-12	675.949E-3	-15.4671E-3	-164.100E-12	668.188E-3	-14.2741E-3
-2.36868E-3	-162.400E-12	667.534E-3	-1.86654E-3	-164.711E-12	671.947E-3	-10.0930E-3
-2.37369E-3	-163.244E-12	661.551E-3	-1.31630E-3	-165.529E-12	683.102E-3	-13.5330E-3
-2.37869E-3	-163.500E-12	670.097E-3	642.378E-6	-165.710E-12	673.002E-3	-30.6127E-3
-2.38369E-3	-163.688E-12	665.703E-3	-3.87324E-3	-166.656E-12	656.402E-3	-30.6636E-3
-2.38869E-3	-165.342E-12	659.854E-3	-54.8333E-3	-167.805E-12	661.778E-3	-12.5937E-3
-2.39370E-3	-166.214E-12	664.332E-3	-68.1792E-3	-168.151E-12	676.474E-3	-13.8508E-3
-2.39870E-3	-167.426E-12	652.869E-3	-9.37990E-3	-167.700E-12	686.340E-3	-45.5815E-3
-2.40370E-3	-169.357E-12	650.154E-3	2.24284E-3	-167.691E-12	704.482E-3	-60.4699E-3
-2.40870E-3	-169.712E-12	677.629E-3	-37.3973E-3	-169.212E-12	708.294E-3	-45.0465E-3
-2.41371E-3	-170.112E-12	701.610E-3	-46.3303E-3	-169.274E-12	686.623E-3	-21.7959E-3
-2.41871E-3	-170.509E-12	707.678E-3	-34.5186E-3	-168.839E-12	678.863E-3	-16.7692E-3
-2.42371E-3	-171.978E-12	700.059E-3	-23.8723E-3	-168.662E-12	682.307E-3	-36.6168E-3
-2.42871E-3	-171.727E-12	687.400E-3	-11.3625E-3	-168.429E-12	674.484E-3	-30.8972E-3
-2.43372E-3	-170.733E-12	689.698E-3	-4.49842E-3	-169.390E-12	685.499E-3	272.505E-6
-2.43872E-3	-170.662E-12	716.330E-3	1.20855E-3	-170.144E-12	716.861E-3	-5.18615E-3
-2.44372E-3	-170.146E-12	732.012E-3	6.10776E-3	-169.161E-12	702.606E-3	-20.5273E-3
-2.44872E-3	-170.665E-12	718.372E-3	-10.0777E-3	-168.533E-12	658.869E-3	-6.54791E-3
-2.45373E-3	-170.210E-12	694.119E-3	-22.9284E-3	-169.461E-12	650.645E-3	13.3470E-3
-2.45873E-3	-169.620E-12	673.197E-3	-15.3468E-3	-170.248E-12	657.300E-3	5.66040E-3
-2.46373E-3	-169.513E-12	672.393E-3	-11.3407E-3	-170.919E-12	665.331E-3	-25.9464E-3
-2.46873E-3	-170.960E-12	692.631E-3	-2.43362E-3	-169.707E-12	686.265E-3	-34.1822E-3
-2.47374E-3	-171.046E-12	696.832E-3	16.3938E-3	-169.650E-12	701.490E-3	-8.83786E-3
-2.47874E-3	-169.785E-12	677.549E-3	33.7417E-3	-171.842E-12	698.281E-3	12.7350E-3
-2.48374E-3	-169.247E-12	669.003E-3	44.5194E-3	-172.763E-12	677.067E-3	7.62742E-3
-2.48874E-3	-170.703E-12	670.037E-3	33.1486E-3	-172.368E-12	652.560E-3	-7.68230E-3
-2.49375E-3	-170.837E-12	655.384E-3	8.12001E-3	-172.766E-12	658.503E-3	-18.8121E-3
-2.49875E-3	-171.907E-12	642.317E-3	-8.45609E-3	-173.709E-12	676.635E-3	-20.2651E-3
-2.50375E-3	-171.441E-12	650.562E-3	-10.7343E-3	-174.426E-12	679.157E-3	-11.1364E-3
-2.50875E-3	-173.553E-12	662.615E-3	-17.4146E-3	-174.513E-12	688.558E-3	-5.14961E-3
-2.51376E-3	-174.625E-12	662.468E-3	-28.8987E-3	-172.760E-12	695.482E-3	-12.6277E-3
-2.51876E-3	-175.088E-12	661.955E-3	-30.3401E-3	-173.232E-12	687.251E-3	-11.4238E-3
-2.52376E-3	-173.300E-12	674.526E-3	-29.2142E-3	-174.121E-12	688.865E-3	-8.92805E-3
-2.52876E-3	-174.211E-12	702.759E-3	-24.0656E-3	-173.783E-12	693.393E-3	-13.6364E-3
-2.53377E-3	-175.046E-12	742.128E-3	-14.2779E-3	-172.357E-12	676.876E-3	-8.42085E-3
-2.53877E-3	-175.164E-12	748.442E-3	-9.22724E-3	-172.490E-12	670.913E-3	-767.386E-6
-2.54377E-3	-173.880E-12	712.329E-3	-21.8532E-3	-172.583E-12	695.300E-3	2.47021E-3
-2.54877E-3	-173.541E-12	692.868E-3	-40.9314E-3	-173.075E-12	703.402E-3	2.75838E-3
-2.55378E-3	-175.181E-12	690.401E-3	-28.2216E-3	-173.711E-12	684.324E-3	12.1149E-3
-2.55878E-3	-174.777E-12	690.124E-3	-1.93010E-3	-172.838E-12	683.477E-3	15.3835E-3
-2.56378E-3	-173.785E-12	713.474E-3	-13.3507E-3	-172.905E-12	692.631E-3	-6.85743E-3
-2.56878E-3	-173.079E-12	724.131E-3	-21.3103E-3	-173.691E-12	687.556E-3	-15.8882E-3
-2.57379E-3	-173.663E-12	710.357E-3	-9.50569E-3	-174.341E-12	677.995E-3	-16.8864E-3
-2.57879E-3	-174.170E-12	700.142E-3	-28.5444E-3	-173.722E-12	660.981E-3	-27.3221E-3
-2.58379E-3	-173.516E-12	676.399E-3	-38.6260E-3	-173.506E-12	658.979E-3	-22.7229E-3
-2.58879E-3	-173.193E-12	655.756E-3	-22.1221E-3	-173.796E-12	677.337E-3	-15.9398E-3
-2.59380E-3	-172.118E-12	663.261E-3	-13.2100E-3	-174.381E-12	689.271E-3	-6.58375E-3
-2.59880E-3	-173.550E-12	674.373E-3	-4.30300E-3	-174.807E-12	697.807E-3	1.24896E-3
-2.60380E-3	-174.291E-12	678.019E-3	-17.5191E-3	-174.022E-12	699.327E-3	-24.4935E-3
-2.60880E-3	-174.707E-12	686.897E-3	-53.6201E-3	-173.119E-12	669.735E-3	-48.2009E-3
-2.61381E-3	-173.842E-12	705.170E-3	-59.1787E-3	-173.138E-12	650.513E-3	-49.3562E-3
-2.61881E-3	-175.659E-12	701.743E-3	-30.7942E-3	-174.288E-12	683.243E-3	-51.9665E-3
-2.62381E-3	-177.513E-12	686.241E-3	-3.24349E-3	-173.376E-12	707.569E-3	-45.6744E-3
-2.62881E-3	-176.874E-12	688.419E-3	15.2014E-3	-173.134E-12	694.788E-3	-35.2312E-3
-2.63382E-3	-176.818E-12	686.664E-3	11.9883E-3	-172.772E-12	695.244E-3	-39.9426E-3
-2.63882E-3	-177.455E-12	684.528E-3	-16.0387E-3	-173.389E-12	701.108E-3	-42.7921E-3
-2.64382E-3	-178.586E-12	696.325E-3	-33.6279E-3	-174.829E-12	696.275E-3	-22.9011E-3
-2.64882E-3	-178.434E-12	690.946E-3	-32.6134E-3	-174.566E-12	704.337E-3	6.70367E-3
-2.65383E-3	-178.157E-12	685.361E-3	-21.1513E-3	-174.991E-12	709.948E-3	18.1379E-3
-2.65883E-3	-177.677E-12	701.652E-3	1.51347E-3	-175.865E-12	692.670E-3	6.19838E-3
-2.66383E-3	-178.302E-12	712.474E-3	10.7279E-3	-176.880E-12	677.092E-3	-7.50511E-3
-2.66883E-3	-178.006E-12	723.336E-3	1.47506E-3	-176.869E-12	666.125E-3	-3.25093E-3
-2.67384E-3	-176.769E-12	719.838E-3	8.61442E-3	-177.207E-12	663.836E-3	15.2687E-3
-2.67884E-3	-176.349E-12	696.264E-3	15.0686E-3	-177.612E-12	681.539E-3	7.58341E-3
-2.68384E-3	-176.853E-12	678.057E-3	12.3797E-3	-179.176E-12	690.107E-3	-27.0945E-3
-2.68884E-3	-178.018E-12	676.037E-3	11.4857E-3	-180.105E-12	681.735E-3	-34.0179E-3
-2.69385E-3	-177.455E-12	683.513E-3	-3.07629E-3	-180.044E-12	677.344E-3	-26.4612E-3
-2.69885E-3	-176.754E-12	698.639E-3	-17.0506E-3	-180.493E-12	672.430E-3	-34.7507E-3
-2.70385E-3	-178.074E-12	692.050E-3	-18.4282E-3	-180.880E-12	657.402E-3	-43.0808E-3
-2.70885E-3	-179.827E-12	659.167E-3	-19.7700E-3	-181.507E-12	658.051E-3	-37.0454E-3
-2.71386E-3	-179.992E-12	658.163E-3	-31.9862E-3	-179.507E-12	684.370E-3	-25.3172E-3
-2.71886E-3	-180.984E-12	687.687E-3	-42.2425E-3	-180.567E-12	704.528E-3	-17.7220E-3
-2.72386E-3	-182.112E-12	696.865E-3	-36.5569E-3	-181.923E-12	715.755E-3	-7.06095E-3
-2.72886E-3	-183.349E-12	714.236E-3	-30.4181E-3	-181.848E-12	720.012E-3	-12.1330E-3
-2.73387E-3	-185.220E-12	742.910E-3	-18.4991E-3	-181.912E-12	706.067E-3	-20.5665E-3
-2.73887E-3	-184.406E-12	737.397E-3	15.0743E-3	-182.056E-12	696.890E-3	-14.4697E-3
-2.74387E-3	-184.749E-12	724.173E-3	12.9496E-3	-182.523E-12	701.913E-3	-29.9787E-3
-2.74887E-3	-185.309E-12	712.972E-3	-22.8395E-3	-183.340E-12	703.101E-3	-43.0992E-3
-2.75388E-3	-185.063E-12	692.838E-3	-19.6910E-3	-185.302E-12	700.548E-3	-27.5185E-3
-2.75888E-3	-183.608E-12	685.474E-3	-8.91630E-3	-184.838E-12	709.825E-3	-16.6945E-3
-2.76388E-3	-183.898E-12	707.222E-3	-4.55100E-3	-185.080E-12	697.743E-3	-20.6686E-3
-2.76888E-3	-183.691E-12	715.518E-3	18.2588E-3	-186.659E-12	682.578E-3	-8.48343E-3
-2.77389E-3	-183.586E-12	677.085E-3	16.6709E-3	-187.981E-12	707.656E-3	11.1437E-3
-2.77889E-3	-182.701E-12	652.895E-3	-9.42617E-3	-188.137E-12	710.873E-3	-7.42939E-3
-2.78389E-3	-183.106E-12	663.595E-3	-2.53428E-3	-188.808E-12	681.946E-3	-34.5259E-3
-2.78889E-3	-183.360E-12	658.362E-3	17.4674E-3	-188.539E-12	659.737E-3	-33.1479E-3
-2.79390E-3	-182.884E-12	643.942E-3	4.00311E-3	-188.558E-12	650.614E-3	-27.0256E-3
-2.79890E-3	-182.539E-12	658.781E-3	-11.5039E-3	-188.754E-12	670.304E-3	-33.3214E-3
-2.80390E-3	-182.947E-12	677.476E-3	-20.0173E-3	-187.702E-12	698.941E-3	-16.4827E-3
-2.80890E-3	-184.655E-12	672.698E-3	-38.7445E-3	-187.181E-12	694.664E-3	18.1666E-3
-2.81391E-3	-186.620E-12	660.624E-3	-33.5296E-3	-188.146E-12	662.167E-3	28.5565E-3
-2.81891E-3	-187.347E-12	645.312E-3	-6.14708E-3	-187.006E-12	642.992E-3	7.92918E-3
-2.82391E-3	-188.628E-12	649.117E-3	5.34493E-3	-185.187E-12	642.439E-3	-36.7523E-3
-2.82891E-3	-188.905E-12	672.809E-3	4.49996E-3	-186.031E-12	646.646E-3	-47.2996E-3
-2.83392E-3	-188.936E-12	676.787E-3	-1.64427E-3	-186.323E-12	658.336E-3	-22.2069E-3
-2.83892E-3	-190.197E-12	671.257E-3	-18.5156E-3	-184.929E-12	667.178E-3	-25.6352E-3
-2.84392E-3	-191.286E-12	690.223E-3	-28.1503E-3	-185.035E-12	663.879E-3	-27.5472E-3
-2.84892E-3	-189.559E-12	708.045E-3	-12.4411E-3	-184.820E-12	651.971E-3	-18.4353E-3
-2.85393E-3	-187.732E-12	706.857E-3	9.47316E-3	-185.277E-12	667.994E-3	-20.6290E-3
-2.85893E-3	-187.260E-12	727.975E-3	14.6801E-3	-185.603E-12	696.688E-3	-28.2392E-3
-2.86393E-3	-188.551E-12	744.699E-3	6.31214E-3	-185.851E-12	695.982E-3	-43.3386E-3
-2.86893E-3	-188.239E-12	732.784E-3	-11.0595E-3	-185.480E-12	708.645E-3	-41.1739E-3
-2.87394E-3	-186.113E-12	731.928E-3	-9.65378E-3	-186.103E-12	719.641E-3	-26.3178E-3
-2.87894E-3	-185.400E-12	715.798E-3	7.29536E-3	-185.868E-12	701.489E-3	-26.7338E-3
-2.88394E-3	-185.838E-12	689.606E-3	-10.9759E-3	-186.006E-12	701.048E-3	-38.9057E-3
-2.88894E-3	-186.300E-12	702.206E-3	-27.8725E-3	-185.312E-12	685.394E-3	-42.7584E-3
-2.89395E-3	-185.422E-12	707.605E-3	-24.4345E-3	-186.477E-12	662.501E-3	-17.5904E-3
-2.89895E-3	-184.404E-12	690.745E-3	-51.2886E-3	-186.976E-12	670.258E-3	3.63503E-3
-2.90395E-3	-184.578E-12	696.412E-3	-55.0508E-3	-187.026E-12	660.046E-3	-4.96510E-3
-2.90895E-3	-187.639E-12	695.534E-3	-10.8763E-3	-186.381E-12	658.225E-3	-6.84983E-3
-2.91396E-3	-188.454E-12	672.102E-3	-3.63780E-3	-187.170E-12	676.539E-3	-122.611E-6
-2.91896E-3	-188.053E-12	674.341E-3	-22.5220E-3	-188.900E-12	671.967E-3	-15.6300E-3
-2.92396E-3	-186.816E-12	681.211E-3	-25.7450E-3	-189.693E-12	673.968E-3	-34.2008E-3
-2.92896E-3	-188.546E-12	671.423E-3	-28.4494E-3	-187.739E-12	697.446E-3	-30.6326E-3
-2.93397E-3	-190.032E-12	676.886E-3	-20.1809E-3	-187.089E-12	687.837E-3	-26.2906E-3
-2.93897E-3	-189.732E-12	689.543E-3	-18.1637E-3	-189.731E-12	648.689E-3	-40.0459E-3
-2.94397E-3	-188.712E-12	695.673E-3	-26.9020E-3	-189.214E-12	664.761E-3	-38.4674E-3
-2.94897E-3	-190.037E-12	695.214E-3	-10.0828E-3	-189.202E-12	706.983E-3	-5.52771E-3
-2.95398E-3	-191.983E-12	694.803E-3	-912.973E-6	-189.245E-12	682.142E-3	30.0976E-3
-2.95898E-3	-192.203E-12	707.893E-3	-11.3334E-3	-190.761E-12	644.660E-3	25.7147E-3
-2.96398E-3	-191.734E-12	727.016E-3	-16.2735E-3	-190.715E-12	668.950E-3	-25.0042E-3
-2.96898E-3	-190.883E-12	731.245E-3	-38.1567E-3	-191.053E-12	701.901E-3	-43.3453E-3
-2.97399E-3	-191.703E-12	722.416E-3	-51.3074E-3	-192.003E-12	713.273E-3	-29.4173E-3
-2.97899E-3	-191.992E-12	706.146E-3	-34.9669E-3	-192.976E-12	729.596E-3	-39.4809E-3
-2.98399E-3	-192.295E-12	677.254E-3	-20.3737E-3	-193.545E-12	738.251E-3	-23.8912E-3
-2.98899E-3	-191.441E-12	648.934E-3	-33.3326E-3	-193.899E-12	727.792E-3	8.94797E-3
-2.99400E-3	-190.692E-12	640.225E-3	-63.9307E-3	-196.788E-12	693.870E-3	-16.6652E-3
-2.99900E-3	-192.393E-12	645.426E-3	-50.0750E-3	-197.420E-12	657.977E-3	-41.4348E-3
-3.00400E-3	-193.263E-12	651.364E-3	-12.7892E-3	-198.108E-12	660.088E-3	-24.7994E-3
-3.00900E-3	-193.201E-12	662.976E-3	-20.1471E-3	-197.968E-12	674.344E-3	-19.5598E-3
-3.01401E-3	-192.990E-12	657.969E-3	-40.8932E-3	-199.398E-12	676.856E-3	-12.7994E-3
-3.01901E-3	-193.693E-12	644.054E-3	-47.6673E-3	-199.975E-12	677.407E-3	-3.06131E-3
-3.02401E-3	-193.638E-12	663.387E-3	-36.6121E-3	-199.976E-12	690.028E-3	-12.2746E-3
-3.02901E-3	-193.335E-12	688.478E-3	-9.30758E-3	-199.740E-12	706.056E-3	-16.0840E-3
-3.03402E-3	-194.546E-12	677.472E-3	15.2717E-3	-198.959E-12	702.317E-3	-24.8390E-3
-3.03902E-3	-195.265E-12	650.976E-3	11.2980E-3	-197.720E-12	712.241E-3	-41.5178E-3
-3.04402E-3	-196.513E-12	656.757E-3	-26.1114E-3	-197.766E-12	712.510E-3	-24.1916E-3
-3.04902E-3	-197.349E-12	686.968E-3	-38.5225E-3	-197.079E-12	678.218E-3	-5.77816E-3
-3.05403E-3	-198.855E-12	692.299E-3	-10.8511E-3	-195.869E-12	666.361E-3	-15.3214E-3
-3.05903E-3	-198.852E-12	686.813E-3	1.85266E-3	-195.510E-12	666.434E-3	-20.6451E-3
-3.06403E-3	-198.846E-12	696.746E-3	-8.76807E-3	-196.181E-12	658.912E-3	-24.4535E-3
-3.06903E-3	-199.854E-12	697.767E-3	-15.4227E-3	-195.817E-12	666.413E-3	-42.1407E-3
-3.07404E-3	-200.617E-12	703.327E-3	-21.5673E-3	-195.646E-12	684.032E-3	-50.6656E-3
-3.07904E-3	-200.845E-12	708.800E-3	-24.0863E-3	-195.721E-12	697.020E-3	-35.8652E-3
-3.08404E-3	-199.842E-12	704.248E-3	-30.6491E-3	-197.796E-12	709.423E-3	-17.0710E-3
-3.08904E-3	-199.639E-12	697.455E-3	-37.4197E-3	-199.093E-12	708.127E-3	-32.2039E-3
-3.09405E-3	-198.448E-12	689.325E-3	-14.4983E-3	-199.350E-12	674.692E-3	-58.0622E-3
-3.09905E-3	-199.568E-12	691.742E-3	14.8502E-3	-200.194E-12	656.629E-3	-49.8976E-3
-3.10405E-3	-198.479E-12	697.257E-3	23.4023E-3	-201.488E-12	675.136E-3	-37.7162E-3
-3.10905E-3	-197.356E-12	698.724E-3	7.03460E-3	-202.470E-12	697.184E-3	-17.4662E-3
-3.11406E-3	-196.701E-12	683.138E-3	-33.2343E-3	-202.959E-12	715.242E-3	12.7509E-3
-3.11906E-3	-197.520E-12	679.384E-3	-47.8346E-3	-202.440E-12	712.663E-3	8.57418E-3
-3.12406E-3	-197.735E-12	691.519E-3	-27.3768E-3	-201.969E-12	707.709E-3	-14.1075E-3
-3.12906E-3	-197.260E-12	690.952E-3	-26.0998E-3	-202.408E-12	709.753E-3	-21.2755E-3
-3.13407E-3	-197.022E-12	687.330E-3	-43.0090E-3	-201.674E-12	689.054E-3	-14.3077E-3
-3.13907E-3	-198.737E-12	679.688E-3	-48.2484E-3	-199.997E-12	667.968E-3	-1.01841E-3
-3.14407E-3	-199.777E-12	685.997E-3	-47.5283E-3	-199.200E-12	679.183E-3	5.07373E-3
-3.14907E-3	-199.886E-12	700.452E-3	-48.8318E-3	-198.135E-12	697.353E-3	-8.77026E-3
-3.15408E-3	-198.328E-12	687.329E-3	-52.2022E-3	-197.157E-12	689.999E-3	-20.8347E-3
-3.15908E-3	-199.646E-12	687.121E-3	-24.4599E-3	-197.023E-12	682.201E-3	-19.8961E-3
-3.16408E-3	-201.979E-12	719.088E-3	20.0687E-3	-196.877E-12	697.689E-3	-27.5077E-3
-3.16908E-3	-202.215E-12	727.104E-3	19.3352E-3	-197.536E-12	703.461E-3	-19.5836E-3
-3.17409E-3	-200.243E-12	703.551E-3	7.75358E-3	-197.519E-12	699.524E-3	-4.63810E-3
-3.17909E-3	-199.403E-12	689.696E-3	637.216E-6	-198.318E-12	711.165E-3	-27.5833E-3
-3.18409E-3	-200.869E-12	677.689E-3	-10.3028E-3	-200.719E-12	704.853E-3	-40.9589E-3
-3.18909E-3	-201.339E-12	643.897E-3	-15.5527E-3	-202.238E-12	693.018E-3	-2.99764E-3
-3.19410E-3	-200.381E-12	632.583E-3	-30.2548E-3	-202.508E-12	703.231E-3	30.2335E-3
-3.19910E-3	-199.242E-12	659.176E-3	-27.9932E-3	-202.441E-12	705.686E-3	26.3141E-3
-3.20410E-3	-199.613E-12	660.145E-3	-12.4005E-3	-203.931E-12	703.915E-3	22.7461E-3
-3.20910E-3	-201.971E-12	647.087E-3	-17.2359E-3	-205.627E-12	702.738E-3	17.7844E-3
-3.21411E-3	-202.051E-12	674.298E-3	-20.9450E-3	-206.344E-12	677.612E-3	-14.5522E-3
-3.21911E-3	-200.976E-12	705.260E-3	-17.0196E-3	-206.070E-12	663.704E-3	-51.3363E-3
-3.22411E-3	-200.301E-12	701.834E-3	-31.7455E-3	-205.960E-12	683.439E-3	-60.8385E-3
-3.22911E-3	-203.553E-12	682.842E-3	-29.6562E-3	-204.919E-12	686.402E-3	-42.2933E-3
-3.23412E-3	-204.079E-12	665.840E-3	-10.8583E-3	-204.996E-12	674.779E-3	-26.0169E-3
-3.23912E-3	-204.834E-12	673.767E-3	-18.3476E-3	-205.377E-12	683.007E-3	-20.2315E-3
-3.24412E-3	-203.841E-12	703.979E-3	-25.3458E-3	-204.807E-12	684.937E-3	-6.44017E-3
-3.24912E-3	-204.446E-12	718.980E-3	-31.4407E-3	-203.447E-12	671.414E-3	8.33440E-3
-3.25413E-3	-207.421E-12	725.092E-3	-55.9867E-3	-202.308E-12	664.846E-3	3.85345E-3
-3.25913E-3	-208.084E-12	734.494E-3	-63.3465E-3	-203.980E-12	649.555E-3	-622.795E-6
-3.26413E-3	-207.660E-12	726.396E-3	-31.1338E-3	-205.240E-12	656.161E-3	6.75597E-3
-3.26913E-3	-207.453E-12	711.647E-3	-14.4954E-3	-204.599E-12	690.193E-3	-2.66008E-3
-3.27414E-3	-208.469E-12	720.645E-3	-33.0537E-3	-202.502E-12	687.673E-3	-11.1282E-3
-3.27914E-3	-208.256E-12	726.300E-3	-11.1132E-3	-204.442E-12	653.322E-3	-1.71368E-3
-3.28414E-3	-208.410E-12	707.717E-3	16.7185E-3	-206.744E-12	647.743E-3	9.64540E-3
-3.28914E-3	-206.669E-12	693.616E-3	-8.19551E-3	-207.294E-12	653.083E-3	-6.60967E-3
-3.29415E-3	-206.171E-12	683.588E-3	-39.3762E-3	-205.687E-12	657.738E-3	-29.3444E-3
-3.29915E-3	-206.658E-12	678.142E-3	-61.4665E-3	-205.811E-12	688.162E-3	-34.4779E-3
-3.30415E-3	-206.178E-12	696.180E-3	-66.6896E-3	-209.265E-12	705.234E-3	-41.2844E-3
-3.30915E-3	-205.482E-12	705.034E-3	-46.5072E-3	-210.153E-12	722.344E-3	-29.6690E-3
-3.31416E-3	-205.357E-12	688.500E-3	-33.1208E-3	-210.815E-12	752.846E-3	-15.6504E-3
-3.31916E-3	-205.885E-12	688.259E-3	-44.5043E-3	-209.683E-12	740.423E-3	-16.1192E-3
-3.32416E-3	-206.408E-12	688.933E-3	-41.8753E-3	-212.048E-12	703.512E-3	-16.4740E-3
-3.32916E-3	-206.311E-12	678.186E-3	-34.0988E-3	-212.605E-12	694.135E-3	-26.8441E-3
-3.33417E-3	-206.510E-12	682.400E-3	-37.9397E-3	-213.206E-12	694.711E-3	-29.9866E-3
-3.33917E-3	-208.253E-12	691.167E-3	-30.3538E-3	-211.317E-12	696.363E-3	-11.2363E-3
-3.34417E-3	-209.384E-12	687.882E-3	-26.4570E-3	-212.392E-12	716.571E-3	-14.5194E-3
-3.34917E-3	-209.313E-12	675.702E-3	-31.3208E-3	-213.311E-12	746.999E-3	-33.6885E-3
-3.35418E-3	-209.757E-12	673.848E-3	-28.2600E-3	-212.830E-12	754.309E-3	-37.6986E-3
-3.35918E-3	-210.797E-12	685.545E-3	-16.7895E-3	-213.930E-12	736.392E-3	-21.2630E-3
-3.36418E-3	-211.819E-12	688.235E-3	-37.1498E-3	-212.235E-12	708.782E-3	-8.82609E-3
-3.36918E-3	-210.406E-12	689.078E-3	-51.4146E-3	-212.698E-12	684.232E-3	-28.4495E-3
-3.37419E-3	-210.528E-12	692.728E-3	-30.4411E-3	-212.538E-12	684.239E-3	-44.9230E-3
-3.37919E-3	-210.803E-12	683.481E-3	-54.2752E-3	-212.760E-12	697.190E-3	-40.7626E-3
-3.38419E-3	-211.815E-12	664.226E-3	-69.1158E-3	-212.068E-12	700.378E-3	-35.7187E-3
-3.38919E-3	-210.954E-12	652.891E-3	-15.0230E-3	-211.948E-12	705.060E-3	-27.2458E-3
-3.39420E-3	-210.662E-12	683.259E-3	8.17984E-3	-212.052E-12	715.922E-3	-7.04040E-3
-3.39920E-3	-209.551E-12	729.287E-3	-3.17305E-3	-213.344E-12	718.539E-3	8.57944E-3
-3.40420E-3	-210.828E-12	718.916E-3	22.8302E-3	-214.213E-12	706.164E-3	-14.7382E-3
-3.40920E-3	-211.574E-12	682.361E-3	26.0917E-3	-214.510E-12	702.869E-3	-59.8017E-3
-3.41421E-3	-210.756E-12	683.357E-3	-6.09540E-3	-213.454E-12	719.923E-3	-63.3606E-3
-3.41921E-3	-209.771E-12	691.450E-3	3.72328E-3	-214.161E-12	732.158E-3	-35.9500E-3
-3.42421E-3	-210.818E-12	688.667E-3	12.5052E-3	-215.284E-12	732.723E-3	-34.8915E-3
-3.42921E-3	-212.441E-12	683.565E-3	-10.7635E-3	-215.298E-12	708.546E-3	-45.0034E-3
-3.43422E-3	-212.414E-12	668.530E-3	-19.9191E-3	-215.583E-12	668.697E-3	-48.1196E-3
-3.43922E-3	-212.641E-12	669.599E-3	-23.4071E-3	-216.521E-12	641.415E-3	-27.9848E-3
-3.44422E-3	-213.050E-12	693.254E-3	-29.7879E-3	-217.373E-12	622.400E-3	8.73919E-3
-3.44922E-3	-214.042E-12	697.945E-3	-22.3272E-3	-216.338E-12	629.466E-3	-2.23529E-3
-3.45423E-3	-214.597E-12	673.679E-3	820.017E-6	-215.393E-12	663.581E-3	-33.8331E-3
-3.45923E-3	-214.924E-12	668.472E-3	4.23699E-6	-215.189E-12	682.377E-3	-28.2503E-3
-3.46423E-3	-215.471E-12	679.027E-3	-38.0882E-3	-215.087E-12	683.962E-3	-3.92407E-3
-3.46923E-3	-216.243E-12	658.340E-3	-52.3552E-3	-213.740E-12	691.735E-3	5.37703E-3
-3.47424E-3	-218.167E-12	652.755E-3	-14.3916E-3	-212.089E-12	684.397E-3	16.4355E-3
-3.47924E-3	-218.017E-12	682.492E-3	22.4933E-3	-211.751E-12	658.804E-3	26.5444E-3
-3.48424E-3	-217.934E-12	696.348E-3	11.2770E-3	-211.782E-12	653.995E-3	17.7956E-3
-3.48924E-3	-218.645E-12	706.551E-3	-7.23224E-3	-210.976E-12	675.527E-3	12.2910E-3
-3.49425E-3	-220.478E-12	700.262E-3	-12.5859E-3	-211.382E-12	698.035E-3	-7.67865E-3
-3.49925E-3	-219.931E-12	680.911E-3	-34.0387E-3	-212.221E-12	700.742E-3	-31.9760E-3
-3.50425E-3	-218.041E-12	695.171E-3	-35.5174E-3	-213.289E-12	689.315E-3	-17.7500E-3
-3.50925E-3	-217.837E-12	712.103E-3	-5.07418E-3	-214.645E-12	680.635E-3	-5.44783E-3
-3.51426E-3	-219.025E-12	701.745E-3	2.47416E-3	-215.765E-12	684.298E-3	5.90497E-3
-3.51926E-3	-219.188E-12	701.923E-3	-23.6787E-3	-217.823E-12	692.625E-3	17.5810E-3
-3.52426E-3	-216.899E-12	718.673E-3	-33.2814E-3	-218.967E-12	697.727E-3	4.13809E-3
-3.52926E-3	-215.577E-12	718.105E-3	-13.8685E-3	-219.740E-12	699.588E-3	-9.32513E-3
-3.53427E-3	-217.727E-12	697.324E-3	-15.0127E-3	-221.542E-12	700.693E-3	-19.2509E-3
-3.53927E-3	-218.511E-12	674.213E-3	-21.2010E-3	-222.695E-12	703.615E-3	-44.6085E-3
-3.54427E-3	-217.358E-12	662.113E-3	-13.6327E-3	-222.551E-12	698.255E-3	-73.7486E-3
-3.54927E-3	-216.437E-12	668.772E-3	-24.7437E-3	-223.528E-12	681.095E-3	-76.3859E-3
-3.55428E-3	-218.174E-12	662.999E-3	-25.1406E-3	-223.057E-12	678.597E-3	-63.7376E-3
-3.55928E-3	-218.476E-12	632.801E-3	-26.7995E-3	-222.230E-12	699.719E-3	-56.9432E-3
-3.56428E-3	-219.239E-12	645.060E-3	-62.6286E-3	-221.812E-12	716.665E-3	-45.1393E-3
-3.56928E-3	-221.051E-12	685.231E-3	-67.4689E-3	-221.252E-12	730.857E-3	-45.4753E-3
-3.57429E-3	-222.618E-12	671.279E-3	-44.4048E-3	-220.817E-12	737.785E-3	-63.2357E-3
-3.57929E-3	-223.525E-12	645.039E-3	-41.2220E-3	-220.410E-12	707.282E-3	-69.0988E-3
-3.58429E-3	-223.229E-12	658.982E-3	-31.9959E-3	-219.251E-12	650.786E-3	-68.5207E-3
-3.58929E-3	-224.027E-12	671.108E-3	-21.9224E-3	-220.098E-12	618.277E-3	-39.4301E-3
-3.59430E-3	-223.819E-12	683.454E-3	-36.0345E-3	-219.921E-12	648.228E-3	-2.31324E-3
-3.59930E-3	-224.282E-12	715.210E-3	-43.0866E-3	-220.229E-12	687.436E-3	-13.1180E-3
-3.60430E-3	-223.623E-12	713.835E-3	-33.4765E-3	-220.225E-12	681.919E-3	-23.6737E-3
-3.60930E-3	-222.746E-12	677.978E-3	-41.0005E-3	-220.708E-12	690.919E-3	-21.8755E-3
-3.61431E-3	-222.101E-12	683.880E-3	-49.0751E-3	-221.801E-12	719.641E-3	-33.4650E-3
-3.61931E-3	-219.913E-12	710.583E-3	-37.9612E-3	-222.929E-12	724.050E-3	-28.7274E-3
-3.62431E-3	-219.545E-12	704.639E-3	-34.5668E-3	-223.606E-12	713.958E-3	-14.9344E-3
-3.62931E-3	-219.228E-12	691.167E-3	-30.8246E-3	-224.708E-12	703.689E-3	-27.5254E-3
-3.63432E-3	-218.583E-12	694.967E-3	-28.3267E-3	-224.681E-12	701.362E-3	-33.3729E-3
-3.63932E-3	-216.662E-12	687.585E-3	-42.4859E-3	-226.235E-12	697.813E-3	-9.01734E-3
-3.64432E-3	-217.346E-12	654.086E-3	-39.4732E-3	-226.787E-12	674.778E-3	8.28338E-3
-3.64932E-3	-218.089E-12	635.656E-3	-25.3177E-3	-225.849E-12	635.503E-3	18.7037E-3
-3.65433E-3	-218.948E-12	641.431E-3	-15.9707E-3	-225.060E-12	611.149E-3	23.6808E-3
-3.65933E-3	-219.316E-12	649.530E-3	-10.5647E-3	-224.435E-12	639.803E-3	15.4050E-3
-3.66433E-3	-219.260E-12	662.280E-3	-21.7638E-3	-223.874E-12	679.145E-3	-2.28206E-3
-3.66933E-3	-222.640E-12	675.005E-3	-40.0058E-3	-222.702E-12	686.368E-3	-11.6327E-3
-3.67434E-3	-224.000E-12	690.102E-3	-46.7724E-3	-222.082E-12	686.445E-3	-17.0112E-3
-3.67934E-3	-224.886E-12	693.482E-3	-42.1161E-3	-222.165E-12	680.277E-3	-33.3109E-3
-3.68434E-3	-224.059E-12	687.182E-3	-30.3866E-3	-223.138E-12	678.250E-3	-24.4391E-3
-3.68934E-3	-226.497E-12	704.241E-3	-18.2695E-3	-223.004E-12	680.689E-3	4.77109E-3
-3.69435E-3	-227.201E-12	716.661E-3	-7.84813E-3	-223.129E-12	665.760E-3	10.1939E-3
-3.69935E-3	-226.435E-12	697.683E-3	-9.53342E-3	-223.031E-12	657.623E-3	-6.97493E-3
-3.70435E-3	-226.142E-12	691.450E-3	-24.5866E-3	-224.124E-12	681.869E-3	-19.8590E-3
-3.70935E-3	-225.434E-12	711.466E-3	-36.1335E-3	-225.325E-12	681.523E-3	-20.5505E-3
-3.71436E-3	-226.495E-12	715.064E-3	-35.4618E-3	-225.212E-12	661.185E-3	-18.1400E-3
-3.71936E-3	-224.601E-12	698.033E-3	-42.7447E-3	-225.817E-12	674.209E-3	-23.1109E-3
-3.72436E-3	-224.899E-12	670.924E-3	-57.9108E-3	-226.862E-12	684.021E-3	-26.7102E-3
-3.72936E-3	-224.340E-12	644.633E-3	-40.1066E-3	-228.602E-12	677.515E-3	-19.2313E-3
-3.73437E-3	-224.609E-12	665.810E-3	-22.3301E-3	-228.265E-12	664.687E-3	-19.7721E-3
-3.73937E-3	-224.848E-12	721.543E-3	-6.53028E-3	-228.016E-12	653.554E-3	-25.9898E-3
-3.74437E-3	-225.056E-12	730.845E-3	-2.65559E-3	-229.375E-12	650.376E-3	1.05004E-3
-3.74937E-3	-225.872E-12	695.618E-3	-24.9477E-3	-230.145E-12	684.582E-3	32.6980E-3
-3.75438E-3	-224.956E-12	677.779E-3	-5.28689E-3	-230.778E-12	732.142E-3	14.9112E-3
-3.75938E-3	-226.646E-12	664.454E-3	8.06465E-3	-230.239E-12	726.678E-3	-26.1750E-3
-3.76438E-3	-227.888E-12	666.542E-3	-17.8479E-3	-230.859E-12	689.149E-3	-40.4673E-3
-3.76938E-3	-228.124E-12	707.776E-3	-2.87326E-3	-230.321E-12	662.154E-3	-29.3720E-3
-3.77439E-3	-229.113E-12	701.955E-3	27.3562E-3	-230.862E-12	672.355E-3	-37.6334E-3
-3.77939E-3	-230.419E-12	659.530E-3	7.24577E-3	-231.396E-12	717.179E-3	-69.2341E-3
-3.78439E-3	-232.840E-12	668.548E-3	-194.066E-6	-231.032E-12	728.481E-3	-79.1925E-3
-3.78939E-3	-232.441E-12	695.628E-3	16.9782E-3	-231.294E-12	693.775E-3	-53.0357E-3
-3.79440E-3	-232.254E-12	702.568E-3	-4.49402E-3	-231.336E-12	684.433E-3	-27.0703E-3
-3.79940E-3	-234.573E-12	708.371E-3	-34.5397E-3	-230.723E-12	683.746E-3	-3.58525E-3
-3.80440E-3	-235.359E-12	733.846E-3	-44.2607E-3	-231.224E-12	665.547E-3	19.0584E-3
-3.80940E-3	-236.201E-12	734.404E-3	-52.1034E-3	-231.830E-12	673.940E-3	27.1867E-3
-3.81441E-3	-235.093E-12	696.757E-3	-53.1477E-3	-231.983E-12	688.706E-3	1.86151E-3
-3.81941E-3	-235.224E-12	668.869E-3	-33.6203E-3	-231.247E-12	686.413E-3	-16.7635E-3
-3.82441E-3	-236.155E-12	672.550E-3	-13.1414E-3	-230.920E-12	712.362E-3	8.71990E-3
-3.82941E-3	-236.611E-12	698.307E-3	-14.2853E-3	-232.875E-12	745.258E-3	12.3016E-3
-3.83442E-3	-234.655E-12	708.695E-3	-18.4123E-3	-233.517E-12	740.648E-3	-13.0664E-3
-3.83942E-3	-233.849E-12	709.245E-3	-17.0532E-3	-232.981E-12	729.005E-3	-20.3491E-3
-3.84442E-3	-234.955E-12	732.859E-3	-23.0082E-3	-233.849E-12	729.366E-3	-4.63522E-3
-3.84942E-3	-234.519E-12	741.795E-3	-13.7759E-3	-235.641E-12	719.270E-3	3.66516E-3
-3.85443E-3	-233.951E-12	712.686E-3	-11.9890E-3	-236.479E-12	715.111E-3	-13.7628E-3
-3.85943E-3	-233.863E-12	688.057E-3	-57.8685E-3	-236.885E-12	746.725E-3	-31.0178E-3
-3.86443E-3	-232.727E-12	667.093E-3	-78.4212E-3	-237.131E-12	744.806E-3	-14.2328E-3
-3.86943E-3	-234.675E-12	634.051E-3	-45.1367E-3	-236.284E-12	695.958E-3	7.00941E-3
-3.87444E-3	-235.858E-12	640.153E-3	-30.8522E-3	-238.479E-12	691.430E-3	5.49139E-3
-3.87944E-3	-235.987E-12	688.883E-3	-22.4348E-3	-238.253E-12	689.140E-3	5.19307E-3
-3.88444E-3	-234.557E-12	686.308E-3	-10.3886E-3	-236.868E-12	668.932E-3	3.49200E-3
-3.88944E-3	-235.295E-12	655.208E-3	-34.0875E-3	-235.046E-12	688.931E-3	-13.0699E-3
-3.89445E-3	-236.730E-12	676.149E-3	-34.3210E-3	-236.343E-12	698.708E-3	-46.8334E-3
-3.89945E-3	-237.954E-12	705.107E-3	2.71644E-3	-236.041E-12	673.701E-3	-77.1522E-3
-3.90445E-3	-237.062E-12	706.496E-3	730.652E-6	-234.142E-12	650.920E-3	-60.4999E-3
-3.90945E-3	-236.379E-12	696.532E-3	-14.6798E-3	-233.039E-12	644.473E-3	-24.9737E-3
-3.91446E-3	-235.724E-12	680.204E-3	-10.5064E-3	-232.526E-12	653.798E-3	-27.0701E-3
-3.91946E-3	-237.219E-12	656.564E-3	-23.8064E-3	-232.612E-12	665.070E-3	-29.8851E-3
-3.92446E-3	-237.376E-12	625.017E-3	-33.1176E-3	-232.681E-12	688.605E-3	-16.1438E-3
-3.92946E-3	-236.064E-12	614.994E-3	-16.1306E-3	-232.878E-12	722.995E-3	-25.3842E-3
-3.93447E-3	-234.324E-12	624.479E-3	-18.9009E-3	-233.127E-12	732.197E-3	-49.3730E-3
-3.93947E-3	-235.100E-12	635.981E-3	-27.8532E-3	-234.249E-12	705.277E-3	-56.0347E-3
-3.94447E-3	-235.234E-12	665.758E-3	-13.9969E-3	-235.931E-12	662.397E-3	-45.3363E-3
-3.94947E-3	-232.844E-12	700.029E-3	-18.9242E-3	-235.634E-12	641.065E-3	-36.5767E-3
-3.95448E-3	-231.964E-12	729.036E-3	-35.5782E-3	-238.271E-12	660.052E-3	-33.7727E-3
-3.95948E-3	-232.399E-12	738.952E-3	-19.0632E-3	-240.170E-12	687.514E-3	-26.4840E-3
-3.96448E-3	-233.447E-12	712.356E-3	3.63463E-3	-241.165E-12	690.452E-3	-12.3222E-3
-3.96948E-3	-233.445E-12	699.924E-3	7.12339E-3	-239.993E-12	668.567E-3	334.551E-6
-3.97449E-3	-232.933E-12	690.108E-3	7.29040E-3	-241.264E-12	656.716E-3	-12.5653E-3
-3.97949E-3	-233.269E-12	658.735E-3	-14.7941E-3	-242.734E-12	669.918E-3	-28.0098E-3
-3.98449E-3	-234.669E-12	665.090E-3	-61.4575E-3	-241.166E-12	695.154E-3	7.32121E-3
-3.98949E-3	-235.572E-12	659.541E-3	-66.7880E-3	-239.458E-12	721.388E-3	43.3793E-3
-3.99450E-3	-235.751E-12	628.724E-3	-45.0712E-3	-239.024E-12	726.588E-3	18.9470E-3
-3.99950E-3	-237.679E-12	642.599E-3	-36.0837E-3	-239.535E-12	711.655E-3	-23.4390E-3
-4.00450E-3	-237.395E-12	632.643E-3	-5.59269E-3	-238.937E-12	673.460E-3	-20.1265E-3
-4.00950E-3	-238.965E-12	617.080E-3	15.7559E-3	-238.669E-12	659.528E-3	-7.40141E-3
-4.01451E-3	-240.275E-12	665.199E-3	17.3891E-3	-236.357E-12	687.750E-3	-22.5565E-3
-4.01951E-3	-240.774E-12	700.653E-3	36.7915E-3	-236.979E-12	696.259E-3	-18.0246E-3
-4.02451E-3	-241.056E-12	694.740E-3	26.3596E-3	-237.950E-12	688.999E-3	-13.3090E-3
-4.02951E-3	-240.890E-12	702.810E-3	-28.4070E-3	-239.457E-12	687.848E-3	-17.8281E-3
-4.03452E-3	-241.118E-12	723.409E-3	-47.5424E-3	-240.035E-12	702.428E-3	7.38640E-3
-4.03952E-3	-241.885E-12	727.976E-3	-23.4331E-3	-240.712E-12	704.081E-3	8.43133E-3
-4.04452E-3	-241.207E-12	740.196E-3	-18.9530E-3	-242.395E-12	694.916E-3	-8.06131E-3
-4.04952E-3	-239.526E-12	748.961E-3	-18.0050E-3	-242.721E-12	710.702E-3	15.2414E-3
-4.05453E-3	-240.968E-12	728.845E-3	-4.23975E-3	-243.893E-12	695.405E-3	19.7607E-3
-4.05953E-3	-241.829E-12	731.218E-3	-8.28131E-3	-243.291E-12	654.713E-3	8.73478E-3
-4.06453E-3	-240.241E-12	744.694E-3	-20.6242E-3	-243.868E-12	666.001E-3	20.4079E-3
-4.06953E-3	-240.364E-12	728.498E-3	-26.4689E-3	-245.113E-12	710.573E-3	15.1602E-3
-4.07454E-3	-241.963E-12	720.857E-3	-19.0117E-3	-244.796E-12	724.751E-3	-3.38332E-3
-4.07954E-3	-243.682E-12	717.339E-3	933.297E-6	-245.484E-12	684.689E-3	-14.5232E-3
-4.08454E-3	-243.671E-12	702.992E-3	11.4999E-3	-244.087E-12	644.758E-3	-14.1271E-3
-4.08954E-3	-244.791E-12	705.863E-3	-26.5095E-3	-245.166E-12	649.777E-3	-9.45861E-3
-4.09455E-3	-245.223E-12	693.238E-3	-69.1184E-3	-243.708E-12	681.986E-3	-22.9772E-3
-4.09955E-3	-247.787E-12	638.156E-3	-43.6268E-3	-244.848E-12	720.599E-3	-30.6103E-3
-4.10455E-3	-248.683E-12	625.640E-3	-9.80882E-3	-243.492E-12	707.714E-3	-11.7293E-3
-4.10955E-3	-248.433E-12	675.671E-3	636.188E-6	-243.918E-12	658.803E-3	-586.583E-6
-4.11456E-3	-249.164E-12	696.584E-3	45.2418E-3	-245.291E-12	674.347E-3	-12.2037E-3
-4.11956E-3	-249.578E-12	693.971E-3	49.4595E-3	-244.882E-12	704.812E-3	-19.3353E-3
-4.12456E-3	-250.983E-12	688.666E-3	-14.6869E-3	-244.330E-12	695.803E-3	9.32545E-3
-4.12956E-3	-249.293E-12	659.885E-3	-27.4581E-3	-245.524E-12	709.045E-3	22.2074E-3
-4.13457E-3	-248.167E-12	659.977E-3	-11.1359E-3	-248.066E-12	726.822E-3	-18.7273E-3
-4.13957E-3	-248.214E-12	705.630E-3	-15.3976E-3	-247.634E-12	724.287E-3	-37.0069E-3
-4.14457E-3	-248.888E-12	714.030E-3	-12.1219E-3	-247.162E-12	734.176E-3	-11.0037E-3
-4.14957E-3	-247.032E-12	670.444E-3	-26.0853E-3	-245.548E-12	732.119E-3	778.652E-6
-4.15458E-3	-244.576E-12	660.703E-3	-23.6076E-3	-247.338E-12	688.686E-3	-1.10802E-3
-4.15958E-3	-246.011E-12	680.094E-3	-6.97639E-3	-248.725E-12	655.750E-3	7.44985E-3
-4.16458E-3	-245.922E-12	683.800E-3	-20.8576E-3	-247.624E-12	677.544E-3	11.0575E-3
-4.16958E-3	-246.507E-12	694.983E-3	-34.6060E-3	-248.108E-12	710.452E-3	1.78166E-3
-4.17459E-3	-244.970E-12	712.731E-3	-34.7537E-3	-249.426E-12	718.498E-3	-13.1140E-3
-4.17959E-3	-244.301E-12	715.737E-3	-30.1482E-3	-251.931E-12	716.019E-3	-33.6746E-3
-4.18459E-3	-244.490E-12	732.197E-3	-26.1029E-3	-250.345E-12	707.431E-3	-45.8798E-3
-4.18959E-3	-247.893E-12	731.929E-3	4.87197E-3	-249.523E-12	701.244E-3	-32.3765E-3
-4.19460E-3	-246.968E-12	688.465E-3	23.5973E-3	-250.863E-12	696.496E-3	-25.1680E-3
-4.19960E-3	-245.474E-12	668.069E-3	4.24221E-3	-252.466E-12	698.142E-3	-24.8787E-3
-4.20460E-3	-248.380E-12	680.245E-3	-6.87387E-3	-252.576E-12	705.848E-3	-12.1761E-3
-4.20960E-3	-250.593E-12	681.346E-3	-16.8607E-3	-251.354E-12	711.089E-3	-5.71004E-3
-4.21461E-3	-251.739E-12	657.300E-3	-39.8485E-3	-250.323E-12	704.002E-3	-8.97107E-3
-4.21961E-3	-249.879E-12	648.342E-3	-38.4716E-3	-252.193E-12	688.783E-3	-14.5872E-3
-4.22461E-3	-249.801E-12	657.986E-3	-18.1535E-3	-252.560E-12	673.557E-3	-25.4428E-3
-4.22961E-3	-252.020E-12	690.987E-3	-19.6677E-3	-252.274E-12	667.245E-3	-59.4946E-3
-4.23462E-3	-253.103E-12	736.008E-3	-17.4968E-3	-249.711E-12	682.990E-3	-67.1554E-3
-4.23962E-3	-250.847E-12	734.220E-3	-10.4866E-3	-249.916E-12	711.929E-3	-31.9111E-3
-4.24462E-3	-250.088E-12	687.091E-3	-12.2954E-3	-250.356E-12	717.116E-3	-28.1578E-3
-4.24962E-3	-251.632E-12	648.980E-3	-4.89409E-3	-250.517E-12	702.382E-3	-25.2952E-3
-4.25463E-3	-251.329E-12	657.364E-3	-722.299E-6	-248.064E-12	687.486E-3	10.3685E-3
-4.25963E-3	-249.318E-12	686.525E-3	-9.69443E-3	-248.796E-12	663.740E-3	34.2143E-3
-4.26463E-3	-248.659E-12	722.595E-3	-18.2626E-3	-251.317E-12	677.344E-3	42.6377E-3
-4.26963E-3	-250.060E-12	735.620E-3	-29.4424E-3	-252.715E-12	723.098E-3	49.4399E-3
-4.27464E-3	-249.717E-12	708.613E-3	-48.2413E-3	-253.084E-12	735.914E-3	44.0442E-3
-4.27964E-3	-248.685E-12	693.683E-3	-53.1639E-3	-252.784E-12	710.315E-3	25.7093E-3
-4.28464E-3	-248.530E-12	688.235E-3	-30.7325E-3	-253.669E-12	685.032E-3	-7.64754E-3
-4.28964E-3	-249.882E-12	689.421E-3	-17.6496E-3	-254.225E-12	689.507E-3	-53.3437E-3
-4.29465E-3	-250.240E-12	689.407E-3	-23.0841E-3	-256.083E-12	703.236E-3	-67.3653E-3
-4.29965E-3	-249.451E-12	692.878E-3	-27.3862E-3	-253.607E-12	697.023E-3	-38.2428E-3
-4.30465E-3	-251.051E-12	713.854E-3	-22.5458E-3	-255.911E-12	688.164E-3	3.15555E-3
-4.30965E-3	-253.257E-12	720.612E-3	327.776E-6	-256.137E-12	676.173E-3	11.2567E-3
-4.31466E-3	-253.532E-12	714.197E-3	19.6397E-3	-256.247E-12	660.263E-3	-12.0179E-3
-4.31966E-3	-254.133E-12	710.005E-3	12.9181E-3	-254.357E-12	658.167E-3	-18.1959E-3
-4.32466E-3	-254.789E-12	711.738E-3	14.7628E-3	-253.548E-12	661.675E-3	-13.0205E-3
-4.32966E-3	-256.352E-12	707.222E-3	20.3296E-3	-253.693E-12	654.131E-3	-6.80025E-3
-4.33467E-3	-256.431E-12	693.327E-3	9.28884E-3	-253.069E-12	658.623E-3	-2.66171E-3
-4.33967E-3	-257.124E-12	688.438E-3	21.3797E-3	-251.754E-12	698.543E-3	9.13368E-3
-4.34467E-3	-257.417E-12	676.596E-3	41.7903E-3	-250.585E-12	719.010E-3	16.5929E-3
-4.34967E-3	-257.635E-12	656.130E-3	22.3063E-3	-251.694E-12	706.474E-3	5.70140E-3
-4.35468E-3	-256.514E-12	650.147E-3	-7.99541E-3	-252.619E-12	705.436E-3	1.00784E-3
-4.35968E-3	-256.771E-12	660.855E-3	-1.49641E-3	-253.574E-12	714.997E-3	-7.35723E-3
-4.36468E-3	-256.644E-12	677.333E-3	16.8014E-3	-254.526E-12	727.380E-3	-23.4470E-3
-4.36968E-3	-256.732E-12	684.788E-3	18.3926E-3	-256.206E-12	729.412E-3	-43.7588E-3
-4.37469E-3	-255.834E-12	686.120E-3	10.0041E-3	-258.083E-12	717.604E-3	-57.0157E-3
-4.37969E-3	-255.388E-12	671.772E-3	-1.44696E-3	-259.168E-12	724.039E-3	-43.3473E-3
-4.38469E-3	-256.078E-12	657.535E-3	6.05048E-3	-260.437E-12	728.183E-3	-31.1348E-3
-4.38969E-3	-256.086E-12	669.328E-3	18.6018E-3	-260.146E-12	711.143E-3	-40.5210E-3
-4.39470E-3	-256.971E-12	678.989E-3	19.8270E-3	-262.920E-12	694.044E-3	-54.4222E-3
-4.39970E-3	-257.052E-12	689.526E-3	25.4063E-3	-263.782E-12	692.872E-3	-58.0871E-3
-4.40470E-3	-257.043E-12	713.075E-3	3.64924E-3	-263.990E-12	701.733E-3	-35.9817E-3
-4.40970E-3	-257.241E-12	700.887E-3	-28.8540E-3	-262.664E-12	708.259E-3	-13.1920E-3
-4.41471E-3	-260.605E-12	660.253E-3	-37.7539E-3	-260.632E-12	711.033E-3	-35.9262E-3
-4.41971E-3	-260.002E-12	658.100E-3	-44.5159E-3	-261.017E-12	693.917E-3	-56.0653E-3
-4.42471E-3	-260.918E-12	675.463E-3	-36.4435E-3	-261.489E-12	682.369E-3	-31.3133E-3
-4.42971E-3	-262.088E-12	676.774E-3	-7.22941E-3	-260.875E-12	685.211E-3	-21.0131E-3
-4.43472E-3	-263.033E-12	688.456E-3	11.5899E-3	-257.567E-12	651.991E-3	-36.2710E-3
-4.43972E-3	-261.499E-12	688.640E-3	-6.20665E-3	-256.789E-12	629.355E-3	-29.6335E-3
-4.44472E-3	-261.876E-12	682.743E-3	-39.3605E-3	-260.665E-12	653.365E-3	-27.8332E-3
-4.44972E-3	-261.844E-12	704.180E-3	-44.7297E-3	-259.617E-12	684.143E-3	-27.8514E-3
-4.45473E-3	-263.263E-12	688.438E-3	-37.4114E-3	-258.035E-12	709.493E-3	-5.36749E-3
-4.45973E-3	-263.836E-12	667.195E-3	-40.3894E-3	-257.329E-12	715.808E-3	1.66827E-3
-4.46473E-3	-261.993E-12	707.065E-3	-33.2058E-3	-259.745E-12	709.213E-3	9.98600E-3
-4.46973E-3	-262.100E-12	712.696E-3	-8.67950E-3	-259.846E-12	704.271E-3	19.4176E-3
-4.47474E-3	-260.937E-12	672.370E-3	-10.1545E-3	-260.108E-12	688.607E-3	14.1619E-3
-4.47974E-3	-262.679E-12	655.376E-3	-37.0963E-3	-260.982E-12	661.130E-3	5.04476E-3
-4.48474E-3	-259.818E-12	656.371E-3	-45.0640E-3	-262.452E-12	661.326E-3	871.207E-6
-4.48974E-3	-260.411E-12	676.285E-3	-57.4212E-3	-263.318E-12	683.675E-3	7.92979E-3
-4.49475E-3	-260.603E-12	697.246E-3	-59.4943E-3	-263.187E-12	707.709E-3	16.1208E-3
-4.49975E-3	-261.339E-12	680.644E-3	-39.1074E-3	-263.629E-12	736.952E-3	14.6345E-3
-4.50475E-3	-261.299E-12	643.940E-3	-28.1176E-3	-261.310E-12	727.841E-3	-12.8040E-3
-4.50975E-3	-260.830E-12	650.634E-3	-9.03369E-3	-262.319E-12	687.666E-3	-31.1241E-3
-4.51476E-3	-261.581E-12	675.802E-3	20.7840E-3	-262.478E-12	674.484E-3	-38.1507E-3
-4.51976E-3	-263.053E-12	671.435E-3	7.69673E-3	-261.895E-12	662.576E-3	-56.4367E-3
-4.52476E-3	-263.634E-12	702.205E-3	-34.3851E-3	-260.972E-12	665.677E-3	-35.6871E-3
-4.52976E-3	-263.698E-12	756.184E-3	-31.1503E-3	-260.023E-12	698.922E-3	-1.64681E-3
-4.53477E-3	-262.923E-12	758.416E-3	-3.91369E-3	-260.791E-12	682.409E-3	-27.5206E-3
-4.53977E-3	-264.760E-12	746.288E-3	-8.96206E-3	-260.789E-12	637.677E-3	-45.0323E-3
-4.54477E-3	-265.598E-12	735.994E-3	-25.9305E-3	-262.419E-12	658.019E-3	6.54207E-3
-4.54977E-3	-265.492E-12	710.752E-3	-35.9713E-3	-259.977E-12	705.720E-3	31.6552E-3
-4.55478E-3	-264.113E-12	710.195E-3	-41.0113E-3	-261.002E-12	692.200E-3	-6.57408E-3
-4.55978E-3	-265.531E-12	729.869E-3	-43.1713E-3	-260.986E-12	681.527E-3	-35.9723E-3
-4.56478E-3	-265.439E-12	721.492E-3	-62.1409E-3	-262.334E-12	703.327E-3	-63.0724E-3
-4.56978E-3	-265.914E-12	697.226E-3	-75.3457E-3	-261.134E-12	688.142E-3	-104.496E-3
-4.57479E-3	-264.259E-12	678.234E-3	-29.6498E-3	-262.811E-12	663.708E-3	-88.9748E-3
-4.57979E-3	-264.666E-12	658.403E-3	4.96053E-3	-264.611E-12	664.818E-3	-37.2479E-3
-4.58479E-3	-264.046E-12	662.575E-3	-30.0827E-3	-265.074E-12	654.205E-3	-26.8057E-3
-4.58979E-3	-263.008E-12	684.006E-3	-29.0189E-3	-266.939E-12	633.053E-3	-30.2439E-3
-4.59480E-3	-263.454E-12	680.046E-3	11.8773E-3	-266.950E-12	665.425E-3	-15.7268E-3
-4.59980E-3	-263.571E-12	654.927E-3	5.43610E-3	-268.376E-12	716.421E-3	20.2645E-3
-4.60480E-3	-263.677E-12	636.586E-3	-20.0005E-3	-268.832E-12	711.335E-3	26.4107E-3
-4.60980E-3	-263.787E-12	625.366E-3	-37.5899E-3	-270.012E-12	686.856E-3	-19.1539E-3
-4.61481E-3	-265.329E-12	625.326E-3	-41.5953E-3	-270.475E-12	679.424E-3	-55.4144E-3
-4.61981E-3	-264.238E-12	654.760E-3	-14.3067E-3	-269.865E-12	676.971E-3	-75.4231E-3
-4.62481E-3	-264.352E-12	665.987E-3	9.99360E-3	-270.100E-12	669.490E-3	-71.6864E-3
-4.62981E-3	-266.649E-12	643.426E-3	-1.67511E-3	-269.212E-12	656.627E-3	-34.0993E-3
-4.63482E-3	-268.169E-12	665.011E-3	-18.0425E-3	-270.463E-12	657.640E-3	7.01968E-3
-4.63982E-3	-268.610E-12	699.627E-3	-14.8874E-3	-269.811E-12	678.383E-3	24.8887E-3
-4.64482E-3	-268.788E-12	686.339E-3	-14.5680E-3	-270.626E-12	702.964E-3	-1.66009E-3
-4.64982E-3	-270.219E-12	671.240E-3	-5.93507E-3	-267.679E-12	704.197E-3	-4.79238E-3
-4.65483E-3	-271.893E-12	680.188E-3	26.5079E-3	-267.629E-12	684.113E-3	9.09071E-3
-4.65983E-3	-273.145E-12	694.885E-3	46.3883E-3	-268.011E-12	669.243E-3	-22.6077E-3
-4.66483E-3	-272.977E-12	718.569E-3	28.7540E-3	-269.024E-12	659.659E-3	-33.3483E-3
-4.66983E-3	-273.539E-12	721.181E-3	-684.684E-6	-269.141E-12	664.244E-3	-11.4478E-3
-4.67484E-3	-273.468E-12	694.102E-3	-14.6143E-3	-268.304E-12	665.627E-3	15.1948E-3
-4.67984E-3	-273.439E-12	691.736E-3	-12.6897E-3	-270.922E-12	654.601E-3	22.5993E-3
-4.68484E-3	-272.288E-12	700.733E-3	2.52630E-3	-271.034E-12	683.756E-3	4.31328E-3
-4.68984E-3	-273.186E-12	699.369E-3	13.9426E-3	-270.753E-12	737.691E-3	-24.9023E-3
-4.69485E-3	-272.285E-12	694.942E-3	-1.85783E-3	-272.626E-12	727.784E-3	-38.1647E-3
-4.69985E-3	-271.608E-12	677.691E-3	4.10550E-3	-274.400E-12	688.860E-3	-20.2895E-3
-4.70485E-3	-272.588E-12	653.231E-3	16.9868E-3	-275.587E-12	706.058E-3	-21.4657E-3
-4.70985E-3	-272.642E-12	626.374E-3	-22.3620E-3	-274.681E-12	726.341E-3	-21.3199E-3
-4.71486E-3	-273.333E-12	615.782E-3	-43.9653E-3	-277.453E-12	689.610E-3	-3.98029E-3
-4.71986E-3	-272.888E-12	649.195E-3	-13.5767E-3	-276.938E-12	656.208E-3	-22.9966E-3
-4.72486E-3	-275.185E-12	699.964E-3	5.19946E-3	-277.091E-12	665.211E-3	-41.1684E-3
-4.72986E-3	-275.668E-12	724.457E-3	-9.96670E-3	-276.181E-12	659.984E-3	-20.0645E-3
-4.73487E-3	-276.877E-12	725.734E-3	-33.2800E-3	-276.725E-12	640.505E-3	-24.0340E-3
-4.73987E-3	-277.510E-12	733.175E-3	-42.5851E-3	-276.280E-12	636.992E-3	-48.1249E-3
-4.74487E-3	-277.699E-12	744.636E-3	-30.0431E-3	-273.463E-12	641.740E-3	-52.2015E-3
-4.74988E-3	-278.998E-12	717.215E-3	-25.0413E-3	-273.372E-12	635.170E-3	-39.0068E-3
-4.75488E-3	-278.526E-12	683.761E-3	-50.8585E-3	-273.215E-12	623.051E-3	-22.5416E-3
-4.75988E-3	-278.833E-12	690.402E-3	-74.2750E-3	-273.433E-12	619.952E-3	-22.1134E-3
-4.76488E-3	-277.975E-12	695.621E-3	-54.7646E-3	-270.536E-12	625.968E-3	-53.6696E-3
-4.76988E-3	-277.638E-12	686.099E-3	-22.3797E-3	-271.125E-12	660.263E-3	-79.5778E-3
-4.77489E-3	-276.984E-12	667.275E-3	-1.95519E-3	-272.019E-12	681.230E-3	-54.8304E-3
-4.77989E-3	-275.751E-12	645.542E-3	57.1569E-3	-272.062E-12	672.446E-3	-12.0310E-3
-4.78489E-3	-275.235E-12	650.358E-3	90.1903E-3	-271.460E-12	662.238E-3	6.32615E-3
-4.78989E-3	-273.879E-12	682.233E-3	46.6050E-3	-271.155E-12	640.497E-3	-25.6777E-3
-4.79490E-3	-274.214E-12	689.506E-3	13.7072E-3	-272.644E-12	629.558E-3	-47.5694E-3
-4.79990E-3	-274.235E-12	676.586E-3	15.9694E-3	-273.320E-12	654.849E-3	-24.7667E-3
-4.80490E-3	-274.326E-12	697.223E-3	22.3976E-3	-275.346E-12	671.946E-3	-20.4481E-3
-4.80990E-3	-273.796E-12	700.885E-3	37.0270E-3	-276.279E-12	653.640E-3	-20.9274E-3
-4.81491E-3	-273.953E-12	673.856E-3	47.7284E-3	-277.848E-12	638.736E-3	-25.1646E-3
-4.81991E-3	-276.010E-12	662.570E-3	28.1161E-3	-278.001E-12	635.875E-3	-29.7159E-3
-4.82491E-3	-275.437E-12	642.752E-3	1.12735E-3	-278.065E-12	651.595E-3	-34.6590E-3
-4.82991E-3	-277.029E-12	609.001E-3	-7.48144E-3	-277.520E-12	675.850E-3	-61.9013E-3
-4.83492E-3	-276.285E-12	610.726E-3	5.58318E-3	-278.392E-12	653.474E-3	-53.2150E-3
-4.83992E-3	-276.678E-12	646.770E-3	30.2463E-3	-279.257E-12	624.978E-3	-15.0820E-3
-4.84492E-3	-277.489E-12	668.163E-3	14.1158E-3	-277.597E-12	639.923E-3	-20.1848E-3
-4.84992E-3	-279.791E-12	676.462E-3	-29.3027E-3	-276.547E-12	655.571E-3	-63.3616E-3
-4.85493E-3	-277.867E-12	701.531E-3	-22.6945E-3	-274.297E-12	661.187E-3	-72.1452E-3
-4.85993E-3	-277.156E-12	720.613E-3	15.8354E-3	-275.201E-12	665.678E-3	-49.3581E-3
-4.86493E-3	-278.973E-12	702.408E-3	33.3960E-3	-274.086E-12	693.850E-3	-26.6655E-3
-4.86993E-3	-280.550E-12	674.734E-3	8.60835E-3	-275.566E-12	741.387E-3	-3.99697E-3
-4.87494E-3	-277.793E-12	661.718E-3	-42.4291E-3	-274.030E-12	726.987E-3	-14.4914E-3
-4.87994E-3	-276.227E-12	654.463E-3	-90.8487E-3	-273.165E-12	662.226E-3	-26.2244E-3
-4.88494E-3	-278.161E-12	673.100E-3	-114.846E-3	-274.279E-12	626.385E-3	-933.873E-6
-4.88995E-3	-278.199E-12	696.491E-3	-67.2841E-3	-275.890E-12	639.171E-3	4.29933E-3
-4.89495E-3	-278.593E-12	702.899E-3	6.63927E-3	-276.809E-12	676.330E-3	-15.7842E-3
-4.89995E-3	-278.183E-12	730.205E-3	27.0184E-3	-277.362E-12	691.213E-3	-18.5699E-3
-4.90495E-3	-278.239E-12	732.807E-3	37.2039E-3	-278.832E-12	690.680E-3	-8.09694E-3
-4.90995E-3	-278.524E-12	679.757E-3	42.2310E-3	-279.727E-12	691.582E-3	-10.2851E-3
-4.91496E-3	-280.452E-12	653.585E-3	12.3514E-3	-281.043E-12	669.604E-3	-21.2047E-3
-4.91996E-3	-280.310E-12	657.488E-3	-3.90205E-3	-281.170E-12	644.636E-3	-10.1118E-3
-4.92496E-3	-278.902E-12	650.515E-3	545.488E-6	-281.350E-12	656.753E-3	-2.67904E-3
-4.92996E-3	-281.181E-12	659.414E-3	14.1920E-3	-282.115E-12	677.190E-3	-16.5024E-3
-4.93497E-3	-282.443E-12	681.627E-3	4.42457E-3	-282.719E-12	669.266E-3	-26.9013E-3
-4.93997E-3	-284.103E-12	712.590E-3	-55.8080E-3	-283.008E-12	646.475E-3	-48.3608E-3
-4.94497E-3	-283.879E-12	723.394E-3	-66.2978E-3	-281.534E-12	655.882E-3	-47.8897E-3
-4.94997E-3	-284.495E-12	679.022E-3	-23.3742E-3	-281.541E-12	702.452E-3	-4.57402E-3
-4.95498E-3	-285.144E-12	673.937E-3	-26.8840E-3	-280.221E-12	716.083E-3	5.21100E-3
-4.95998E-3	-286.667E-12	700.993E-3	-32.9854E-3	-282.233E-12	707.497E-3	-5.91064E-3
-4.96498E-3	-286.566E-12	671.360E-3	-19.7658E-3	-283.025E-12	719.737E-3	9.47402E-3
-4.96998E-3	-286.749E-12	647.179E-3	-27.0462E-3	-281.678E-12	717.518E-3	6.70824E-3
-4.97499E-3	-287.467E-12	659.248E-3	-46.6216E-3	-280.510E-12	701.539E-3	-11.3123E-3
-4.97999E-3	-288.980E-12	677.561E-3	-53.9323E-3	-282.458E-12	709.810E-3	-15.2809E-3
-4.98499E-3	-287.848E-12	699.606E-3	-29.1144E-3	-284.204E-12	707.859E-3	-13.6438E-3
-4.98999E-3	-286.356E-12	696.881E-3	-8.94772E-3	-284.944E-12	694.911E-3	4.46049E-3
-4.99500E-3	-288.710E-12	673.525E-3	-12.5157E-3	-285.180E-12	698.760E-3	18.3015E-3
-5.00000E-3	-288.421E-12	670.786E-3	-20.3019E-3	-287.133E-12	689.205E-3	-5.95476E-3
