Experiment	bias spectroscopy	
Date	19.01.2016 21:27:12	
User		
X (m)	49.8052E-9	
Y (m)	257.218E-9	
Z (m)	-132.555E-9	
Z offset (m)	0E+0	
Settling time (s)	200E-6	
Integration time (s)	5E-3	
Z-Ctrl hold	TRUE	
Final Z (m)	N/A	
Filter type	None	
Order		
Cutoff frq		
Comment01	MnPc/Pb(111)	
Comment02	dz =00pm	
Comment03	7 Sweeps	
Comment04	MagField =0.T	
Comment05	Divider 1:10	
Comment06	Setpoint:5mV,200 pA	
Comment07	Lockin: 50uVrms,5ms,5mV	
Comment08	Gain:9; 912Hz modulation	
Comment09	T=1.06K	
Bias>Bias (V)	5E-3	
Bias>Calibration (V/V)	81.475E-3	
Bias>Offset (V)	1.046E-3	
Bias Spectroscopy>Sweep Start (V)	5E-3	
Bias Spectroscopy>Sweep End (V)	-5E-3	
Bias Spectroscopy>Num Pixel	2000	
Bias Spectroscopy>Z Avg time (s)	500E-3	
Bias Spectroscopy>Z offset (m)	0E+0	
Bias Spectroscopy>1st Settling time (s)	500E-3	
Bias Spectroscopy>Settling time (s)	200E-6	
Bias Spectroscopy>Integration time (s)	5E-3	
Bias Spectroscopy>End Settling time (s)	500E-3	
Bias Spectroscopy>Z control time (s)	500E-3	
Bias Spectroscopy>Max Slew rate (V/s)	Inf	
Bias Spectroscopy>backward sweep	TRUE	
Bias Spectroscopy>Z-controller hold	TRUE	
Bias Spectroscopy>Number of sweeps	7	
Bias Spectroscopy>Channels	Current (A);X% LockIn (V);Y% LockIn (V)	
Bias Spectroscopy>Reset Bias	TRUE	
Bias Spectroscopy>Record final Z	FALSE	
Bias Spectroscopy>Lock-In run	FALSE	
Bias Spectroscopy>Sweep mode	Linear	
Bias Spectroscopy>MultiLine Settings : Segment Start (V), Segment End (V), Settling (s), Integration (s), Steps (xn)	100E-3,3.3E-3,100E-6,10E-3,2500;3.3E-3,-3.3E-3,100E-6,10E-3,10;-3.3E-3,-100E-3,100E-6,10E-3,2500	
Current>Current (A)	200.033E-12	
Current>Calibration (A/V)	999.99900E-12	
Current>Offset (A)	-455.429E-15	
Current>Gain	LN 10^9	
Z-Controller>Z (m)	-132.555E-9	
Z-Controller>Controller name	log Current	
Z-Controller>Controller status	ON	
Z-Controller>Setpoint	200E-12	
Z-Controller>Setpoint unit	A	
Z-Controller>P gain	2.96994E-12	
Z-Controller>I gain	67.0321E-9	
Z-Controller>Time const (s)	44.3062E-6	
Z-Controller>TipLift (m)	0E+0	
Z-Controller>Switch off delay (s)	50E-3	
Current (A)	200.295E-12	
Z (m)	-132.555E-9	

[DATA]
Bias calc (V)	Current (A)	X% LockIn (V)	Y% LockIn (V)	Current [bwd] (A)	X% LockIn [bwd] (V)	Y% LockIn [bwd] (V)
5.00000E-3	204.152E-12	599.381E-3	-11.9171E-3	197.908E-12	592.853E-3	-12.1864E-3
4.99500E-3	202.520E-12	616.264E-3	-8.93086E-3	196.713E-12	577.975E-3	-12.8989E-3
4.98999E-3	203.872E-12	635.797E-3	-7.58723E-3	197.952E-12	539.333E-3	-8.95440E-3
4.98499E-3	204.736E-12	619.928E-3	-4.82820E-3	197.609E-12	542.911E-3	-22.0414E-3
4.97999E-3	203.035E-12	599.777E-3	-5.98680E-3	197.003E-12	577.816E-3	-32.7270E-3
4.97499E-3	202.852E-12	580.274E-3	-18.7996E-3	197.802E-12	596.125E-3	-31.6260E-3
4.96998E-3	202.052E-12	547.891E-3	-14.2194E-3	198.595E-12	579.688E-3	-44.3476E-3
4.96498E-3	199.943E-12	552.159E-3	-8.41798E-3	198.450E-12	581.498E-3	-66.0577E-3
4.95998E-3	199.973E-12	593.176E-3	-8.66964E-3	199.182E-12	594.524E-3	-55.8372E-3
4.95498E-3	197.526E-12	615.028E-3	9.94607E-3	198.836E-12	580.016E-3	-18.6851E-3
4.94997E-3	196.544E-12	594.377E-3	9.33910E-3	198.713E-12	576.319E-3	-15.0843E-3
4.94497E-3	197.466E-12	570.153E-3	-13.2614E-3	199.703E-12	593.011E-3	-41.5976E-3
4.93997E-3	195.689E-12	578.954E-3	-26.7177E-3	198.566E-12	610.602E-3	-59.1621E-3
4.93497E-3	193.673E-12	601.792E-3	-40.3168E-3	197.864E-12	595.536E-3	-65.3558E-3
4.92996E-3	195.008E-12	594.973E-3	-27.4553E-3	198.364E-12	572.594E-3	-31.4570E-3
4.92496E-3	195.566E-12	586.441E-3	-4.00099E-3	198.137E-12	583.764E-3	4.56323E-3
4.91996E-3	195.997E-12	584.024E-3	7.78642E-3	196.816E-12	573.056E-3	-12.5382E-3
4.91496E-3	196.662E-12	571.564E-3	14.6017E-3	197.561E-12	537.022E-3	-15.8908E-3
4.90995E-3	197.488E-12	583.491E-3	499.729E-6	197.980E-12	563.960E-3	4.56884E-3
4.90495E-3	198.852E-12	606.344E-3	-5.20436E-3	196.383E-12	611.412E-3	6.25177E-3
4.89995E-3	200.102E-12	598.316E-3	-6.31052E-3	196.174E-12	601.391E-3	-1.49174E-3
4.89495E-3	199.747E-12	577.513E-3	-18.2732E-3	195.501E-12	576.886E-3	-451.555E-6
4.88995E-3	198.642E-12	576.875E-3	-14.0221E-3	194.447E-12	582.272E-3	-5.72205E-3
4.88494E-3	198.957E-12	585.779E-3	-12.2780E-3	193.589E-12	596.871E-3	-18.5410E-3
4.87994E-3	197.955E-12	591.588E-3	-30.3515E-3	192.709E-12	593.136E-3	-15.5235E-3
4.87494E-3	195.912E-12	592.177E-3	-36.8927E-3	191.128E-12	580.298E-3	-6.03669E-3
4.86993E-3	196.744E-12	594.361E-3	-25.5684E-3	190.874E-12	562.482E-3	-3.55509E-3
4.86493E-3	195.376E-12	588.542E-3	-10.1347E-3	191.386E-12	528.482E-3	7.67132E-3
4.85993E-3	192.622E-12	581.770E-3	-10.0117E-3	191.598E-12	508.455E-3	16.2234E-3
4.85493E-3	192.090E-12	608.000E-3	-17.9970E-3	191.633E-12	538.605E-3	-11.9127E-3
4.84992E-3	192.136E-12	625.185E-3	-12.1187E-3	192.102E-12	594.043E-3	-21.5445E-3
4.84492E-3	190.200E-12	599.059E-3	4.59145E-3	193.191E-12	641.289E-3	-8.77330E-3
4.83992E-3	189.519E-12	595.276E-3	21.9656E-3	193.015E-12	652.161E-3	-10.1704E-3
4.83492E-3	190.433E-12	623.585E-3	16.6925E-3	194.486E-12	619.775E-3	20.3834E-3
4.82991E-3	190.366E-12	619.047E-3	-2.75443E-3	194.539E-12	601.975E-3	46.1310E-3
4.82491E-3	190.780E-12	590.586E-3	-14.7332E-3	195.319E-12	616.216E-3	30.0291E-3
4.81991E-3	191.055E-12	577.919E-3	-15.2353E-3	195.963E-12	595.450E-3	17.4817E-3
4.81491E-3	191.316E-12	565.678E-3	-12.1939E-3	196.446E-12	569.867E-3	670.009E-6
4.80990E-3	192.046E-12	555.100E-3	-14.8339E-3	196.315E-12	564.846E-3	-12.8632E-3
4.80490E-3	192.176E-12	576.858E-3	-15.0458E-3	195.743E-12	563.781E-3	9.58219E-3
4.79990E-3	192.351E-12	605.143E-3	-5.24425E-3	194.175E-12	576.912E-3	18.7882E-3
4.79490E-3	193.430E-12	602.936E-3	-7.35825E-3	193.058E-12	568.055E-3	-23.1566E-3
4.78989E-3	192.364E-12	593.130E-3	-25.0983E-3	191.992E-12	560.589E-3	-60.2012E-3
4.78489E-3	191.414E-12	597.520E-3	-21.9892E-3	190.344E-12	583.088E-3	-36.8285E-3
4.77989E-3	193.458E-12	609.590E-3	3.12919E-3	189.124E-12	591.179E-3	-5.84345E-3
4.77489E-3	192.856E-12	599.572E-3	5.39711E-3	187.741E-12	549.298E-3	-32.1122E-3
4.76988E-3	191.426E-12	563.585E-3	-26.8719E-3	187.522E-12	513.264E-3	-49.5850E-3
4.76488E-3	192.062E-12	563.371E-3	-40.5744E-3	187.330E-12	528.157E-3	-15.9808E-3
4.75988E-3	191.969E-12	592.179E-3	-37.3331E-3	187.289E-12	550.370E-3	9.68236E-3
4.75488E-3	190.704E-12	600.166E-3	-27.5365E-3	187.474E-12	574.525E-3	14.9875E-3
4.74988E-3	191.345E-12	612.499E-3	-10.8931E-3	188.172E-12	619.508E-3	20.3374E-3
4.74487E-3	190.548E-12	620.393E-3	421.082E-6	189.358E-12	641.712E-3	-1.71529E-3
4.73987E-3	189.457E-12	621.460E-3	16.1901E-3	190.223E-12	611.641E-3	-44.5246E-3
4.73487E-3	189.973E-12	619.145E-3	20.2061E-3	191.927E-12	599.865E-3	-62.6503E-3
4.72986E-3	190.373E-12	609.352E-3	-15.4400E-3	193.066E-12	620.999E-3	-45.5214E-3
4.72486E-3	189.244E-12	600.683E-3	-68.1897E-3	194.725E-12	615.237E-3	1.59482E-3
4.71986E-3	188.408E-12	588.095E-3	-84.7504E-3	193.928E-12	601.342E-3	17.3469E-3
4.71486E-3	188.499E-12	586.061E-3	-66.5398E-3	193.859E-12	605.689E-3	1.97204E-3
4.70985E-3	187.683E-12	585.082E-3	-49.1319E-3	192.860E-12	601.809E-3	-1.23434E-3
4.70485E-3	186.469E-12	589.574E-3	-44.0876E-3	192.071E-12	587.703E-3	-28.9464E-3
4.69985E-3	186.693E-12	610.421E-3	-42.1365E-3	189.440E-12	585.265E-3	-56.4740E-3
4.69485E-3	187.218E-12	609.653E-3	-54.0120E-3	187.476E-12	580.991E-3	-42.6005E-3
4.68984E-3	186.810E-12	573.666E-3	-52.3060E-3	186.222E-12	562.106E-3	-17.6608E-3
4.68484E-3	187.516E-12	560.934E-3	-21.1982E-3	183.531E-12	549.096E-3	5.88237E-3
4.67984E-3	188.419E-12	592.300E-3	3.95455E-3	182.342E-12	554.659E-3	8.39413E-3
4.67484E-3	188.996E-12	635.346E-3	14.3586E-3	181.825E-12	567.091E-3	-25.9274E-3
4.66983E-3	189.616E-12	625.533E-3	9.26031E-3	181.117E-12	569.975E-3	-40.5029E-3
4.66483E-3	189.926E-12	576.640E-3	7.05790E-3	181.039E-12	567.383E-3	-16.8388E-3
4.65983E-3	189.798E-12	559.561E-3	6.76035E-3	181.705E-12	573.415E-3	-9.05902E-3
4.65483E-3	190.606E-12	558.878E-3	10.6030E-6	182.389E-12	575.077E-3	-22.5843E-3
4.64982E-3	189.374E-12	575.973E-3	-11.0602E-3	184.088E-12	556.739E-3	-27.5456E-3
4.64482E-3	188.863E-12	610.023E-3	-32.1563E-3	185.160E-12	565.976E-3	-1.78714E-3
4.63982E-3	188.272E-12	612.343E-3	-38.1267E-3	186.537E-12	606.990E-3	18.8065E-3
4.63482E-3	187.005E-12	589.833E-3	-17.6350E-3	188.007E-12	625.020E-3	-2.12513E-3
4.62981E-3	185.096E-12	579.152E-3	-27.3636E-3	189.191E-12	609.787E-3	-13.2009E-3
4.62481E-3	184.146E-12	579.836E-3	-44.1112E-3	188.464E-12	593.914E-3	-2.04388E-3
4.61981E-3	183.814E-12	580.351E-3	-6.97473E-3	188.804E-12	593.005E-3	-219.587E-6
4.61481E-3	182.141E-12	581.939E-3	1.62146E-3	188.199E-12	582.284E-3	3.34650E-3
4.60980E-3	180.800E-12	587.156E-3	-33.4428E-3	187.079E-12	564.522E-3	8.63400E-3
4.60480E-3	181.164E-12	588.201E-3	-35.8083E-3	185.420E-12	566.648E-3	950.273E-6
4.59980E-3	181.379E-12	608.222E-3	-19.1352E-3	183.704E-12	593.603E-3	-5.83721E-3
4.59480E-3	181.628E-12	620.894E-3	-28.9366E-3	181.988E-12	592.908E-3	-12.9511E-3
4.58979E-3	182.203E-12	594.823E-3	-31.5042E-3	181.473E-12	564.119E-3	-19.1466E-3
4.58479E-3	183.058E-12	584.792E-3	-14.3432E-3	180.653E-12	571.271E-3	-26.0211E-3
4.57979E-3	185.046E-12	598.570E-3	-8.59866E-3	179.541E-12	597.897E-3	-29.9510E-3
4.57479E-3	185.733E-12	606.651E-3	-27.4647E-3	179.071E-12	616.523E-3	-30.8480E-3
4.56978E-3	186.324E-12	606.525E-3	-49.7112E-3	179.185E-12	625.185E-3	-22.8790E-3
4.56478E-3	186.901E-12	603.772E-3	-32.8739E-3	179.276E-12	612.479E-3	-24.1277E-3
4.55978E-3	187.053E-12	597.502E-3	-12.2121E-3	180.390E-12	598.144E-3	-54.6065E-3
4.55478E-3	186.044E-12	593.903E-3	-23.2721E-3	180.364E-12	588.109E-3	-59.9273E-3
4.54977E-3	185.751E-12	590.549E-3	-32.9089E-3	182.498E-12	580.085E-3	-25.0566E-3
4.54477E-3	184.051E-12	582.632E-3	-20.7052E-3	182.928E-12	572.495E-3	-2.93799E-3
4.53977E-3	182.341E-12	595.989E-3	-2.63269E-3	184.013E-12	566.081E-3	-25.2193E-3
4.53477E-3	182.152E-12	608.971E-3	11.5860E-3	184.602E-12	578.990E-3	-45.5052E-3
4.52976E-3	180.450E-12	594.114E-3	-4.60679E-3	184.520E-12	593.000E-3	-22.9907E-3
4.52476E-3	179.203E-12	601.677E-3	-36.0735E-3	184.104E-12	599.702E-3	2.62223E-3
4.51976E-3	177.642E-12	619.666E-3	-25.0676E-3	184.334E-12	608.905E-3	-1.71279E-3
4.51476E-3	177.892E-12	585.429E-3	10.4651E-3	182.763E-12	609.550E-3	-19.2346E-3
4.50975E-3	176.710E-12	543.008E-3	10.6693E-3	180.911E-12	599.652E-3	2.94593E-3
4.50475E-3	177.370E-12	556.502E-3	-26.8826E-3	180.370E-12	583.441E-3	25.7746E-3
4.49975E-3	177.561E-12	583.640E-3	-53.9419E-3	179.920E-12	566.978E-3	1.07250E-3
4.49475E-3	177.578E-12	573.939E-3	-50.9771E-3	179.071E-12	578.256E-3	-14.1018E-3
4.48974E-3	178.200E-12	575.407E-3	-39.6058E-3	178.281E-12	604.602E-3	-20.6847E-3
4.48474E-3	179.626E-12	605.543E-3	-27.8379E-3	178.751E-12	607.016E-3	-24.1105E-3
4.47974E-3	179.999E-12	617.276E-3	-27.0236E-3	177.763E-12	588.331E-3	-18.8539E-3
4.47474E-3	180.311E-12	610.060E-3	-39.1488E-3	177.852E-12	586.841E-3	-23.6442E-3
4.46973E-3	180.960E-12	606.025E-3	-23.1385E-3	178.492E-12	609.275E-3	-32.6194E-3
4.46473E-3	181.760E-12	610.632E-3	6.94343E-3	178.515E-12	621.707E-3	-32.5457E-3
4.45973E-3	180.467E-12	603.224E-3	20.1630E-3	177.092E-12	619.792E-3	-23.3528E-3
4.45473E-3	179.971E-12	578.397E-3	18.3398E-3	178.571E-12	619.736E-3	-25.7256E-3
4.44972E-3	180.075E-12	569.817E-3	-517.482E-6	178.517E-12	606.917E-3	-54.1157E-3
4.44472E-3	179.113E-12	595.579E-3	-13.7602E-3	177.357E-12	582.409E-3	-78.1609E-3
4.43972E-3	177.257E-12	612.611E-3	-20.6964E-3	177.810E-12	569.960E-3	-60.9456E-3
4.43472E-3	176.680E-12	597.791E-3	-32.5848E-3	178.475E-12	566.655E-3	-22.2394E-3
4.42971E-3	175.462E-12	597.283E-3	-43.5191E-3	177.811E-12	580.655E-3	904.488E-6
4.42471E-3	174.988E-12	609.872E-3	-38.2669E-3	177.785E-12	590.497E-3	-8.44810E-3
4.41971E-3	175.041E-12	594.716E-3	-11.1782E-3	178.150E-12	568.931E-3	-17.5439E-3
4.41471E-3	174.660E-12	571.456E-3	2.19592E-3	177.489E-12	569.451E-3	7.13738E-3
4.40970E-3	173.831E-12	570.096E-3	7.67529E-3	177.621E-12	589.997E-3	21.3314E-3
4.40470E-3	173.617E-12	582.158E-3	31.5435E-3	177.174E-12	598.296E-3	8.60472E-3
4.39970E-3	174.663E-12	599.896E-3	17.3416E-3	176.838E-12	601.509E-3	-14.0299E-3
4.39470E-3	175.437E-12	615.418E-3	-30.1134E-3	176.811E-12	609.061E-3	-29.0882E-3
4.38969E-3	175.285E-12	618.074E-3	-39.9181E-3	176.712E-12	629.202E-3	-24.9224E-3
4.38469E-3	175.266E-12	605.862E-3	-30.8111E-3	176.900E-12	639.882E-3	-21.2830E-3
4.37969E-3	176.108E-12	606.924E-3	-33.9585E-3	176.667E-12	617.029E-3	-23.4297E-3
4.37469E-3	176.236E-12	615.479E-3	-29.5192E-3	176.287E-12	602.854E-3	-24.2605E-3
4.36968E-3	176.531E-12	603.541E-3	-21.7057E-3	175.055E-12	619.754E-3	-21.2094E-3
4.36468E-3	176.693E-12	588.818E-3	-38.6159E-3	175.188E-12	628.728E-3	-4.66927E-3
4.35968E-3	177.098E-12	594.238E-3	-51.6725E-3	173.341E-12	626.210E-3	18.9940E-3
4.35468E-3	176.182E-12	606.787E-3	-55.4992E-3	172.585E-12	607.846E-3	3.58690E-3
4.34967E-3	176.275E-12	611.786E-3	-47.0171E-3	172.154E-12	583.331E-3	-38.1163E-3
4.34467E-3	175.653E-12	596.259E-3	-17.3954E-3	171.374E-12	594.546E-3	-33.7254E-3
4.33967E-3	175.071E-12	566.146E-3	-4.37619E-3	170.880E-12	620.316E-3	-4.18756E-3
4.33467E-3	174.909E-12	568.821E-3	3.56036E-3	171.768E-12	608.665E-3	-4.21667E-3
4.32966E-3	174.989E-12	592.299E-3	4.78856E-3	171.533E-12	601.588E-3	-26.7741E-3
4.32466E-3	174.504E-12	613.351E-3	-16.8910E-3	171.394E-12	616.763E-3	-41.6952E-3
4.31966E-3	174.022E-12	613.878E-3	-30.6412E-3	173.101E-12	620.293E-3	-47.9428E-3
4.31466E-3	173.710E-12	596.727E-3	-32.4752E-3	173.344E-12	616.969E-3	-24.6547E-3
4.30965E-3	173.796E-12	583.627E-3	-38.8956E-3	174.435E-12	614.986E-3	22.5348E-3
4.30465E-3	173.470E-12	591.956E-3	-37.9163E-3	174.845E-12	609.647E-3	33.5822E-3
4.29965E-3	172.320E-12	632.544E-3	-19.8198E-3	175.593E-12	603.855E-3	12.6381E-3
4.29465E-3	172.201E-12	660.107E-3	-6.43042E-3	175.411E-12	600.665E-3	-3.75941E-3
4.28964E-3	171.596E-12	653.813E-3	-13.9421E-3	175.547E-12	579.604E-3	-9.50178E-3
4.28464E-3	171.149E-12	627.078E-3	-17.1159E-3	174.270E-12	551.718E-3	-7.19275E-3
4.27964E-3	170.476E-12	588.584E-3	-30.0989E-3	173.318E-12	558.180E-3	-2.50666E-3
4.27464E-3	170.224E-12	570.899E-3	-60.4374E-3	172.083E-12	577.185E-3	-13.9635E-3
4.26963E-3	169.740E-12	587.920E-3	-53.3438E-3	170.087E-12	560.172E-3	-18.2557E-3
4.26463E-3	169.249E-12	613.764E-3	-19.0096E-3	168.415E-12	535.724E-3	1.40190E-3
4.25963E-3	169.247E-12	633.402E-3	-11.1746E-3	167.323E-12	543.320E-3	8.70936E-3
4.25463E-3	169.728E-12	645.737E-3	-23.5882E-3	166.048E-12	562.313E-3	-12.0081E-3
4.24962E-3	170.578E-12	646.753E-3	-20.3806E-3	164.151E-12	565.538E-3	-22.7775E-3
4.24462E-3	170.732E-12	644.056E-3	-18.2225E-3	165.154E-12	561.740E-3	-26.1492E-3
4.23962E-3	170.247E-12	644.157E-3	-29.1022E-3	165.460E-12	573.884E-3	-39.7455E-3
4.23462E-3	171.228E-12	630.092E-3	-35.2518E-3	165.529E-12	597.642E-3	-32.4890E-3
4.22961E-3	171.805E-12	600.419E-3	-40.2641E-3	166.975E-12	612.621E-3	-9.17834E-3
4.22461E-3	170.568E-12	575.630E-3	-41.0917E-3	168.554E-12	631.163E-3	-5.91783E-3
4.21961E-3	171.589E-12	572.401E-3	-24.5994E-3	169.624E-12	643.565E-3	-11.6520E-3
4.21461E-3	170.569E-12	581.345E-3	-18.9427E-3	170.773E-12	656.520E-3	-8.69086E-3
4.20960E-3	169.238E-12	582.584E-3	-24.2981E-3	172.687E-12	672.798E-3	-27.4005E-3
4.20460E-3	168.501E-12	573.848E-3	-22.0387E-3	172.329E-12	663.342E-3	-40.9269E-3
4.19960E-3	168.050E-12	580.339E-3	-28.5247E-3	173.513E-12	649.344E-3	-5.99695E-3
4.19460E-3	166.238E-12	593.599E-3	-31.4768E-3	172.735E-12	636.602E-3	-5.43904E-3
4.18959E-3	165.449E-12	583.246E-3	-53.2999E-3	172.344E-12	610.325E-3	-52.1921E-3
4.18459E-3	164.872E-12	564.767E-3	-85.9179E-3	171.093E-12	594.627E-3	-57.5398E-3
4.17959E-3	163.403E-12	566.126E-3	-78.4155E-3	169.792E-12	603.035E-3	-45.4470E-3
4.17459E-3	163.686E-12	590.174E-3	-43.6402E-3	167.831E-12	610.742E-3	-36.3654E-3
4.16958E-3	163.683E-12	588.372E-3	-6.28438E-3	165.398E-12	616.796E-3	-11.7750E-3
4.16458E-3	164.775E-12	552.019E-3	-3.15932E-3	163.889E-12	617.359E-3	-10.8885E-3
4.15958E-3	166.084E-12	541.378E-3	-25.9461E-3	162.076E-12	593.863E-3	-16.7642E-3
4.15458E-3	165.906E-12	560.009E-3	-12.9829E-3	161.988E-12	569.132E-3	-18.0850E-3
4.14957E-3	166.020E-12	582.125E-3	9.25986E-3	160.262E-12	565.772E-3	-52.2067E-3
4.14457E-3	168.932E-12	597.030E-3	-11.1434E-3	160.663E-12	571.142E-3	-58.4079E-3
4.13957E-3	168.586E-12	604.325E-3	-40.0628E-3	162.378E-12	564.631E-3	-13.9444E-3
4.13457E-3	168.174E-12	614.241E-3	-21.6330E-3	163.267E-12	554.610E-3	8.70942E-3
4.12956E-3	169.403E-12	625.643E-3	13.4933E-3	163.316E-12	562.945E-3	-1.71509E-3
4.12456E-3	168.824E-12	625.918E-3	14.6864E-3	164.854E-12	589.228E-3	-23.0845E-3
4.11956E-3	167.853E-12	612.662E-3	9.25338E-3	166.815E-12	612.543E-3	-33.1160E-3
4.11456E-3	166.966E-12	606.415E-3	13.7756E-3	167.939E-12	608.675E-3	-12.0539E-3
4.10955E-3	166.166E-12	625.102E-3	11.7967E-3	167.672E-12	597.560E-3	9.65796E-3
4.10455E-3	163.861E-12	645.176E-3	-3.99438E-3	169.099E-12	598.812E-3	4.65255E-3
4.09955E-3	163.289E-12	638.619E-3	-10.7045E-3	168.862E-12	575.550E-3	-7.66467E-3
4.09455E-3	162.921E-12	622.414E-3	2.04796E-3	167.328E-12	550.638E-3	-13.7977E-3
4.08954E-3	160.547E-12	601.041E-3	7.24976E-3	167.791E-12	573.839E-3	-16.5862E-3
4.08454E-3	159.846E-12	582.367E-3	-2.05675E-3	165.403E-12	595.579E-3	-1.53704E-3
4.07954E-3	161.143E-12	578.671E-3	-14.8726E-3	163.193E-12	597.045E-3	14.8387E-3
4.07454E-3	160.843E-12	582.772E-3	-31.9434E-3	162.096E-12	595.013E-3	13.3649E-3
4.06953E-3	159.594E-12	593.441E-3	-40.6171E-3	160.631E-12	574.940E-3	-11.2333E-3
4.06453E-3	162.076E-12	594.581E-3	-23.1863E-3	159.638E-12	557.744E-3	-35.7958E-3
4.05953E-3	162.271E-12	589.801E-3	-6.55869E-3	158.621E-12	551.941E-3	-26.0887E-3
4.05453E-3	162.914E-12	612.843E-3	-11.1453E-3	158.533E-12	555.318E-3	-6.74513E-3
4.04952E-3	163.926E-12	632.170E-3	-25.6597E-3	158.198E-12	567.186E-3	6.84944E-3
4.04452E-3	163.924E-12	620.955E-3	-32.2729E-3	158.355E-12	574.323E-3	3.22499E-3
4.03952E-3	162.945E-12	605.298E-3	-31.6194E-3	158.984E-12	575.636E-3	-24.3499E-3
4.03452E-3	164.275E-12	595.270E-3	-27.9455E-3	160.051E-12	594.114E-3	-36.9295E-3
4.02951E-3	162.892E-12	591.128E-3	-10.3134E-3	160.004E-12	627.443E-3	-37.7361E-3
4.02451E-3	162.152E-12	586.828E-3	-200.065E-6	161.189E-12	634.169E-3	-47.5982E-3
4.01951E-3	161.760E-12	587.210E-3	4.09496E-3	161.178E-12	621.539E-3	-49.9796E-3
4.01451E-3	161.131E-12	579.765E-3	1.18343E-3	161.977E-12	617.175E-3	-54.5385E-3
4.00950E-3	159.972E-12	550.455E-3	-25.4606E-3	163.026E-12	620.765E-3	-65.2419E-3
4.00450E-3	159.793E-12	537.875E-3	-23.1880E-3	163.379E-12	627.856E-3	-74.2757E-3
3.99950E-3	158.220E-12	554.722E-3	22.3054E-3	160.933E-12	627.668E-3	-62.4040E-3
3.99450E-3	158.391E-12	580.676E-3	32.6739E-3	160.498E-12	595.181E-3	-30.7501E-3
3.98949E-3	158.970E-12	612.229E-3	-10.1807E-3	162.088E-12	589.387E-3	-21.9743E-3
3.98449E-3	158.218E-12	632.841E-3	-33.1924E-3	160.316E-12	636.682E-3	-29.3701E-3
3.97949E-3	158.518E-12	619.727E-3	-30.7959E-3	158.975E-12	645.725E-3	-30.1485E-3
3.97449E-3	159.832E-12	595.650E-3	-41.6388E-3	159.961E-12	620.684E-3	-30.7315E-3
3.96948E-3	159.534E-12	588.829E-3	-31.6876E-3	159.852E-12	605.792E-3	-32.7110E-3
3.96448E-3	159.508E-12	589.821E-3	-11.6452E-3	158.755E-12	596.058E-3	-54.3611E-3
3.95948E-3	160.484E-12	587.597E-3	-36.5996E-3	159.363E-12	585.112E-3	-57.5779E-3
3.95448E-3	159.509E-12	568.982E-3	-57.9980E-3	159.499E-12	592.145E-3	-21.2056E-3
3.94947E-3	158.605E-12	540.488E-3	-49.0405E-3	158.637E-12	609.214E-3	-25.5515E-3
3.94447E-3	159.608E-12	557.730E-3	-37.0370E-3	158.504E-12	606.227E-3	-56.5416E-3
3.93947E-3	158.484E-12	596.734E-3	-22.2664E-3	158.370E-12	599.264E-3	-48.5295E-3
3.93447E-3	157.659E-12	604.436E-3	-17.5607E-3	156.626E-12	603.497E-3	-24.6667E-3
3.92946E-3	156.932E-12	614.345E-3	-36.3263E-3	156.699E-12	602.067E-3	-5.85898E-3
3.92446E-3	157.228E-12	633.333E-3	-42.8796E-3	157.280E-12	593.416E-3	11.3788E-3
3.91946E-3	157.175E-12	640.563E-3	-29.9919E-3	155.783E-12	588.631E-3	5.05648E-3
3.91446E-3	157.299E-12	638.688E-3	-27.6560E-3	155.025E-12	588.360E-3	-10.3767E-3
3.90945E-3	156.363E-12	622.311E-3	-24.7786E-3	155.237E-12	598.290E-3	5.35235E-3
3.90445E-3	156.685E-12	591.580E-3	-13.4042E-3	154.967E-12	610.323E-3	12.4714E-3
3.89945E-3	156.366E-12	593.205E-3	-13.1510E-3	154.325E-12	604.636E-3	-6.49122E-3
3.89445E-3	156.271E-12	604.234E-3	-26.6384E-3	155.789E-12	610.538E-3	-19.7960E-3
3.88944E-3	156.479E-12	588.534E-3	-37.2833E-3	155.700E-12	628.249E-3	-31.2896E-3
3.88444E-3	156.269E-12	582.795E-3	-35.1268E-3	155.838E-12	618.921E-3	-44.3585E-3
3.87944E-3	156.240E-12	587.358E-3	-13.3882E-3	157.736E-12	611.918E-3	-54.2088E-3
3.87444E-3	155.982E-12	604.012E-3	1.90904E-3	157.823E-12	619.701E-3	-55.3882E-3
3.86943E-3	156.041E-12	625.373E-3	-10.9031E-3	157.226E-12	605.820E-3	-42.9540E-3
3.86443E-3	154.789E-12	613.234E-3	-32.5114E-3	157.561E-12	594.252E-3	-16.0847E-3
3.85943E-3	154.029E-12	580.386E-3	-33.6345E-3	157.452E-12	612.225E-3	9.45408E-3
3.85443E-3	153.526E-12	573.462E-3	-15.7348E-3	156.093E-12	602.070E-3	26.1689E-3
3.84942E-3	152.674E-12	574.612E-3	-18.2126E-3	154.762E-12	572.347E-3	30.5463E-3
3.84442E-3	152.018E-12	558.929E-3	-36.4131E-3	153.493E-12	585.240E-3	9.40957E-3
3.83942E-3	151.801E-12	543.299E-3	-41.4730E-3	152.448E-12	609.500E-3	-24.1300E-3
3.83442E-3	150.975E-12	532.014E-3	-42.0298E-3	151.206E-12	605.425E-3	-26.4729E-3
3.82941E-3	152.235E-12	538.026E-3	-40.4175E-3	149.241E-12	586.672E-3	-11.7013E-6
3.82441E-3	152.612E-12	565.061E-3	-43.7381E-3	148.776E-12	577.407E-3	15.5424E-3
3.81941E-3	152.198E-12	607.805E-3	-38.5695E-3	148.481E-12	582.830E-3	20.5437E-3
3.81441E-3	152.770E-12	634.971E-3	-10.7487E-3	148.281E-12	584.514E-3	6.57878E-3
3.80940E-3	152.981E-12	620.230E-3	-10.0715E-3	148.495E-12	593.921E-3	-28.7066E-3
3.80440E-3	153.184E-12	588.843E-3	-38.7564E-3	150.171E-12	590.143E-3	-52.3602E-3
3.79940E-3	154.282E-12	566.546E-3	-52.0276E-3	151.346E-12	571.047E-3	-70.1246E-3
3.79440E-3	153.707E-12	559.611E-3	-50.9880E-3	150.946E-12	578.083E-3	-80.4901E-3
3.78939E-3	153.562E-12	565.848E-3	-42.4355E-3	153.891E-12	602.370E-3	-59.9371E-3
3.78439E-3	153.311E-12	571.519E-3	-28.9299E-3	155.622E-12	641.015E-3	-29.8957E-3
3.77939E-3	153.377E-12	583.808E-3	-493.033E-6	154.554E-12	655.859E-3	-16.9025E-3
3.77439E-3	151.942E-12	602.311E-3	18.7576E-3	156.173E-12	616.756E-3	-9.08442E-3
3.76938E-3	152.169E-12	602.627E-3	-21.2865E-3	156.296E-12	598.165E-3	5.90375E-3
3.76438E-3	150.135E-12	594.042E-3	-66.5414E-3	154.370E-12	608.596E-3	2.96183E-3
3.75938E-3	149.386E-12	577.927E-3	-52.0580E-3	153.900E-12	597.108E-3	-24.9429E-3
3.75438E-3	148.524E-12	559.251E-3	-16.1457E-3	153.311E-12	605.865E-3	-29.1667E-3
3.74937E-3	148.092E-12	580.592E-3	2.68291E-3	150.246E-12	630.414E-3	-2.92325E-3
3.74437E-3	146.748E-12	622.526E-3	-10.8071E-3	150.319E-12	606.564E-3	14.1003E-3
3.73937E-3	148.123E-12	625.949E-3	-29.3368E-3	148.992E-12	580.645E-3	17.3995E-3
3.73437E-3	149.180E-12	612.512E-3	-10.9737E-3	146.570E-12	589.724E-3	-2.58619E-3
3.72936E-3	149.053E-12	604.997E-3	-3.08349E-3	145.628E-12	583.573E-3	-35.0484E-3
3.72436E-3	149.826E-12	597.548E-3	-15.8767E-3	147.007E-12	568.747E-3	-30.2347E-3
3.71936E-3	150.302E-12	583.712E-3	-7.38715E-3	145.484E-12	586.598E-3	-18.8631E-3
3.71436E-3	150.330E-12	573.809E-3	-6.69779E-3	145.483E-12	601.711E-3	-27.4546E-3
3.70935E-3	150.534E-12	589.400E-3	-28.1995E-3	146.317E-12	603.357E-3	-31.5576E-3
3.70435E-3	150.381E-12	605.054E-3	-32.2304E-3	147.234E-12	617.164E-3	-31.8210E-3
3.69935E-3	149.532E-12	604.528E-3	-22.6574E-3	147.974E-12	625.497E-3	-34.6518E-3
3.69435E-3	149.100E-12	612.585E-3	-7.97676E-3	149.464E-12	621.302E-3	-26.6905E-3
3.68934E-3	148.980E-12	628.198E-3	515.093E-6	149.378E-12	632.575E-3	-18.7938E-3
3.68434E-3	148.200E-12	630.791E-3	-26.3443E-3	149.939E-12	631.973E-3	-20.4949E-3
3.67934E-3	147.059E-12	643.403E-3	-57.1350E-3	150.497E-12	599.462E-3	-13.6824E-3
3.67434E-3	146.333E-12	643.191E-3	-44.7801E-3	149.936E-12	604.387E-3	-11.6788E-3
3.66933E-3	146.178E-12	605.403E-3	-16.4556E-3	149.134E-12	628.815E-3	-17.8042E-3
3.66433E-3	144.744E-12	592.833E-3	-2.08883E-3	148.547E-12	620.421E-3	-16.7112E-3
3.65933E-3	143.969E-12	601.755E-3	13.3197E-3	147.257E-12	612.020E-3	-14.5195E-3
3.65433E-3	143.712E-12	580.042E-3	20.6680E-3	145.908E-12	616.035E-3	-24.2848E-3
3.64932E-3	144.288E-12	562.951E-3	10.2008E-3	144.738E-12	615.738E-3	-20.7811E-3
3.64432E-3	144.730E-12	582.386E-3	-8.49955E-3	143.804E-12	609.454E-3	2.62083E-3
3.63932E-3	144.731E-12	625.173E-3	-11.6775E-3	143.202E-12	600.345E-3	819.283E-6
3.63432E-3	144.945E-12	654.861E-3	-1.09721E-3	142.302E-12	584.887E-3	-6.70538E-3
3.62931E-3	145.688E-12	626.938E-3	-2.62616E-3	141.915E-12	591.780E-3	-10.7751E-3
3.62431E-3	145.586E-12	570.673E-3	-24.0930E-3	141.908E-12	613.626E-3	-40.2278E-3
3.61931E-3	145.483E-12	561.485E-3	-43.1547E-3	142.325E-12	610.862E-3	-43.5472E-3
3.61431E-3	145.486E-12	582.806E-3	-30.6978E-3	142.504E-12	612.986E-3	376.264E-6
3.60930E-3	144.812E-12	580.589E-3	-21.7009E-3	142.417E-12	615.109E-3	24.3356E-3
3.60430E-3	144.267E-12	599.150E-3	-37.3749E-3	143.645E-12	602.759E-3	6.70550E-3
3.59930E-3	143.998E-12	638.605E-3	-39.8737E-3	144.693E-12	619.197E-3	-13.5804E-3
3.59430E-3	143.463E-12	636.042E-3	-26.0295E-3	144.561E-12	622.200E-3	-20.4226E-3
3.58929E-3	142.636E-12	621.546E-3	-22.8001E-3	144.183E-12	587.157E-3	-15.5782E-3
3.58429E-3	142.249E-12	615.715E-3	-11.1253E-3	145.154E-12	586.298E-3	576.521E-6
3.57929E-3	141.474E-12	597.817E-3	3.05135E-3	145.530E-12	597.430E-3	-3.86826E-3
3.57429E-3	140.924E-12	588.528E-3	-16.9508E-3	144.155E-12	585.988E-3	-17.9528E-3
3.56928E-3	141.649E-12	602.533E-3	-31.6332E-3	143.512E-12	579.083E-3	-10.1239E-3
3.56428E-3	140.855E-12	612.220E-3	-21.6585E-3	143.541E-12	582.641E-3	-14.2863E-3
3.55928E-3	140.311E-12	600.616E-3	-17.4000E-3	142.001E-12	594.313E-3	-19.5339E-3
3.55428E-3	141.867E-12	602.649E-3	-10.9640E-3	141.333E-12	609.454E-3	-6.99709E-3
3.54927E-3	141.750E-12	616.921E-3	-4.43322E-3	142.397E-12	622.386E-3	-13.2519E-3
3.54427E-3	141.341E-12	595.987E-3	-22.6233E-3	140.837E-12	629.940E-3	-36.9804E-3
3.53927E-3	141.640E-12	596.182E-3	-30.2858E-3	139.497E-12	609.165E-3	-28.0341E-3
3.53427E-3	142.452E-12	630.762E-3	-9.33022E-3	140.256E-12	592.075E-3	9.04306E-3
3.52926E-3	142.233E-12	623.959E-3	-11.5078E-3	140.127E-12	593.873E-3	5.95524E-3
3.52426E-3	141.887E-12	582.853E-3	-40.6461E-3	139.604E-12	576.991E-3	-29.6336E-3
3.51926E-3	141.447E-12	552.190E-3	-49.0166E-3	140.173E-12	574.655E-3	-44.3038E-3
3.51426E-3	140.548E-12	576.105E-3	-50.9364E-3	139.521E-12	586.829E-3	-56.1399E-3
3.50925E-3	140.357E-12	617.870E-3	-47.4448E-3	139.166E-12	583.843E-3	-63.2054E-3
3.50425E-3	139.714E-12	609.595E-3	-15.3022E-3	139.927E-12	584.596E-3	-46.1955E-3
3.49925E-3	138.313E-12	587.600E-3	-4.99838E-3	139.704E-12	597.609E-3	-30.7675E-3
3.49425E-3	138.394E-12	592.884E-3	-38.5830E-3	140.094E-12	610.777E-3	-19.2181E-3
3.48924E-3	138.195E-12	610.730E-3	-53.7010E-3	139.898E-12	617.679E-3	-12.9820E-3
3.48424E-3	137.974E-12	614.159E-3	-45.2719E-3	139.963E-12	619.458E-3	-8.14126E-3
3.47924E-3	137.415E-12	596.674E-3	-48.9309E-3	139.531E-12	609.846E-3	-7.14205E-3
3.47424E-3	138.336E-12	576.873E-3	-49.6311E-3	139.445E-12	604.982E-3	-10.4242E-3
3.46923E-3	138.452E-12	570.916E-3	-38.8126E-3	138.808E-12	616.230E-3	1.61088E-3
3.46423E-3	138.864E-12	595.586E-3	-15.3100E-3	138.965E-12	620.173E-3	11.2650E-3
3.45923E-3	138.934E-12	621.645E-3	-7.98794E-3	138.618E-12	612.464E-3	12.3814E-3
3.45423E-3	138.467E-12	620.725E-3	-30.6961E-3	137.588E-12	591.589E-3	-19.3553E-3
3.44922E-3	138.481E-12	627.066E-3	-51.3525E-3	138.387E-12	583.030E-3	-57.7106E-3
3.44422E-3	139.487E-12	648.881E-3	-46.8982E-3	138.839E-12	601.376E-3	-44.4430E-3
3.43922E-3	138.250E-12	637.870E-3	-33.0922E-3	137.559E-12	611.102E-3	-40.8457E-3
3.43422E-3	137.184E-12	606.330E-3	-21.7615E-3	136.707E-12	603.262E-3	-57.3084E-3
3.42921E-3	137.107E-12	595.626E-3	-3.39577E-3	136.823E-12	591.427E-3	-41.8600E-3
3.42421E-3	137.630E-12	582.011E-3	4.54092E-3	136.381E-12	589.251E-3	-25.1429E-3
3.41921E-3	135.875E-12	578.957E-3	-19.3600E-3	134.886E-12	601.192E-3	-26.2994E-3
3.41421E-3	135.970E-12	597.783E-3	-45.6656E-3	134.949E-12	608.146E-3	-33.8807E-3
3.40920E-3	135.235E-12	599.270E-3	-36.0165E-3	135.598E-12	610.665E-3	-40.3402E-3
3.40420E-3	134.008E-12	583.214E-3	-12.6614E-3	134.697E-12	612.198E-3	-37.7617E-3
3.39920E-3	134.948E-12	582.423E-3	736.485E-6	133.274E-12	614.848E-3	-37.1086E-3
3.39420E-3	135.392E-12	601.327E-3	5.36144E-3	135.223E-12	617.261E-3	-40.1184E-3
3.38919E-3	135.085E-12	618.264E-3	3.35569E-3	135.030E-12	608.304E-3	-30.2069E-3
3.38419E-3	135.163E-12	632.240E-3	4.54703E-3	134.403E-12	612.186E-3	-359.001E-6
3.37919E-3	136.464E-12	639.708E-3	15.8659E-3	135.255E-12	621.183E-3	16.8462E-3
3.37419E-3	135.736E-12	626.583E-3	8.85132E-3	135.699E-12	621.251E-3	-2.69946E-3
3.36918E-3	135.420E-12	604.647E-3	-21.5460E-3	135.406E-12	636.109E-3	-20.5089E-3
3.36418E-3	136.117E-12	598.866E-3	-11.4383E-3	136.309E-12	659.137E-3	-9.82345E-3
3.35918E-3	135.314E-12	610.580E-3	2.03620E-3	136.076E-12	656.017E-3	7.54018E-3
3.35418E-3	134.882E-12	612.323E-3	-15.0207E-3	136.104E-12	621.375E-3	17.1414E-3
3.34917E-3	134.731E-12	596.928E-3	-11.8589E-3	136.689E-12	596.641E-3	229.292E-6
3.34417E-3	134.592E-12	594.496E-3	-4.76801E-3	135.352E-12	595.583E-3	-29.8530E-3
3.33917E-3	133.182E-12	635.406E-3	7.32561E-3	134.331E-12	600.006E-3	-25.1003E-3
3.33417E-3	132.794E-12	678.743E-3	23.3935E-3	133.757E-12	597.701E-3	-6.26963E-3
3.32916E-3	132.559E-12	658.018E-3	3.59882E-3	132.738E-12	597.986E-3	-148.690E-6
3.32416E-3	131.196E-12	614.205E-3	-33.4811E-3	131.432E-12	614.006E-3	-3.38248E-3
3.31916E-3	131.222E-12	606.511E-3	-38.3096E-3	130.439E-12	623.811E-3	-23.2279E-3
3.31416E-3	130.945E-12	601.056E-3	-23.3508E-3	129.975E-12	625.055E-3	-32.9713E-3
3.30915E-3	130.251E-12	597.942E-3	-29.8431E-3	129.640E-12	622.987E-3	-15.3997E-3
3.30415E-3	130.532E-12	609.141E-3	-43.1608E-3	129.283E-12	622.882E-3	-4.21335E-3
3.29915E-3	131.117E-12	606.985E-3	-45.3085E-3	129.487E-12	619.909E-3	-25.2689E-3
3.29415E-3	130.899E-12	607.781E-3	-51.6777E-3	129.109E-12	604.508E-3	-47.9619E-3
3.28914E-3	132.056E-12	618.181E-3	-39.4030E-3	128.915E-12	612.921E-3	-41.6062E-3
3.28414E-3	132.120E-12	618.071E-3	-2.12299E-3	129.571E-12	640.643E-3	-19.4516E-3
3.27914E-3	132.152E-12	605.599E-3	1.73043E-3	130.173E-12	641.359E-3	199.654E-6
3.27414E-3	131.914E-12	610.269E-3	-23.9830E-3	131.094E-12	627.322E-3	13.7228E-3
3.26913E-3	131.673E-12	630.575E-3	-26.9889E-3	131.487E-12	622.386E-3	14.2174E-3
3.26413E-3	131.085E-12	638.010E-3	-22.9073E-3	131.156E-12	602.771E-3	-6.75078E-3
3.25913E-3	131.407E-12	639.649E-3	-24.7797E-3	131.403E-12	574.897E-3	-14.0385E-3
3.25413E-3	129.853E-12	635.761E-3	-6.70694E-3	132.183E-12	581.869E-3	-8.79411E-3
3.24912E-3	129.284E-12	619.323E-3	4.43520E-3	131.206E-12	598.534E-3	-13.2045E-3
3.24412E-3	128.603E-12	605.050E-3	-6.88141E-3	131.038E-12	595.457E-3	-6.91516E-3
3.23912E-3	128.159E-12	595.432E-3	-7.69148E-3	131.314E-12	598.547E-3	-19.2692E-3
3.23412E-3	127.361E-12	592.332E-3	-8.52951E-3	129.633E-12	610.792E-3	-45.5225E-3
3.22911E-3	127.115E-12	599.528E-3	-25.1639E-3	128.648E-12	622.783E-3	-28.2194E-3
3.22411E-3	126.807E-12	601.110E-3	-36.6123E-3	128.206E-12	635.818E-3	-4.78178E-3
3.21911E-3	126.833E-12	588.659E-3	-34.4324E-3	127.201E-12	637.078E-3	-4.41071E-3
3.21411E-3	127.424E-12	577.130E-3	-13.3510E-3	126.054E-12	630.331E-3	-8.71690E-3
3.20910E-3	128.206E-12	589.706E-3	1.71566E-3	125.983E-12	635.478E-3	-21.3173E-3
3.20410E-3	127.697E-12	622.740E-3	-2.61863E-3	125.732E-12	627.500E-3	-29.6081E-3
3.19910E-3	128.472E-12	641.996E-3	-11.2213E-3	124.737E-12	599.328E-3	-37.6606E-3
3.19410E-3	129.083E-12	641.584E-3	-15.3773E-3	124.666E-12	589.405E-3	-39.3563E-3
3.18909E-3	128.798E-12	648.185E-3	-7.92077E-3	124.988E-12	604.843E-3	-26.5004E-3
3.18409E-3	128.884E-12	656.065E-3	-12.1926E-3	125.435E-12	609.566E-3	-10.1800E-3
3.17909E-3	128.260E-12	654.452E-3	-18.0629E-3	125.503E-12	606.400E-3	6.62248E-3
3.17409E-3	127.687E-12	646.911E-3	-17.0351E-3	125.822E-12	612.844E-3	1.62692E-3
3.16908E-3	127.168E-12	626.674E-3	-21.1341E-3	127.116E-12	618.976E-3	-22.0710E-3
3.16408E-3	126.723E-12	618.894E-3	-19.7290E-3	127.385E-12	631.174E-3	-27.3129E-3
3.15908E-3	125.335E-12	611.876E-3	-26.9394E-3	127.312E-12	636.828E-3	-1.69881E-3
3.15408E-3	124.251E-12	597.845E-3	-39.3996E-3	127.563E-12	619.678E-3	13.0174E-3
3.14907E-3	124.037E-12	602.808E-3	-22.6414E-3	127.605E-12	613.189E-3	-3.60300E-3
3.14407E-3	123.710E-12	610.865E-3	-599.601E-6	126.756E-12	626.092E-3	-14.2105E-3
3.13907E-3	123.251E-12	607.564E-3	-13.3857E-3	126.746E-12	635.246E-3	-17.5952E-3
3.13407E-3	123.080E-12	597.309E-3	-38.5679E-3	126.789E-12	636.736E-3	-36.0115E-3
3.12906E-3	123.276E-12	586.423E-3	-31.0843E-3	125.459E-12	620.489E-3	-47.1164E-3
3.12406E-3	123.395E-12	582.965E-3	-7.87762E-3	124.959E-12	608.041E-3	-28.6896E-3
3.11906E-3	123.729E-12	585.853E-3	319.702E-6	124.690E-12	601.834E-3	-3.41779E-3
3.11406E-3	124.615E-12	580.823E-3	-6.46817E-3	123.123E-12	593.563E-3	-9.23585E-3
3.10905E-3	124.648E-12	585.103E-3	-5.78197E-3	122.598E-12	595.547E-3	-19.5196E-3
3.10405E-3	124.528E-12	604.409E-3	17.6519E-3	122.417E-12	604.680E-3	-427.360E-6
3.09905E-3	124.408E-12	620.045E-3	15.8464E-3	122.125E-12	617.266E-3	6.55026E-3
3.09405E-3	123.958E-12	620.900E-3	-14.8212E-3	120.966E-12	606.152E-3	-1.60625E-3
3.08904E-3	123.165E-12	612.702E-3	-32.3280E-3	121.377E-12	592.448E-3	5.10906E-3
3.08404E-3	122.303E-12	609.152E-3	-36.4487E-3	120.981E-12	612.730E-3	17.7738E-3
3.07904E-3	122.608E-12	609.349E-3	-30.3411E-3	121.283E-12	640.364E-3	12.4281E-3
3.07404E-3	121.418E-12	618.795E-3	-24.3196E-3	121.922E-12	642.334E-3	-5.99465E-3
3.06903E-3	120.453E-12	625.122E-3	-13.9501E-3	121.681E-12	632.722E-3	-17.2579E-3
3.06403E-3	120.833E-12	623.562E-3	5.03986E-3	121.585E-12	645.761E-3	-22.8149E-3
3.05903E-3	120.658E-12	623.925E-3	9.33971E-3	122.931E-12	654.269E-3	-22.7923E-3
3.05403E-3	119.909E-12	622.337E-3	-4.48563E-3	122.550E-12	645.874E-3	-14.3964E-3
3.04902E-3	120.438E-12	618.744E-3	-25.5483E-3	122.319E-12	652.458E-3	-1.04517E-3
3.04402E-3	120.319E-12	610.031E-3	-28.9708E-3	122.451E-12	661.547E-3	-3.81123E-3
3.03902E-3	120.313E-12	598.209E-3	-18.0480E-3	122.261E-12	661.093E-3	-33.5037E-3
3.03402E-3	120.606E-12	598.745E-3	-9.59224E-3	121.821E-12	650.473E-3	-56.5169E-3
3.02901E-3	122.037E-12	604.987E-3	1.32406E-3	121.166E-12	622.535E-3	-48.9706E-3
3.02401E-3	121.331E-12	609.395E-3	-2.32239E-3	121.166E-12	604.238E-3	-27.4072E-3
3.01901E-3	121.514E-12	609.048E-3	-10.4934E-3	120.394E-12	601.442E-3	-13.4869E-3
3.01401E-3	122.101E-12	610.132E-3	-4.24616E-3	119.148E-12	601.903E-3	-13.8177E-3
3.00900E-3	121.615E-12	629.821E-3	13.1046E-3	118.508E-12	604.726E-3	-17.3111E-3
3.00400E-3	120.760E-12	651.608E-3	26.5696E-3	117.552E-12	607.162E-3	-8.98320E-3
2.99900E-3	120.361E-12	648.479E-3	-2.20294E-3	116.701E-12	611.037E-3	6.07983E-3
2.99400E-3	119.316E-12	628.417E-3	-48.2636E-3	116.880E-12	612.435E-3	3.94537E-3
2.98899E-3	118.601E-12	619.001E-3	-56.6193E-3	116.922E-12	615.080E-3	-24.4267E-3
2.98399E-3	118.567E-12	615.627E-3	-34.7140E-3	116.849E-12	619.229E-3	-35.8850E-3
2.97899E-3	116.769E-12	596.425E-3	-18.3994E-3	117.427E-12	630.524E-3	-18.5320E-3
2.97399E-3	116.378E-12	583.400E-3	-20.6687E-3	117.299E-12	634.163E-3	-3.17839E-3
2.96898E-3	116.716E-12	605.575E-3	-24.0304E-3	117.569E-12	626.960E-3	6.49377E-3
2.96398E-3	116.833E-12	633.561E-3	-5.60819E-3	118.078E-12	626.080E-3	-7.06505E-3
2.95898E-3	116.670E-12	644.516E-3	1.71423E-3	118.248E-12	625.443E-3	-27.6080E-3
2.95398E-3	117.254E-12	634.774E-3	-16.0628E-3	118.203E-12	630.328E-3	-12.6794E-3
2.94897E-3	117.046E-12	621.593E-3	-10.9539E-3	117.898E-12	640.881E-3	21.0513E-3
2.94397E-3	117.443E-12	619.420E-3	-2.61296E-3	117.342E-12	631.984E-3	15.1673E-3
2.93897E-3	117.886E-12	613.103E-3	-23.3121E-3	117.249E-12	621.081E-3	-23.7757E-3
2.93397E-3	117.715E-12	606.713E-3	-33.1098E-3	117.233E-12	633.646E-3	-45.6078E-3
2.92896E-3	118.252E-12	605.713E-3	-13.2968E-3	116.873E-12	628.627E-3	-38.7957E-3
2.92396E-3	117.307E-12	607.901E-3	-4.81723E-3	116.577E-12	618.857E-3	-14.1091E-3
2.91896E-3	116.374E-12	613.044E-3	-17.3418E-3	116.668E-12	630.494E-3	-6.80762E-3
2.91396E-3	116.181E-12	611.441E-3	-25.6637E-3	116.021E-12	631.031E-3	-25.5032E-3
2.90895E-3	115.562E-12	599.222E-3	-20.3150E-3	115.440E-12	630.578E-3	-30.2544E-3
2.90395E-3	114.109E-12	607.954E-3	-5.13108E-3	115.690E-12	648.365E-3	-3.54219E-3
2.89895E-3	113.315E-12	630.407E-3	-4.96242E-3	114.543E-12	641.026E-3	5.67674E-3
2.89395E-3	113.943E-12	628.538E-3	-13.0606E-3	114.314E-12	604.825E-3	-6.18532E-3
2.88894E-3	113.192E-12	619.781E-3	-6.32375E-3	115.052E-12	596.441E-3	1.64235E-3
2.88394E-3	112.722E-12	639.082E-3	-3.21077E-3	114.540E-12	615.310E-3	20.6396E-3
2.87894E-3	112.273E-12	668.007E-3	-3.88895E-3	113.740E-12	628.680E-3	31.6848E-3
2.87394E-3	112.783E-12	668.227E-3	7.12684E-3	114.491E-12	628.166E-3	31.8528E-3
2.86893E-3	113.135E-12	645.271E-3	14.1708E-3	113.852E-12	617.278E-3	10.7973E-3
2.86393E-3	113.129E-12	612.784E-3	1.26803E-3	113.090E-12	609.737E-3	-21.4430E-3
2.85893E-3	114.163E-12	611.708E-3	-3.64765E-3	112.984E-12	607.865E-3	-23.1506E-3
2.85393E-3	114.634E-12	628.534E-3	16.5737E-3	112.979E-12	610.769E-3	-6.55057E-3
2.84892E-3	114.480E-12	626.464E-3	9.58594E-3	112.841E-12	623.353E-3	11.6191E-3
2.84392E-3	114.757E-12	630.340E-3	-26.6680E-3	112.955E-12	635.396E-3	22.7917E-3
2.83892E-3	114.364E-12	633.900E-3	-25.6393E-3	112.899E-12	629.454E-3	-47.9480E-6
2.83392E-3	113.199E-12	634.820E-3	-3.85201E-3	111.829E-12	625.976E-3	-31.0451E-3
2.82891E-3	113.556E-12	649.967E-3	-943.439E-6	112.636E-12	641.367E-3	-42.7224E-3
2.82391E-3	112.700E-12	657.820E-3	-13.4951E-3	112.579E-12	635.187E-3	-36.2534E-3
2.81891E-3	111.593E-12	652.282E-3	-24.7335E-3	112.408E-12	618.735E-3	-19.3820E-3
2.81391E-3	110.618E-12	647.170E-3	-34.9740E-3	112.324E-12	624.972E-3	-19.3833E-3
2.80890E-3	110.622E-12	634.803E-3	-43.7698E-3	112.602E-12	626.878E-3	-42.9218E-3
2.80390E-3	110.318E-12	626.963E-3	-28.8085E-3	112.061E-12	622.412E-3	-48.7147E-3
2.79890E-3	109.796E-12	629.651E-3	-12.1000E-3	111.666E-12	631.741E-3	-30.2857E-3
2.79390E-3	109.263E-12	615.399E-3	-14.5304E-3	111.158E-12	633.797E-3	-23.1714E-3
2.78889E-3	109.439E-12	588.847E-3	-23.9117E-3	110.603E-12	606.575E-3	-36.8834E-3
2.78389E-3	109.560E-12	592.995E-3	-32.3304E-3	111.076E-12	590.766E-3	-34.6244E-3
2.77889E-3	110.540E-12	620.375E-3	-26.5747E-3	109.717E-12	610.588E-3	-4.98288E-3
2.77389E-3	110.421E-12	633.856E-3	-3.62933E-3	109.413E-12	625.577E-3	2.79028E-3
2.76888E-3	110.749E-12	642.874E-3	9.27013E-3	109.550E-12	630.896E-3	-6.66957E-3
2.76388E-3	111.209E-12	652.648E-3	-3.10052E-3	108.552E-12	642.205E-3	-19.2193E-3
2.75888E-3	110.841E-12	651.241E-3	-22.7006E-3	107.095E-12	641.245E-3	-28.5029E-3
2.75388E-3	110.583E-12	631.584E-3	-36.1424E-3	107.232E-12	628.631E-3	-22.9410E-3
2.74887E-3	110.427E-12	608.642E-3	-26.0673E-3	107.302E-12	626.138E-3	-18.0743E-3
2.74387E-3	109.374E-12	604.118E-3	-5.86420E-3	107.588E-12	632.891E-3	-20.0474E-3
2.73887E-3	108.372E-12	611.646E-3	-9.27121E-3	107.094E-12	637.196E-3	-23.6496E-3
2.73387E-3	107.996E-12	619.245E-3	-10.0773E-3	107.491E-12	649.762E-3	-26.6578E-3
2.72886E-3	107.224E-12	623.738E-3	5.12373E-3	107.791E-12	655.462E-3	-34.3944E-3
2.72386E-3	106.052E-12	626.266E-3	-7.12317E-3	107.990E-12	635.486E-3	-28.9848E-3
2.71886E-3	105.866E-12	633.566E-3	-34.0091E-3	107.818E-12	614.654E-3	-28.2526E-3
2.71386E-3	106.556E-12	626.303E-3	-32.0562E-3	108.312E-12	622.148E-3	-44.0905E-3
2.70885E-3	105.265E-12	601.146E-3	-17.8948E-3	107.970E-12	649.519E-3	-39.7581E-3
2.70385E-3	105.414E-12	604.535E-3	-11.0785E-3	107.643E-12	662.744E-3	-20.5290E-3
2.69885E-3	106.230E-12	625.415E-3	-1.64208E-3	107.049E-12	651.407E-3	-6.84082E-3
2.69385E-3	106.583E-12	627.333E-3	6.57990E-3	107.170E-12	627.098E-3	-1.08267E-3
2.68884E-3	106.260E-12	623.039E-3	4.54449E-3	105.951E-12	611.131E-3	-7.05680E-3
2.68384E-3	107.094E-12	628.034E-3	-2.04508E-3	105.041E-12	615.930E-3	-22.9795E-3
2.67884E-3	106.560E-12	633.563E-3	-12.6170E-3	104.388E-12	633.144E-3	-27.7569E-3
2.67384E-3	107.168E-12	640.610E-3	-12.9312E-3	104.029E-12	642.018E-3	-18.4158E-3
2.66883E-3	106.460E-12	652.007E-3	-243.321E-6	102.777E-12	628.226E-3	-11.2488E-3
2.66383E-3	106.572E-12	646.539E-3	-329.738E-6	103.072E-12	610.223E-3	-13.8974E-3
2.65883E-3	105.414E-12	639.308E-3	-10.7457E-3	102.478E-12	615.670E-3	-21.2340E-3
2.65383E-3	104.886E-12	642.383E-3	-16.0521E-3	102.936E-12	625.932E-3	-22.0257E-3
2.64882E-3	104.089E-12	643.132E-3	-32.9022E-3	102.930E-12	618.682E-3	-19.3924E-3
2.64382E-3	103.873E-12	640.586E-3	-52.0748E-3	103.516E-12	625.088E-3	-18.1248E-3
2.63882E-3	103.252E-12	629.398E-3	-42.6314E-3	103.872E-12	652.116E-3	-22.3766E-3
2.63382E-3	102.587E-12	615.883E-3	-28.1300E-3	104.916E-12	667.672E-3	-28.3730E-3
2.62881E-3	102.685E-12	618.655E-3	-25.3338E-3	104.715E-12	662.804E-3	-34.7240E-3
2.62381E-3	102.566E-12	637.675E-3	-20.6178E-3	104.821E-12	635.057E-3	-39.6556E-3
2.61881E-3	102.446E-12	657.105E-3	-24.7871E-3	105.466E-12	608.256E-3	-30.4313E-3
2.61381E-3	102.484E-12	670.426E-3	-35.2186E-3	104.952E-12	622.329E-3	-20.3221E-3
2.60880E-3	102.747E-12	661.062E-3	-29.8407E-3	104.038E-12	650.485E-3	-25.7757E-3
2.60380E-3	103.228E-12	624.628E-3	-17.1411E-3	103.480E-12	646.254E-3	-37.5972E-3
2.59880E-3	103.773E-12	605.523E-3	-25.6924E-3	103.256E-12	637.113E-3	-35.8954E-3
2.59380E-3	104.368E-12	615.474E-3	-49.3272E-3	101.809E-12	640.373E-3	-28.7689E-3
2.58879E-3	103.430E-12	629.817E-3	-55.0817E-3	100.834E-12	632.838E-3	-29.7489E-3
2.58379E-3	103.179E-12	638.550E-3	-34.2845E-3	100.989E-12	624.368E-3	-26.4504E-3
2.57879E-3	103.128E-12	644.039E-3	-15.7003E-3	100.099E-12	618.468E-3	-28.8240E-3
2.57379E-3	102.714E-12	654.377E-3	-20.9594E-3	99.8828E-12	621.920E-3	-21.8504E-3
2.56878E-3	101.374E-12	668.496E-3	-31.5081E-3	99.7459E-12	648.932E-3	874.137E-6
2.56378E-3	100.780E-12	680.462E-3	-28.7722E-3	99.5290E-12	662.944E-3	6.13181E-3
2.55878E-3	99.9950E-12	677.559E-3	-18.3695E-3	99.9328E-12	645.980E-3	12.2854E-3
2.55378E-3	99.0312E-12	658.351E-3	-11.7695E-3	100.370E-12	642.197E-3	28.4305E-3
2.54877E-3	98.8613E-12	628.116E-3	-24.5640E-3	100.557E-12	667.765E-3	21.3633E-3
2.54377E-3	98.6449E-12	604.281E-3	-42.0847E-3	101.176E-12	677.384E-3	-5.03192E-3
2.53877E-3	98.0840E-12	609.111E-3	-30.3271E-3	101.070E-12	661.540E-3	-9.14024E-3
2.53377E-3	98.4528E-12	612.774E-3	-3.86528E-3	101.248E-12	643.419E-3	6.03631E-3
2.52876E-3	99.7072E-12	592.463E-3	-2.77641E-3	101.144E-12	630.923E-3	-4.04011E-3
2.52376E-3	98.8025E-12	585.340E-3	-18.8755E-3	100.904E-12	638.183E-3	-25.5666E-3
2.51876E-3	98.7071E-12	605.223E-3	-21.6957E-3	99.9063E-12	655.324E-3	-30.0840E-3
2.51376E-3	100.185E-12	611.741E-3	-25.1882E-3	99.6419E-12	647.159E-3	-30.3905E-3
2.50875E-3	100.149E-12	604.827E-3	-33.2401E-3	98.8574E-12	623.880E-3	-24.8906E-3
2.50375E-3	98.9408E-12	607.358E-3	-21.3957E-3	98.2000E-12	629.041E-3	-21.0709E-3
2.49875E-3	99.9473E-12	631.264E-3	-4.91084E-3	97.7429E-12	633.097E-3	-20.5380E-3
2.49375E-3	98.9895E-12	645.749E-3	-9.33615E-3	97.7740E-12	620.016E-3	-12.6974E-3
2.48874E-3	98.7032E-12	632.883E-3	-20.8176E-3	96.0118E-12	627.489E-3	-15.4148E-3
2.48374E-3	97.8961E-12	638.734E-3	-28.7522E-3	96.0458E-12	623.644E-3	-38.1921E-3
2.47874E-3	97.5201E-12	662.708E-3	-31.4146E-3	96.1515E-12	606.791E-3	-51.7716E-3
2.47374E-3	96.6513E-12	672.174E-3	-32.2711E-3	95.7082E-12	618.352E-3	-37.0402E-3
2.46873E-3	95.7049E-12	661.551E-3	-23.2024E-3	96.1448E-12	643.103E-3	-22.1872E-3
2.46373E-3	95.5422E-12	644.298E-3	-3.98794E-3	96.4884E-12	643.088E-3	-14.1877E-3
2.45873E-3	95.0352E-12	632.905E-3	9.04631E-3	96.2022E-12	630.302E-3	-7.94710E-3
2.45373E-3	94.8704E-12	621.929E-3	6.02045E-3	96.4019E-12	639.719E-3	-10.7929E-3
2.44872E-3	94.5627E-12	617.257E-3	-11.0586E-3	96.7516E-12	647.226E-3	-12.4472E-3
2.44372E-3	94.5345E-12	633.308E-3	-19.9623E-3	96.4515E-12	644.291E-3	4.74383E-3
2.43872E-3	95.1771E-12	638.294E-3	-12.4798E-3	96.4587E-12	643.531E-3	15.3574E-3
2.43372E-3	94.8470E-12	629.725E-3	-3.40409E-3	96.1911E-12	635.604E-3	2.75548E-3
2.42871E-3	94.9788E-12	622.157E-3	-9.75630E-3	95.3665E-12	622.406E-3	-9.04667E-3
2.42371E-3	95.8369E-12	612.925E-3	-4.26687E-3	95.0913E-12	610.896E-3	-27.7936E-3
2.41871E-3	96.2486E-12	625.003E-3	11.7448E-3	94.9678E-12	603.291E-3	-33.3215E-3
2.41371E-3	95.9616E-12	647.042E-3	1.84541E-3	94.2471E-12	608.269E-3	-13.3668E-3
2.40870E-3	95.6752E-12	647.561E-3	-18.1874E-3	93.1621E-12	611.454E-3	-8.55448E-3
2.40370E-3	96.0085E-12	643.891E-3	-28.9881E-3	93.3281E-12	606.472E-3	-11.1378E-3
2.39870E-3	95.2510E-12	653.820E-3	-31.3121E-3	92.9451E-12	611.282E-3	-15.0083E-3
2.39370E-3	93.9187E-12	657.373E-3	-28.1461E-3	92.6591E-12	618.610E-3	-20.8910E-3
2.38869E-3	94.7275E-12	650.084E-3	-27.4283E-3	92.7660E-12	622.213E-3	-12.2386E-3
2.38369E-3	93.0464E-12	648.064E-3	-22.6429E-3	92.7845E-12	633.957E-3	-11.5875E-3
2.37869E-3	91.7702E-12	646.090E-3	-8.81317E-3	92.6107E-12	662.302E-3	-26.0008E-3
2.37369E-3	92.4551E-12	629.505E-3	-11.2048E-3	92.4178E-12	674.967E-3	-32.5702E-3
2.36868E-3	92.0936E-12	624.003E-3	-34.1793E-3	93.3492E-12	644.800E-3	-6.99541E-3
2.36368E-3	90.8267E-12	637.235E-3	-38.8405E-3	93.3744E-12	616.080E-3	27.8434E-3
2.35868E-3	91.5896E-12	640.522E-3	-31.0609E-3	92.1451E-12	622.161E-3	24.7671E-3
2.35368E-3	91.6111E-12	635.540E-3	-34.1059E-3	92.3915E-12	643.468E-3	4.18943E-3
2.34867E-3	91.8438E-12	632.183E-3	-27.5499E-3	92.1402E-12	665.877E-3	1.80811E-3
2.34367E-3	92.0449E-12	631.753E-3	-18.2725E-3	90.9696E-12	665.573E-3	15.6857E-3
2.33867E-3	91.8953E-12	632.300E-3	-12.9862E-3	90.6853E-12	652.382E-3	7.78963E-3
2.33367E-3	91.8894E-12	640.439E-3	-3.87223E-3	90.8950E-12	650.104E-3	-32.1646E-3
2.32866E-3	92.1179E-12	645.093E-3	-7.85553E-3	90.1811E-12	643.850E-3	-56.8319E-3
2.32366E-3	92.2805E-12	648.680E-3	-32.5075E-3	89.8347E-12	644.293E-3	-48.7435E-3
2.31866E-3	91.3140E-12	664.484E-3	-45.2870E-3	90.0916E-12	662.983E-3	-35.5525E-3
2.31366E-3	91.0981E-12	657.086E-3	-27.2726E-3	89.8194E-12	662.838E-3	-40.8741E-3
2.30865E-3	90.9240E-12	650.135E-3	-16.3416E-3	89.8679E-12	638.332E-3	-53.2876E-3
2.30365E-3	90.2290E-12	677.807E-3	-24.9381E-3	89.8167E-12	641.727E-3	-42.6615E-3
2.29865E-3	88.9241E-12	681.225E-3	-26.0366E-3	89.8606E-12	670.181E-3	-29.2447E-3
2.29365E-3	88.6817E-12	651.139E-3	-31.3083E-3	89.9744E-12	677.838E-3	-29.1618E-3
2.28864E-3	88.2574E-12	632.185E-3	-45.0464E-3	90.4756E-12	662.867E-3	-27.0017E-3
2.28364E-3	87.9392E-12	624.440E-3	-25.4451E-3	90.1248E-12	652.927E-3	-26.9805E-3
2.27864E-3	87.5973E-12	615.679E-3	-8.52958E-3	89.4527E-12	632.352E-3	-22.4230E-3
2.27364E-3	87.5549E-12	611.338E-3	-21.4966E-3	90.0548E-12	617.874E-3	-24.4537E-3
2.26863E-3	88.1800E-12	614.062E-3	-18.0847E-3	89.3271E-12	648.957E-3	-38.9098E-3
2.26363E-3	87.7291E-12	632.912E-3	-7.45416E-3	88.6094E-12	665.686E-3	-41.3158E-3
2.25863E-3	87.7661E-12	661.820E-3	-13.0284E-3	88.3385E-12	640.163E-3	-17.4833E-3
2.25363E-3	88.5237E-12	667.456E-3	-13.9805E-3	87.2023E-12	616.103E-3	4.18424E-3
2.24862E-3	88.1804E-12	652.634E-3	-5.72546E-3	86.1691E-12	607.911E-3	-14.2291E-3
2.24362E-3	87.8579E-12	651.080E-3	-14.3568E-3	85.8239E-12	619.891E-3	-32.1785E-3
2.23862E-3	88.6653E-12	666.561E-3	-24.5288E-3	85.4163E-12	647.695E-3	-27.1215E-3
2.23362E-3	88.4832E-12	676.865E-3	-21.4605E-3	85.2085E-12	662.547E-3	-22.3712E-3
2.22861E-3	87.3635E-12	679.272E-3	-17.6390E-3	85.4962E-12	657.531E-3	-14.8161E-3
2.22361E-3	87.1017E-12	675.708E-3	-7.06306E-3	85.3648E-12	650.717E-3	-12.0408E-3
2.21861E-3	87.2681E-12	661.570E-3	3.01709E-6	86.0812E-12	654.547E-3	-21.9487E-3
2.21361E-3	86.3050E-12	662.968E-3	-12.7647E-3	86.1784E-12	659.636E-3	-26.0584E-3
2.20860E-3	85.3066E-12	675.618E-3	-21.0616E-3	86.2162E-12	669.630E-3	-25.3906E-3
2.20360E-3	85.2038E-12	675.148E-3	-22.0619E-3	86.7989E-12	680.916E-3	-31.1492E-3
2.19860E-3	84.4700E-12	667.018E-3	-18.9615E-3	86.9024E-12	684.005E-3	-31.5249E-3
2.19360E-3	84.5153E-12	662.774E-3	-3.72519E-3	86.5507E-12	689.677E-3	-23.2579E-3
2.18859E-3	84.3144E-12	651.446E-3	-7.47280E-3	86.3225E-12	689.131E-3	-29.3170E-3
2.18359E-3	84.2215E-12	632.029E-3	-31.3883E-3	86.3502E-12	678.806E-3	-31.9115E-3
2.17859E-3	83.8405E-12	623.352E-3	-47.0062E-3	85.0951E-12	675.339E-3	-20.0024E-3
2.17359E-3	84.6710E-12	627.618E-3	-41.9936E-3	84.6175E-12	680.133E-3	-23.0262E-3
2.16858E-3	84.5824E-12	647.186E-3	-36.5956E-3	83.6310E-12	669.497E-3	-35.5992E-3
2.16358E-3	83.9758E-12	665.069E-3	-34.5464E-3	83.1502E-12	650.417E-3	-35.1401E-3
2.15858E-3	84.0851E-12	666.339E-3	-21.0974E-3	81.7966E-12	652.710E-3	-26.9613E-3
2.15358E-3	83.8833E-12	656.866E-3	-14.8933E-3	81.3628E-12	656.821E-3	-22.2234E-3
2.14857E-3	83.5206E-12	656.831E-3	-11.8974E-3	80.8515E-12	654.943E-3	-7.04897E-3
2.14357E-3	83.3332E-12	658.332E-3	-1.66284E-3	80.7489E-12	656.344E-3	-2.26903E-3
2.13857E-3	82.7382E-12	661.178E-3	-89.3382E-6	80.0841E-12	660.227E-3	-9.55124E-3
2.13357E-3	81.9246E-12	674.597E-3	-7.60137E-3	80.8581E-12	673.039E-3	-3.35318E-3
2.12856E-3	82.1378E-12	674.363E-3	-15.1921E-3	81.3003E-12	671.923E-3	-14.4130E-3
2.12356E-3	81.3011E-12	668.877E-3	-28.7414E-3	81.8158E-12	658.550E-3	-34.8030E-3
2.11856E-3	80.6393E-12	666.770E-3	-32.5937E-3	82.1243E-12	668.825E-3	-23.0008E-3
2.11356E-3	80.7496E-12	659.385E-3	-22.0099E-3	82.8901E-12	697.256E-3	-9.49784E-3
2.10855E-3	80.8795E-12	659.947E-3	-14.4160E-3	82.6887E-12	706.169E-3	-22.2850E-3
2.10355E-3	79.8710E-12	668.989E-3	-16.0536E-3	82.4910E-12	690.832E-3	-23.7469E-3
2.09855E-3	80.3643E-12	669.278E-3	-20.7529E-3	82.9601E-12	675.118E-3	-20.5238E-3
2.09355E-3	81.0478E-12	665.589E-3	-19.0121E-3	82.4231E-12	651.666E-3	-39.5758E-3
2.08854E-3	80.5936E-12	661.073E-3	-2.71375E-3	81.6823E-12	652.218E-3	-40.2434E-3
2.08354E-3	80.3630E-12	652.646E-3	15.8002E-3	81.5655E-12	681.570E-3	-21.6883E-3
2.07854E-3	81.1952E-12	652.995E-3	12.1325E-3	80.6350E-12	675.820E-3	-16.7612E-3
2.07354E-3	80.4257E-12	665.749E-3	861.808E-6	79.8581E-12	646.626E-3	-14.9011E-3
2.06853E-3	80.6397E-12	677.722E-3	5.01289E-3	79.0960E-12	640.518E-3	-13.4603E-3
2.06353E-3	80.1429E-12	690.203E-3	4.13472E-3	77.9436E-12	650.708E-3	-20.7241E-3
2.05853E-3	79.2761E-12	701.559E-3	-11.0626E-3	77.1900E-12	657.019E-3	-20.4729E-3
2.05353E-3	78.7818E-12	687.811E-3	-17.6949E-3	77.2648E-12	664.152E-3	-5.24755E-3
2.04852E-3	78.6389E-12	662.545E-3	-21.4862E-3	76.5741E-12	657.061E-3	4.87957E-3
2.04352E-3	77.8383E-12	659.769E-3	-29.7256E-3	76.5041E-12	647.322E-3	8.07044E-3
2.03852E-3	77.0065E-12	668.229E-3	-22.6773E-3	77.3437E-12	654.815E-3	2.18677E-3
2.03352E-3	76.9507E-12	666.509E-3	-9.20926E-3	77.4020E-12	661.442E-3	-16.9119E-3
2.02851E-3	77.1771E-12	660.010E-3	-13.4707E-3	77.9543E-12	661.302E-3	-22.6030E-3
2.02351E-3	76.5981E-12	661.560E-3	-14.9050E-3	78.5395E-12	673.092E-3	-8.71499E-3
2.01851E-3	76.4332E-12	667.394E-3	-12.9302E-3	77.9871E-12	692.061E-3	-14.4265E-3
2.01351E-3	76.6500E-12	666.581E-3	-16.6853E-3	78.1129E-12	691.875E-3	-23.5801E-3
2.00850E-3	76.7275E-12	671.930E-3	-4.46429E-3	78.4965E-12	684.379E-3	-18.5992E-3
2.00350E-3	77.1602E-12	686.017E-3	-96.9933E-6	78.1359E-12	675.756E-3	-17.3386E-3
1.99850E-3	76.9641E-12	681.770E-3	-15.8774E-3	77.5007E-12	667.273E-3	-1.72675E-3
1.99350E-3	76.8399E-12	669.695E-3	-23.4355E-3	77.2550E-12	677.767E-3	9.74969E-3
1.98849E-3	77.3176E-12	671.104E-3	-25.1420E-3	76.7563E-12	698.082E-3	-7.62560E-3
1.98349E-3	77.0466E-12	688.652E-3	-27.7092E-3	75.9190E-12	705.799E-3	-24.8013E-3
1.97849E-3	76.4401E-12	700.273E-3	-12.8201E-3	75.5249E-12	697.258E-3	-28.9561E-3
1.97349E-3	76.6259E-12	686.839E-3	-7.66607E-3	74.5342E-12	680.579E-3	-27.0100E-3
1.96848E-3	75.3107E-12	677.385E-3	-24.0365E-3	74.1424E-12	666.005E-3	-20.8626E-3
1.96348E-3	75.0647E-12	685.603E-3	-18.7890E-3	74.1763E-12	677.045E-3	-16.1237E-3
1.95848E-3	75.0703E-12	690.673E-3	-1.31214E-3	73.8290E-12	694.876E-3	-18.4878E-3
1.95348E-3	73.6903E-12	693.220E-3	-13.1792E-3	73.6019E-12	679.511E-3	-20.7234E-3
1.94847E-3	73.0418E-12	704.874E-3	-39.2379E-3	73.3651E-12	672.637E-3	-15.3005E-3
1.94347E-3	73.2915E-12	710.815E-3	-47.1348E-3	73.3573E-12	697.697E-3	-15.1051E-3
1.93847E-3	72.7493E-12	696.904E-3	-55.1578E-3	73.7198E-12	703.609E-3	-18.1247E-3
1.93347E-3	71.6644E-12	679.103E-3	-55.0025E-3	73.5771E-12	695.099E-3	-15.2993E-3
1.92846E-3	72.0733E-12	681.208E-3	-39.0782E-3	73.5591E-12	699.530E-3	-11.4945E-3
1.92346E-3	72.9257E-12	690.106E-3	-35.2665E-3	73.6110E-12	706.937E-3	-7.31333E-3
1.91846E-3	72.5594E-12	688.628E-3	-24.8488E-3	72.7900E-12	700.730E-3	-1.20313E-3
1.91346E-3	72.7454E-12	684.841E-3	1.80969E-3	72.8172E-12	687.924E-3	-4.23255E-3
1.90845E-3	72.8182E-12	697.883E-3	-308.384E-6	72.2846E-12	694.981E-3	-4.46715E-3
1.90345E-3	72.7555E-12	711.861E-3	-13.3440E-3	71.6140E-12	706.708E-3	5.91199E-3
1.89845E-3	72.7114E-12	704.819E-3	-5.43322E-3	71.6844E-12	708.002E-3	-2.31988E-3
1.89345E-3	73.1242E-12	699.972E-3	-9.63716E-3	71.4956E-12	706.533E-3	-13.5485E-3
1.88844E-3	72.4515E-12	715.226E-3	-24.9287E-3	70.8530E-12	705.086E-3	-16.7904E-3
1.88344E-3	71.7619E-12	728.518E-3	-23.8923E-3	70.9114E-12	706.843E-3	-26.2177E-3
1.87844E-3	71.1122E-12	723.985E-3	-12.6741E-3	71.0786E-12	711.204E-3	-23.1426E-3
1.87344E-3	70.6860E-12	719.807E-3	-6.68573E-3	70.2885E-12	706.127E-3	-14.8199E-3
1.86843E-3	70.1295E-12	710.922E-3	-2.31357E-3	70.7550E-12	702.670E-3	-23.1746E-3
1.86343E-3	69.1331E-12	699.448E-3	-5.07715E-3	71.2456E-12	699.675E-3	-41.9681E-3
1.85843E-3	68.3812E-12	705.931E-3	-18.8703E-3	70.3568E-12	690.746E-3	-46.9603E-3
1.85343E-3	68.4050E-12	709.449E-3	-28.3616E-3	70.1931E-12	702.048E-3	-31.2497E-3
1.84842E-3	68.2499E-12	701.039E-3	-33.3746E-3	70.0806E-12	712.109E-3	-28.6668E-3
1.84342E-3	67.4878E-12	715.319E-3	-31.4438E-3	69.4213E-12	698.090E-3	-44.5026E-3
1.83842E-3	67.5989E-12	724.531E-3	-19.9518E-3	69.0177E-12	700.336E-3	-54.8951E-3
1.83342E-3	67.6452E-12	702.808E-3	-9.35282E-3	69.2337E-12	719.297E-3	-60.6093E-3
1.82841E-3	67.7986E-12	695.744E-3	-10.0323E-3	68.2151E-12	709.672E-3	-42.5376E-3
1.82341E-3	67.8105E-12	711.594E-3	-16.8755E-3	67.0024E-12	690.448E-3	-12.9713E-3
1.81841E-3	68.5244E-12	717.754E-3	-18.2610E-3	66.8381E-12	694.239E-3	-13.1243E-3
1.81341E-3	68.2589E-12	716.183E-3	-14.6891E-3	66.1603E-12	701.352E-3	-22.0961E-3
1.80840E-3	67.8716E-12	722.064E-3	-9.99478E-3	65.6226E-12	718.197E-3	-24.3106E-3
1.80340E-3	68.0470E-12	725.471E-3	-6.73549E-3	66.0311E-12	733.436E-3	-15.8060E-3
1.79840E-3	67.8143E-12	729.604E-3	-11.0437E-3	65.9955E-12	728.204E-3	-6.16996E-3
1.79340E-3	67.1340E-12	738.433E-3	-17.1632E-3	65.7438E-12	727.314E-3	-21.2458E-3
1.78839E-3	67.1175E-12	735.372E-3	-15.3536E-3	65.7626E-12	714.406E-3	-37.9157E-3
1.78339E-3	67.0481E-12	728.694E-3	-9.16820E-3	66.2464E-12	701.444E-3	-36.8300E-3
1.77839E-3	66.2577E-12	735.633E-3	-11.6905E-3	66.7655E-12	717.499E-3	-28.3246E-3
1.77339E-3	65.8625E-12	730.856E-3	-9.15540E-3	66.6534E-12	734.960E-3	-17.1001E-3
1.76838E-3	65.2671E-12	716.155E-3	-6.74625E-3	66.9051E-12	742.018E-3	-9.61091E-3
1.76338E-3	65.2129E-12	721.200E-3	-26.7875E-3	67.0082E-12	747.340E-3	-11.7391E-3
1.75838E-3	64.7277E-12	730.355E-3	-33.0499E-3	66.8391E-12	747.385E-3	-13.3343E-3
1.75338E-3	63.9456E-12	723.623E-3	-29.2328E-3	66.2720E-12	742.128E-3	-4.55430E-3
1.74837E-3	64.1645E-12	733.860E-3	-24.4062E-3	65.7402E-12	737.353E-3	-2.59629E-3
1.74337E-3	63.7859E-12	763.038E-3	-9.02955E-3	64.5904E-12	738.284E-3	-24.6558E-3
1.73837E-3	63.6639E-12	757.679E-3	-21.9013E-3	63.5934E-12	732.984E-3	-44.7928E-3
1.73337E-3	63.9182E-12	744.602E-3	-38.0980E-3	62.8672E-12	722.620E-3	-31.4069E-3
1.72836E-3	63.8263E-12	755.759E-3	-15.9732E-3	61.9925E-12	731.879E-3	-7.47099E-3
1.72336E-3	63.1694E-12	752.805E-3	-60.7302E-6	61.0728E-12	741.077E-3	-14.4096E-3
1.71836E-3	63.7170E-12	749.810E-3	-2.13552E-3	60.5730E-12	734.264E-3	-33.3707E-3
1.71336E-3	63.2845E-12	759.707E-3	796.657E-6	60.4656E-12	740.426E-3	-23.1365E-3
1.70835E-3	62.1653E-12	755.877E-3	4.55779E-3	60.5100E-12	762.463E-3	-4.35523E-3
1.70335E-3	62.6667E-12	740.827E-3	2.72407E-3	60.9096E-12	778.525E-3	1.20309E-3
1.69835E-3	62.2723E-12	737.813E-3	-4.17841E-3	61.0676E-12	782.876E-3	-1.76462E-3
1.69335E-3	61.3202E-12	747.002E-3	-5.88945E-3	61.5550E-12	782.578E-3	-4.16007E-3
1.68834E-3	61.6487E-12	745.876E-3	-6.83730E-3	62.1584E-12	790.480E-3	192.862E-6
1.68334E-3	61.2292E-12	748.326E-3	-12.0609E-3	62.7122E-12	815.513E-3	538.156E-6
1.67834E-3	60.4170E-12	763.032E-3	-10.4975E-3	62.6171E-12	829.914E-3	-10.8218E-3
1.67334E-3	60.7117E-12	766.652E-3	-7.03456E-3	62.8597E-12	804.341E-3	-13.3252E-3
1.66833E-3	60.8039E-12	764.579E-3	-15.2920E-3	62.9637E-12	781.819E-3	-8.63905E-3
1.66333E-3	60.4003E-12	770.699E-3	-23.3416E-3	62.2966E-12	788.644E-3	-19.6284E-3
1.65833E-3	60.0596E-12	778.960E-3	-25.6304E-3	61.7366E-12	794.316E-3	-26.3188E-3
1.65333E-3	60.0905E-12	785.132E-3	-25.1466E-3	61.1736E-12	795.609E-3	-24.2048E-3
1.64832E-3	59.7227E-12	791.595E-3	-17.9546E-3	59.7345E-12	793.146E-3	-27.1083E-3
1.64332E-3	59.5803E-12	797.796E-3	-17.3136E-3	59.1259E-12	779.369E-3	-23.4371E-3
1.63832E-3	59.2532E-12	805.472E-3	-18.9519E-3	58.2320E-12	771.056E-3	-6.92607E-3
1.63332E-3	58.6102E-12	812.180E-3	-24.9673E-3	57.5428E-12	773.366E-3	9.80231E-3
1.62831E-3	58.6497E-12	809.047E-3	-36.0595E-3	57.1808E-12	773.941E-3	12.7937E-3
1.62331E-3	58.3923E-12	805.314E-3	-26.0143E-3	56.4237E-12	776.281E-3	2.80886E-3
1.61831E-3	57.2915E-12	807.838E-3	-5.40884E-3	56.1161E-12	783.256E-3	-6.47098E-3
1.61331E-3	57.0584E-12	815.689E-3	-8.43507E-3	56.5433E-12	792.430E-3	-11.3232E-3
1.60830E-3	56.9375E-12	819.397E-3	-26.3146E-3	56.5566E-12	807.800E-3	-20.0153E-3
1.60330E-3	56.3088E-12	817.522E-3	-22.9503E-3	57.0825E-12	827.141E-3	-35.6107E-3
1.59830E-3	56.1217E-12	811.741E-3	-17.0959E-3	57.6055E-12	834.461E-3	-43.6174E-3
1.59330E-3	55.9759E-12	804.776E-3	-19.4494E-3	57.4894E-12	833.320E-3	-32.5677E-3
1.58829E-3	55.6629E-12	808.083E-3	-20.1553E-3	57.5266E-12	840.489E-3	-18.0734E-3
1.58329E-3	55.8019E-12	815.709E-3	-31.7273E-3	57.6282E-12	840.319E-3	-12.1710E-3
1.57829E-3	55.7200E-12	819.472E-3	-39.8434E-3	57.3531E-12	830.648E-3	-13.7870E-3
1.57329E-3	55.4625E-12	811.520E-3	-31.0296E-3	56.8980E-12	832.619E-3	-9.99972E-3
1.56828E-3	55.4098E-12	807.064E-3	-18.5997E-3	56.3780E-12	822.353E-3	5.68795E-3
1.56328E-3	55.6441E-12	829.673E-3	-20.2818E-3	55.7926E-12	797.817E-3	10.0262E-3
1.55828E-3	55.0472E-12	846.863E-3	-32.3241E-3	54.6498E-12	798.214E-3	-2.62186E-3
1.55328E-3	54.6390E-12	837.152E-3	-33.4688E-3	54.0542E-12	815.708E-3	-11.8297E-3
1.54827E-3	54.6329E-12	835.713E-3	-26.8200E-3	53.6483E-12	824.870E-3	-7.19983E-3
1.54327E-3	54.5411E-12	840.007E-3	-19.0083E-3	52.6325E-12	818.747E-3	-4.68953E-3
1.53827E-3	53.6792E-12	839.660E-3	-23.3990E-3	51.9927E-12	797.145E-3	-13.3748E-3
1.53327E-3	52.9472E-12	853.877E-3	-30.2704E-3	52.1167E-12	787.873E-3	-12.5808E-3
1.52826E-3	53.0690E-12	860.919E-3	-6.54087E-3	51.7592E-12	806.538E-3	-4.88727E-3
1.52326E-3	52.5508E-12	848.427E-3	9.64547E-3	51.3223E-12	823.875E-3	-8.14082E-3
1.51826E-3	51.3531E-12	839.903E-3	-3.93298E-3	51.4250E-12	834.247E-3	-18.2816E-3
1.51326E-3	51.4743E-12	832.786E-3	-14.4080E-3	51.5919E-12	838.712E-3	-27.4918E-3
1.50825E-3	51.4650E-12	818.270E-3	-20.6141E-3	52.0556E-12	843.208E-3	-36.6724E-3
1.50325E-3	51.2061E-12	817.496E-3	-29.2650E-3	51.6783E-12	859.278E-3	-45.4824E-3
1.49825E-3	50.6034E-12	832.007E-3	-31.1762E-3	51.5253E-12	870.188E-3	-34.0059E-3
1.49325E-3	50.9218E-12	829.548E-3	-25.6755E-3	51.8840E-12	867.705E-3	-4.53506E-3
1.48824E-3	50.5308E-12	820.861E-3	-18.9905E-3	51.1094E-12	862.769E-3	-3.81738E-3
1.48324E-3	50.0849E-12	825.026E-3	-21.5935E-3	50.7724E-12	865.012E-3	-26.5574E-3
1.47824E-3	50.1984E-12	820.083E-3	-30.3935E-3	50.6996E-12	857.715E-3	-36.3290E-3
1.47324E-3	50.0070E-12	809.490E-3	-42.9300E-3	50.2831E-12	839.417E-3	-35.3189E-3
1.46823E-3	49.6968E-12	811.165E-3	-45.4285E-3	49.3618E-12	833.944E-3	-29.8164E-3
1.46323E-3	49.7271E-12	821.252E-3	-27.2199E-3	49.3937E-12	832.006E-3	-29.5034E-3
1.45823E-3	49.4459E-12	832.598E-3	-26.6766E-3	49.1313E-12	822.139E-3	-33.8870E-3
1.45323E-3	48.8779E-12	832.742E-3	-41.4048E-3	48.1328E-12	816.778E-3	-24.4073E-3
1.44822E-3	48.6854E-12	835.361E-3	-31.1453E-3	48.1350E-12	818.689E-3	-7.14829E-3
1.44322E-3	48.3583E-12	838.106E-3	-15.7642E-3	48.1930E-12	814.529E-3	5.84656E-3
1.43822E-3	48.0335E-12	818.226E-3	-15.3081E-3	47.3415E-12	809.300E-3	5.79121E-3
1.43322E-3	47.4171E-12	807.702E-3	-14.8595E-3	47.8478E-12	817.539E-3	-7.05365E-3
1.42821E-3	46.6984E-12	819.435E-3	-14.6411E-3	47.8025E-12	826.671E-3	-7.03995E-3
1.42321E-3	46.6224E-12	820.051E-3	-22.5442E-3	46.9652E-12	824.595E-3	4.84760E-3
1.41821E-3	46.0475E-12	808.865E-3	-33.0137E-3	47.0010E-12	805.330E-3	3.24017E-3
1.41321E-3	45.4946E-12	803.778E-3	-35.3335E-3	47.1333E-12	783.238E-3	-9.75350E-3
1.40820E-3	45.6704E-12	803.746E-3	-32.7863E-3	46.5130E-12	788.474E-3	-17.1747E-3
1.40320E-3	45.3016E-12	805.896E-3	-30.6519E-3	46.1835E-12	801.959E-3	-18.9052E-3
1.39820E-3	45.0640E-12	806.257E-3	-29.3194E-3	46.0671E-12	801.381E-3	-15.6844E-3
1.39320E-3	45.5251E-12	801.062E-3	-24.3606E-3	45.1835E-12	799.595E-3	-6.26903E-3
1.38819E-3	45.3255E-12	797.233E-3	-16.8301E-3	45.0167E-12	797.709E-3	-2.26844E-3
1.38319E-3	45.0142E-12	795.948E-3	-5.40565E-3	44.6935E-12	790.465E-3	-7.19904E-3
1.37819E-3	45.1936E-12	785.901E-3	4.35722E-3	44.1307E-12	784.471E-3	-21.1267E-3
1.37319E-3	45.0469E-12	780.951E-3	-5.67051E-3	43.9925E-12	773.262E-3	-39.0410E-3
1.36818E-3	44.6767E-12	787.543E-3	-23.2050E-3	43.7516E-12	753.976E-3	-38.9097E-3
1.36318E-3	44.5558E-12	785.994E-3	-21.7215E-3	43.5734E-12	739.198E-3	-29.9691E-3
1.35818E-3	44.1992E-12	784.466E-3	174.674E-6	43.6073E-12	738.797E-3	-27.1420E-3
1.35318E-3	43.5219E-12	794.985E-3	9.74518E-3	43.5955E-12	749.115E-3	-27.1123E-3
1.34817E-3	43.2219E-12	794.458E-3	-5.13657E-3	43.3679E-12	757.468E-3	-28.2532E-3
1.34317E-3	42.4867E-12	770.285E-3	-4.04460E-3	43.6471E-12	752.646E-3	-24.3505E-3
1.33817E-3	42.4516E-12	747.806E-3	7.81935E-3	43.6083E-12	728.911E-3	-21.4914E-3
1.33317E-3	41.9473E-12	744.830E-3	-11.0034E-6	43.0673E-12	704.556E-3	-23.7120E-3
1.32816E-3	41.7409E-12	745.526E-3	-6.99949E-3	42.6573E-12	694.984E-3	-21.1288E-3
1.32316E-3	41.6690E-12	735.155E-3	-2.34962E-3	42.5066E-12	683.638E-3	-17.2196E-3
1.31816E-3	41.2566E-12	722.149E-3	1.13225E-3	41.8614E-12	665.353E-3	-16.1353E-3
1.31316E-3	40.7570E-12	713.123E-3	3.72372E-3	41.4569E-12	649.856E-3	-8.82526E-3
1.30815E-3	40.8047E-12	702.871E-3	2.55911E-3	40.9911E-12	633.541E-3	178.868E-6
1.30315E-3	40.6952E-12	694.487E-3	-6.15355E-3	40.2156E-12	621.471E-3	4.32755E-3
1.29815E-3	40.1733E-12	683.117E-3	-10.6554E-3	39.6453E-12	628.639E-3	4.87926E-3
1.29315E-3	40.6335E-12	663.379E-3	-10.9349E-3	39.4376E-12	628.727E-3	417.289E-6
1.28814E-3	40.7179E-12	656.057E-3	-13.7547E-3	39.3484E-12	604.699E-3	-1.94516E-3
1.28314E-3	40.2122E-12	668.309E-3	-14.4309E-3	39.1012E-12	590.001E-3	-8.77421E-3
1.27814E-3	40.0010E-12	669.142E-3	-16.5781E-3	39.2709E-12	594.183E-3	-28.9178E-3
1.27314E-3	39.8699E-12	642.526E-3	-20.0178E-3	39.2871E-12	597.583E-3	-31.8036E-3
1.26813E-3	39.4004E-12	623.267E-3	-10.0741E-3	39.2130E-12	589.198E-3	-13.0089E-3
1.26313E-3	39.3593E-12	626.822E-3	4.94857E-3	39.6484E-12	573.931E-3	47.2850E-6
1.25813E-3	39.2158E-12	621.810E-3	5.82867E-3	40.2374E-12	568.326E-3	6.25568E-3
1.25313E-3	38.6519E-12	603.986E-3	260.873E-6	39.9018E-12	570.265E-3	3.61445E-3
1.24812E-3	38.6627E-12	584.106E-3	-2.62540E-3	40.0188E-12	570.525E-3	-4.98756E-3
1.24312E-3	38.0400E-12	569.550E-3	-15.0310E-3	39.8958E-12	557.328E-3	-14.7997E-3
1.23812E-3	37.9404E-12	550.005E-3	-34.2682E-3	39.6030E-12	525.711E-3	-25.4799E-3
1.23312E-3	38.4051E-12	516.914E-3	-32.1193E-3	39.5265E-12	502.919E-3	-32.3254E-3
1.22811E-3	38.1144E-12	504.555E-3	-9.92174E-3	39.4558E-12	487.547E-3	-32.6540E-3
1.22311E-3	37.6548E-12	512.050E-3	-2.68686E-3	38.0830E-12	463.991E-3	-24.8122E-3
1.21811E-3	37.6676E-12	508.274E-3	-12.8981E-3	37.3688E-12	445.255E-3	-13.2538E-3
1.21311E-3	37.5101E-12	490.516E-3	-32.3693E-3	37.2814E-12	430.147E-3	-1.33054E-3
1.20810E-3	37.1626E-12	471.152E-3	-35.5400E-3	36.4577E-12	421.472E-3	4.69236E-3
1.20310E-3	37.1707E-12	466.182E-3	-12.9493E-3	35.5701E-12	423.509E-3	-9.09410E-3
1.19810E-3	37.2685E-12	466.253E-3	-7.61468E-3	35.6875E-12	419.106E-3	-20.0266E-3
1.19310E-3	37.1177E-12	452.383E-3	-16.7766E-3	35.6614E-12	400.232E-3	-5.80513E-3
1.18809E-3	36.9275E-12	429.968E-3	-13.2740E-3	35.2574E-12	371.157E-3	-1.81562E-3
1.18309E-3	36.8608E-12	409.683E-3	-1.39574E-3	35.5301E-12	353.852E-3	-14.5754E-3
1.17809E-3	36.4830E-12	404.593E-3	-6.52829E-3	35.9966E-12	369.007E-3	-19.3505E-3
1.17309E-3	36.1666E-12	410.897E-3	-23.3180E-3	36.1564E-12	381.300E-3	-15.7348E-3
1.16808E-3	36.1461E-12	399.776E-3	-22.9764E-3	36.3739E-12	360.035E-3	-7.12205E-3
1.16308E-3	36.0723E-12	377.505E-3	-18.0867E-3	36.8032E-12	345.579E-3	-5.48933E-3
1.15808E-3	35.7604E-12	371.903E-3	-6.52335E-3	36.8618E-12	351.505E-3	-18.6725E-3
1.15308E-3	35.2641E-12	371.859E-3	6.03542E-3	36.9767E-12	341.409E-3	-21.1140E-3
1.14807E-3	35.2771E-12	371.142E-3	-590.864E-6	36.9082E-12	314.166E-3	-7.22923E-3
1.14307E-3	35.5719E-12	375.202E-3	-9.59631E-3	36.9287E-12	297.398E-3	-7.19347E-3
1.13807E-3	35.3265E-12	360.110E-3	-10.9936E-3	36.6162E-12	290.373E-3	-22.0785E-3
1.13307E-3	34.9978E-12	330.940E-3	-2.79326E-3	35.9571E-12	273.399E-3	-28.1743E-3
1.12806E-3	35.2787E-12	313.526E-3	2.60025E-3	35.3244E-12	258.474E-3	-26.5939E-3
1.12306E-3	35.3200E-12	297.649E-3	-13.5249E-3	35.4996E-12	254.813E-3	-29.5004E-3
1.11806E-3	34.9211E-12	285.757E-3	-28.9863E-3	35.1082E-12	247.297E-3	-32.1702E-3
1.11306E-3	34.6976E-12	278.715E-3	-21.4838E-3	34.1042E-12	247.034E-3	-30.3853E-3
1.10805E-3	34.8200E-12	262.601E-3	-10.2246E-3	34.0114E-12	247.522E-3	-25.8946E-3
1.10305E-3	34.7885E-12	245.880E-3	-6.35776E-3	33.9134E-12	223.579E-3	-21.3334E-3
1.09805E-3	34.9005E-12	251.724E-3	-8.43410E-3	33.6181E-12	210.561E-3	-24.5014E-3
1.09305E-3	34.7018E-12	260.747E-3	-10.2963E-3	33.7374E-12	218.575E-3	-25.3940E-3
1.08804E-3	34.2352E-12	244.855E-3	-9.90903E-3	33.9725E-12	218.201E-3	-7.13636E-3
1.08304E-3	34.4731E-12	217.920E-3	-12.2360E-3	34.2554E-12	208.860E-3	5.06024E-3
1.07804E-3	34.3849E-12	208.379E-3	-15.1920E-3	34.3950E-12	206.116E-3	-248.744E-6
1.07304E-3	34.1722E-12	218.409E-3	-22.8190E-3	34.6167E-12	209.516E-3	-3.14591E-3
1.06803E-3	34.4777E-12	218.369E-3	-34.0848E-3	34.5416E-12	198.851E-3	-9.15626E-3
1.06303E-3	34.3093E-12	207.212E-3	-38.6083E-3	34.5900E-12	182.659E-3	-23.2474E-3
1.05803E-3	33.8754E-12	191.220E-3	-30.8020E-3	34.6567E-12	186.183E-3	-30.5654E-3
1.05303E-3	34.1287E-12	178.064E-3	-13.2624E-3	34.6650E-12	195.495E-3	-25.3928E-3
1.04802E-3	34.0490E-12	180.408E-3	4.36866E-3	34.7605E-12	176.738E-3	-19.6825E-3
1.04302E-3	33.9861E-12	181.680E-3	3.63631E-3	34.5476E-12	142.644E-3	-25.0095E-3
1.03802E-3	34.0114E-12	177.386E-3	-16.0002E-3	34.0539E-12	122.539E-3	-26.7239E-3
1.03302E-3	33.8817E-12	174.615E-3	-23.3780E-3	33.9863E-12	121.024E-3	-24.4160E-3
1.02801E-3	33.8169E-12	167.934E-3	-25.6845E-3	33.5817E-12	123.255E-3	-26.9681E-3
1.02301E-3	33.3881E-12	161.309E-3	-36.5304E-3	33.3480E-12	123.613E-3	-17.1125E-3
1.01801E-3	33.1552E-12	154.214E-3	-35.4218E-3	32.8871E-12	128.115E-3	-3.72490E-3
1.01301E-3	33.1500E-12	132.950E-3	-28.5894E-3	32.8754E-12	128.212E-3	-8.61102E-3
1.00800E-3	33.2908E-12	113.022E-3	-28.8933E-3	32.9390E-12	118.901E-3	-23.4059E-3
1.00300E-3	33.0477E-12	119.308E-3	-29.0569E-3	32.9052E-12	107.450E-3	-37.5335E-3
997.999E-6	32.8223E-12	131.033E-3	-16.2053E-3	32.8497E-12	98.3292E-3	-45.5849E-3
992.997E-6	33.2177E-12	122.709E-3	-2.73422E-3	32.7627E-12	96.6215E-3	-36.6426E-3
987.994E-6	32.9680E-12	106.759E-3	-4.36777E-3	33.0995E-12	111.373E-3	-27.0332E-3
982.991E-6	32.5762E-12	102.033E-3	-12.8444E-3	33.0377E-12	122.724E-3	-25.9886E-3
977.989E-6	33.2427E-12	103.980E-3	-12.9344E-3	33.5151E-12	119.397E-3	-17.3331E-3
972.986E-6	33.3864E-12	111.650E-3	-10.1389E-3	34.1657E-12	121.188E-3	-17.2515E-3
967.984E-6	32.9089E-12	123.676E-3	-19.9911E-3	33.4405E-12	122.636E-3	-32.6199E-3
962.981E-6	33.2598E-12	126.309E-3	-36.9293E-3	32.7607E-12	120.903E-3	-26.8079E-3
957.979E-6	33.2978E-12	119.796E-3	-49.2371E-3	33.5176E-12	123.139E-3	-868.086E-6
952.976E-6	32.9917E-12	110.364E-3	-39.4615E-3	33.4153E-12	117.309E-3	235.666E-6
947.974E-6	33.2618E-12	101.613E-3	-17.1452E-3	32.7343E-12	104.055E-3	-14.6657E-3
942.971E-6	33.4075E-12	93.7658E-3	-14.4320E-3	32.8399E-12	94.9822E-3	-17.3431E-3
937.969E-6	33.0862E-12	89.3884E-3	-23.7249E-3	33.1184E-12	94.8607E-3	-20.6188E-3
932.966E-6	32.6639E-12	89.3737E-3	-23.6868E-3	32.6074E-12	97.1515E-3	-25.5923E-3
927.964E-6	32.9296E-12	99.3738E-3	-14.3089E-3	32.4908E-12	101.313E-3	-25.6213E-3
922.961E-6	32.6700E-12	118.648E-3	-11.1824E-3	32.9891E-12	107.704E-3	-23.8132E-3
917.959E-6	32.4674E-12	130.195E-3	-9.43521E-3	32.8892E-12	104.750E-3	-23.7641E-3
912.956E-6	32.4789E-12	130.695E-3	-9.00014E-3	32.6743E-12	99.9277E-3	-27.5698E-3
907.954E-6	32.2312E-12	123.995E-3	-10.2248E-3	32.5059E-12	103.607E-3	-26.2506E-3
902.951E-6	32.2536E-12	114.581E-3	-1.22980E-3	32.8502E-12	110.446E-3	-15.2736E-3
897.949E-6	32.4304E-12	115.096E-3	1.97146E-3	32.6987E-12	120.968E-3	-13.4775E-3
892.946E-6	31.9753E-12	121.082E-3	-3.84633E-3	32.5177E-12	130.310E-3	-26.4985E-3
887.944E-6	32.2454E-12	124.182E-3	-4.50830E-3	32.4734E-12	130.099E-3	-31.2131E-3
882.941E-6	32.3350E-12	121.304E-3	-4.42984E-3	32.2468E-12	131.236E-3	-25.6162E-3
877.939E-6	32.2797E-12	107.528E-3	-9.85127E-3	31.9058E-12	130.654E-3	-24.9730E-3
872.936E-6	32.4959E-12	102.403E-3	-6.57785E-3	31.9389E-12	117.224E-3	-24.4223E-3
867.934E-6	32.5735E-12	118.739E-3	-3.81539E-3	32.0886E-12	118.724E-3	-17.9949E-3
862.931E-6	32.8172E-12	126.067E-3	-17.4298E-3	31.4216E-12	140.048E-3	-17.6249E-3
857.929E-6	32.7636E-12	109.117E-3	-28.3630E-3	31.2968E-12	144.197E-3	-24.0243E-3
852.926E-6	32.7270E-12	99.4535E-3	-19.9860E-3	31.4576E-12	140.609E-3	-15.2908E-3
847.924E-6	33.0351E-12	111.669E-3	-5.40879E-3	31.5457E-12	151.137E-3	879.220E-6
842.921E-6	32.7669E-12	129.197E-3	-6.53815E-3	31.3080E-12	150.326E-3	-3.91589E-3
837.919E-6	32.7224E-12	146.459E-3	-10.7252E-3	31.6957E-12	145.630E-3	-12.5455E-3
832.916E-6	32.8600E-12	151.618E-3	-7.55548E-3	31.7791E-12	158.740E-3	-12.0348E-3
827.914E-6	32.4079E-12	151.249E-3	-11.4949E-3	31.9311E-12	171.238E-3	-7.86756E-3
822.911E-6	32.3085E-12	156.353E-3	-17.7708E-3	32.2102E-12	176.931E-3	-4.45112E-3
817.909E-6	32.6148E-12	158.634E-3	-20.2703E-3	32.1252E-12	180.967E-3	-16.0234E-3
812.906E-6	32.1254E-12	168.090E-3	-19.7146E-3	32.0275E-12	183.536E-3	-29.1290E-3
807.904E-6	31.3436E-12	175.411E-3	-9.57826E-3	32.1473E-12	181.866E-3	-17.7233E-3
802.901E-6	31.7480E-12	173.282E-3	-3.89290E-3	32.0140E-12	178.142E-3	-946.673E-6
797.899E-6	31.9890E-12	174.986E-3	-3.13658E-3	31.7368E-12	183.183E-3	-8.92309E-3
792.896E-6	31.3180E-12	184.622E-3	1.35072E-3	31.5142E-12	191.924E-3	-15.8104E-3
787.894E-6	31.2340E-12	198.123E-3	-7.70736E-3	31.1254E-12	201.675E-3	-22.9674E-3
782.891E-6	31.0784E-12	203.975E-3	-19.5565E-3	30.6626E-12	208.588E-3	-39.6714E-3
777.889E-6	31.3273E-12	196.545E-3	-12.9660E-3	30.2708E-12	222.408E-3	-30.6727E-3
772.886E-6	31.0723E-12	190.681E-3	3.26817E-3	30.2169E-12	248.946E-3	-8.82132E-3
767.884E-6	31.1709E-12	193.421E-3	11.3500E-3	29.7330E-12	259.179E-3	-3.29471E-3
762.881E-6	31.1597E-12	192.705E-3	2.43140E-3	29.6531E-12	259.964E-3	-11.4945E-3
757.879E-6	31.2139E-12	202.756E-3	-9.39040E-3	30.0393E-12	273.469E-3	-21.1448E-3
752.876E-6	31.0633E-12	227.436E-3	-7.37980E-3	30.0865E-12	280.752E-3	-20.1043E-3
747.874E-6	31.0502E-12	238.040E-3	-5.29122E-3	30.1999E-12	274.702E-3	-11.8049E-3
742.871E-6	30.8390E-12	236.119E-3	-10.9574E-3	30.3475E-12	284.984E-3	-12.2326E-3
737.869E-6	30.8017E-12	234.591E-3	-15.1356E-3	30.6619E-12	308.072E-3	-24.7880E-3
732.866E-6	30.8736E-12	236.970E-3	-19.8721E-3	30.8420E-12	322.465E-3	-25.1743E-3
727.864E-6	30.2605E-12	249.687E-3	-29.5703E-3	30.9326E-12	336.362E-3	-11.5948E-3
722.861E-6	29.9205E-12	267.356E-3	-41.3369E-3	31.2330E-12	351.966E-3	-11.3881E-3
717.859E-6	30.3805E-12	284.701E-3	-37.7665E-3	31.5500E-12	354.517E-3	-15.8717E-3
712.856E-6	30.3756E-12	311.197E-3	-23.5027E-3	30.8238E-12	353.268E-3	-6.10871E-3
707.854E-6	29.5201E-12	332.267E-3	-24.5675E-3	30.6129E-12	367.036E-3	6.17817E-3
702.851E-6	29.4554E-12	329.329E-3	-29.0637E-3	30.6039E-12	384.658E-3	2.37705E-3
697.849E-6	29.9650E-12	331.674E-3	-25.1182E-3	30.2550E-12	411.700E-3	-10.5454E-3
692.846E-6	29.1782E-12	354.341E-3	-21.6665E-3	29.6215E-12	434.948E-3	-14.5097E-3
687.844E-6	29.4394E-12	371.574E-3	-13.8412E-3	29.3916E-12	429.071E-3	-14.4427E-3
682.841E-6	29.4326E-12	370.671E-3	-6.25427E-3	29.0323E-12	429.257E-3	-22.4039E-3
677.839E-6	29.1589E-12	371.280E-3	-12.0065E-3	28.5845E-12	443.236E-3	-31.6355E-3
672.836E-6	28.8368E-12	382.380E-3	-22.5420E-3	28.4446E-12	440.353E-3	-26.1336E-3
667.834E-6	28.9265E-12	393.303E-3	-13.8700E-3	28.3887E-12	448.287E-3	-9.06244E-3
662.831E-6	28.8408E-12	401.779E-3	331.351E-6	28.3269E-12	469.886E-3	8.92594E-3
657.829E-6	28.6972E-12	416.416E-3	-7.49541E-3	28.0906E-12	472.011E-3	20.2592E-3
652.826E-6	28.3760E-12	447.298E-3	-19.5469E-3	28.3046E-12	482.361E-3	17.0017E-3
647.824E-6	28.4654E-12	470.516E-3	-13.1650E-3	28.7692E-12	512.205E-3	1.29182E-3
642.821E-6	28.2939E-12	478.404E-3	-9.20130E-3	28.6040E-12	531.581E-3	-19.1729E-3
637.819E-6	28.0786E-12	490.600E-3	-15.7792E-3	28.2565E-12	539.364E-3	-26.7181E-3
632.816E-6	28.1715E-12	497.472E-3	-16.0253E-3	28.2966E-12	564.061E-3	-10.5133E-3
627.814E-6	27.7393E-12	498.511E-3	-10.0442E-3	27.9537E-12	592.100E-3	1.60073E-3
622.811E-6	27.3550E-12	512.765E-3	-11.0809E-3	27.6943E-12	602.796E-3	-5.97174E-3
617.809E-6	27.4392E-12	535.317E-3	-13.3739E-3	27.8385E-12	613.887E-3	-14.1025E-3
612.806E-6	27.1507E-12	552.789E-3	-9.56681E-3	27.2846E-12	611.078E-3	-13.9909E-3
607.804E-6	26.8896E-12	572.632E-3	-10.0863E-3	26.8303E-12	598.169E-3	-8.06642E-3
602.801E-6	26.9441E-12	587.817E-3	-12.7061E-3	26.6415E-12	610.972E-3	-6.32894E-3
597.799E-6	26.8974E-12	604.379E-3	-15.4745E-3	26.0478E-12	639.029E-3	-11.4855E-3
592.796E-6	26.4550E-12	623.140E-3	-19.4013E-3	25.7689E-12	656.649E-3	-11.0517E-3
587.794E-6	26.1999E-12	634.557E-3	-19.9700E-3	25.5441E-12	661.071E-3	-2.67980E-3
582.791E-6	26.0263E-12	653.092E-3	-23.9886E-3	25.2847E-12	671.927E-3	-7.94567E-3
577.789E-6	25.3893E-12	667.033E-3	-28.5113E-3	24.9956E-12	696.380E-3	-27.6689E-3
572.786E-6	25.1863E-12	661.456E-3	-17.2224E-3	24.8976E-12	723.297E-3	-26.8460E-3
567.784E-6	25.2027E-12	649.747E-3	-7.91020E-3	24.7543E-12	738.631E-3	-9.62411E-3
562.781E-6	24.3146E-12	665.273E-3	-15.0922E-3	24.5937E-12	733.133E-3	-8.41072E-3
557.779E-6	24.4572E-12	700.299E-3	-24.7879E-3	24.5356E-12	743.067E-3	-25.5935E-3
552.776E-6	24.4394E-12	709.484E-3	-23.1226E-3	24.4234E-12	781.677E-3	-43.0526E-3
547.774E-6	23.9706E-12	712.535E-3	-7.99482E-3	24.2619E-12	802.859E-3	-41.7221E-3
542.771E-6	23.5386E-12	733.801E-3	2.76190E-3	24.1945E-12	803.609E-3	-25.7721E-3
537.769E-6	23.7205E-12	738.302E-3	-2.91687E-3	23.9495E-12	806.953E-3	-6.79235E-3
532.766E-6	23.3444E-12	740.224E-3	-17.9299E-3	23.7046E-12	819.388E-3	3.01561E-3
527.764E-6	22.9380E-12	768.132E-3	-30.0047E-3	23.4377E-12	840.812E-3	-6.97537E-3
522.761E-6	22.9627E-12	787.599E-3	-29.9526E-3	23.1592E-12	857.526E-3	-14.9996E-3
517.759E-6	22.7672E-12	793.216E-3	-19.7962E-3	22.9413E-12	852.850E-3	-13.5999E-3
512.756E-6	22.4133E-12	811.569E-3	-5.43626E-3	22.2409E-12	845.777E-3	-22.6235E-3
507.754E-6	22.3966E-12	832.532E-3	-3.86034E-3	22.1604E-12	858.269E-3	-37.9073E-3
502.751E-6	22.2222E-12	838.834E-3	-11.2984E-3	21.5302E-12	869.105E-3	-36.1795E-3
497.749E-6	21.6371E-12	847.163E-3	-16.2552E-3	21.1537E-12	869.844E-3	-19.4908E-3
492.746E-6	21.2706E-12	863.350E-3	-17.7519E-3	20.9702E-12	879.970E-3	-8.34868E-3
487.744E-6	21.0657E-12	871.450E-3	-10.4322E-3	20.6962E-12	897.785E-3	-7.80750E-3
482.741E-6	20.8406E-12	877.703E-3	-9.20865E-3	20.4928E-12	906.362E-3	-15.5602E-3
477.739E-6	20.1617E-12	887.690E-3	-21.5865E-3	20.2859E-12	907.709E-3	-13.6931E-3
472.736E-6	19.8625E-12	889.630E-3	-31.5663E-3	19.8955E-12	913.721E-3	3.95886E-3
467.734E-6	19.7891E-12	891.483E-3	-26.0896E-3	19.7334E-12	918.536E-3	2.79653E-3
462.731E-6	19.3935E-12	910.112E-3	-15.2319E-3	19.6152E-12	917.415E-3	-16.8637E-3
457.729E-6	18.7870E-12	926.164E-3	-11.9060E-3	19.5047E-12	924.736E-3	-22.9398E-3
452.726E-6	18.8079E-12	931.102E-3	-18.0135E-3	18.8872E-12	930.590E-3	-25.4134E-3
447.724E-6	18.4561E-12	928.683E-3	-22.1843E-3	18.5620E-12	927.725E-3	-29.7247E-3
442.721E-6	18.1766E-12	918.250E-3	-13.1155E-3	18.5106E-12	940.064E-3	-32.2178E-3
437.719E-6	18.1956E-12	920.832E-3	-4.85890E-3	18.1099E-12	951.997E-3	-38.5766E-3
432.716E-6	17.6209E-12	929.074E-3	-9.12095E-3	17.4737E-12	939.859E-3	-32.8208E-3
427.714E-6	17.3360E-12	929.833E-3	-19.9340E-3	17.2381E-12	932.877E-3	-26.1994E-3
422.711E-6	17.1905E-12	932.823E-3	-29.6514E-3	16.8967E-12	941.473E-3	-21.8645E-3
417.709E-6	16.8616E-12	930.799E-3	-29.6490E-3	16.4603E-12	939.383E-3	-7.21736E-3
412.706E-6	16.5944E-12	927.887E-3	-19.7051E-3	16.2193E-12	925.858E-3	-2.80458E-3
407.704E-6	16.1749E-12	934.217E-3	-18.3530E-3	15.9828E-12	919.062E-3	-15.9694E-3
402.701E-6	15.8831E-12	949.425E-3	-22.1711E-3	15.6558E-12	917.264E-3	-23.1644E-3
397.699E-6	15.5521E-12	960.482E-3	-25.4074E-3	15.3009E-12	916.149E-3	-12.4549E-3
392.696E-6	15.2465E-12	957.118E-3	-33.1831E-3	15.1153E-12	922.031E-3	-901.515E-6
387.694E-6	14.7343E-12	958.777E-3	-28.2823E-3	14.7458E-12	921.388E-3	-2.69549E-3
382.691E-6	14.3460E-12	954.622E-3	-14.8111E-3	14.4713E-12	912.827E-3	-12.5826E-3
377.689E-6	13.9704E-12	937.592E-3	-18.1675E-3	14.2618E-12	910.454E-3	-23.4625E-3
372.686E-6	13.7804E-12	926.422E-3	-21.9845E-3	13.9914E-12	913.399E-3	-32.2136E-3
367.684E-6	13.4718E-12	913.725E-3	-10.0931E-3	13.6034E-12	922.365E-3	-28.0897E-3
362.681E-6	13.0635E-12	899.692E-3	-1.65954E-3	13.4031E-12	920.055E-3	-22.6805E-3
357.679E-6	12.7032E-12	908.912E-3	-2.68107E-3	13.0173E-12	901.361E-3	-25.3413E-3
352.676E-6	12.5510E-12	920.443E-3	-6.96553E-3	12.6627E-12	890.869E-3	-18.2018E-3
347.674E-6	12.3852E-12	898.507E-3	-21.2422E-3	12.3676E-12	886.606E-3	-7.14369E-3
342.671E-6	12.0446E-12	882.111E-3	-35.3775E-3	12.0540E-12	870.758E-3	-10.3300E-3
337.669E-6	11.7491E-12	894.899E-3	-24.6824E-3	11.6397E-12	851.960E-3	-12.6346E-3
332.666E-6	11.5932E-12	908.754E-3	-4.43335E-3	11.4339E-12	847.178E-3	-1.67753E-3
327.664E-6	11.3958E-12	908.127E-3	-6.05380E-3	11.1084E-12	839.417E-3	-4.72934E-3
322.661E-6	11.0078E-12	893.370E-3	-13.5827E-3	10.8874E-12	821.580E-3	-22.9357E-3
317.659E-6	10.6307E-12	879.890E-3	-8.76689E-3	10.6795E-12	817.495E-3	-31.3909E-3
312.656E-6	10.4560E-12	876.089E-3	-4.61863E-3	10.3421E-12	825.803E-3	-31.7375E-3
307.654E-6	10.1999E-12	880.666E-3	-10.1662E-3	10.1214E-12	818.198E-3	-25.2726E-3
302.651E-6	9.79195E-12	882.081E-3	-21.0508E-3	9.94844E-12	801.039E-3	-22.3943E-3
297.649E-6	9.58622E-12	857.997E-3	-27.1854E-3	9.66564E-12	791.143E-3	-29.4915E-3
292.646E-6	9.15572E-12	824.940E-3	-22.4903E-3	9.34168E-12	779.379E-3	-30.2503E-3
287.644E-6	8.89985E-12	811.818E-3	-15.0915E-3	9.07880E-12	763.499E-3	-32.5997E-3
282.641E-6	8.66875E-12	807.658E-3	-5.70967E-3	8.80872E-12	741.046E-3	-40.3096E-3
277.639E-6	8.42396E-12	797.578E-3	3.07029E-3	8.56924E-12	718.155E-3	-37.2427E-3
272.636E-6	8.11653E-12	782.557E-3	-5.57294E-3	8.19653E-12	714.624E-3	-19.8936E-3
267.634E-6	7.87897E-12	758.338E-3	-16.2033E-3	7.94619E-12	706.131E-3	-6.36257E-3
262.631E-6	7.64117E-12	739.604E-3	-10.4003E-3	7.69173E-12	671.179E-3	-13.7798E-3
257.629E-6	7.43976E-12	736.736E-3	2.34769E-3	7.36846E-12	652.307E-3	-23.2897E-3
252.626E-6	7.33764E-12	729.308E-3	10.6003E-3	7.14677E-12	655.480E-3	-35.5491E-3
247.624E-6	7.07835E-12	717.754E-3	7.92307E-3	6.90946E-12	650.071E-3	-48.6943E-3
242.621E-6	6.84500E-12	708.852E-3	-3.71620E-3	6.76816E-12	639.821E-3	-36.5808E-3
237.619E-6	6.84077E-12	690.002E-3	-14.5629E-3	6.55013E-12	621.181E-3	-14.6422E-3
232.616E-6	6.59955E-12	672.790E-3	-16.6712E-3	6.35544E-12	588.674E-3	-2.58720E-3
227.614E-6	6.14353E-12	666.929E-3	-15.1398E-3	6.12293E-12	574.594E-3	3.18039E-3
222.611E-6	5.86345E-12	661.810E-3	-21.5429E-3	5.86344E-12	582.092E-3	-5.93634E-3
217.609E-6	5.78952E-12	647.031E-3	-24.4753E-3	5.67139E-12	580.941E-3	-22.4584E-3
212.606E-6	5.62907E-12	621.945E-3	-19.6357E-3	5.65726E-12	572.069E-3	-17.8418E-3
207.604E-6	5.37205E-12	604.634E-3	-18.4858E-3	5.54244E-12	557.546E-3	-6.43413E-3
202.601E-6	5.12468E-12	597.585E-3	-15.2091E-3	5.30864E-12	542.740E-3	-11.3339E-3
197.599E-6	4.95695E-12	589.143E-3	-15.0397E-3	5.03490E-12	537.324E-3	-11.3102E-3
192.596E-6	4.79046E-12	578.807E-3	-24.3601E-3	4.94146E-12	527.015E-3	-8.37821E-3
187.594E-6	4.63685E-12	557.585E-3	-28.5443E-3	4.78691E-12	508.165E-3	-16.0378E-3
182.591E-6	4.37848E-12	526.916E-3	-21.0110E-3	4.58057E-12	491.489E-3	-6.05424E-3
177.589E-6	4.21131E-12	510.643E-3	-17.4823E-3	4.29573E-12	474.327E-3	6.85457E-3
172.586E-6	4.12365E-12	503.873E-3	-24.0677E-3	4.12774E-12	454.039E-3	-1.32531E-3
167.584E-6	3.99967E-12	488.738E-3	-25.9342E-3	4.00358E-12	428.673E-3	-5.79849E-3
162.581E-6	3.81041E-12	474.761E-3	-20.1822E-3	3.79742E-12	410.329E-3	-10.0672E-3
157.579E-6	3.63577E-12	476.264E-3	-12.7997E-3	3.55920E-12	409.289E-3	-25.6485E-3
152.576E-6	3.49168E-12	478.624E-3	-6.81070E-3	3.38369E-12	409.274E-3	-27.1776E-3
147.574E-6	3.33029E-12	468.625E-3	-4.41922E-3	3.29686E-12	403.853E-3	-20.5067E-3
142.571E-6	3.28804E-12	458.805E-3	168.500E-6	3.15449E-12	397.699E-3	-34.2261E-3
137.569E-6	3.13010E-12	441.139E-3	-621.477E-6	3.00074E-12	386.518E-3	-37.6040E-3
132.566E-6	2.90898E-12	417.348E-3	-8.16346E-3	2.83992E-12	375.571E-3	-22.3134E-3
127.564E-6	2.77668E-12	419.244E-3	-20.6464E-3	2.76286E-12	370.414E-3	-19.6968E-3
122.561E-6	2.68203E-12	419.788E-3	-35.3450E-3	2.66154E-12	361.546E-3	-15.4309E-3
117.559E-6	2.51832E-12	395.639E-3	-32.0213E-3	2.51472E-12	355.200E-3	-7.86967E-3
112.556E-6	2.32286E-12	379.767E-3	-14.1658E-3	2.44519E-12	354.839E-3	-18.1799E-3
107.554E-6	2.23030E-12	369.486E-3	-2.32928E-3	2.23186E-12	345.069E-3	-26.5479E-3
102.551E-6	2.17731E-12	350.845E-3	-10.7282E-3	2.15755E-12	331.747E-3	-9.20244E-3
97.5488E-6	2.08876E-12	336.517E-3	-29.8149E-3	2.06825E-12	323.057E-3	6.79505E-3
92.5463E-6	1.82455E-12	330.647E-3	-39.0346E-3	1.97948E-12	306.880E-3	2.55622E-3
87.5438E-6	1.76676E-12	323.932E-3	-38.2098E-3	1.80563E-12	291.348E-3	-4.92649E-3
82.5413E-6	1.72151E-12	314.756E-3	-31.1806E-3	1.64341E-12	286.128E-3	-13.3222E-3
77.5388E-6	1.62879E-12	316.800E-3	-18.9232E-3	1.55375E-12	281.127E-3	-21.8040E-3
72.5363E-6	1.47801E-12	326.748E-3	-16.6507E-3	1.45599E-12	278.378E-3	-16.3745E-3
67.5338E-6	1.32651E-12	321.394E-3	-28.8344E-3	1.32947E-12	280.616E-3	-10.2384E-3
62.5313E-6	1.22004E-12	306.157E-3	-32.7689E-3	1.15810E-12	284.117E-3	-16.3382E-3
57.5288E-6	1.15099E-12	295.104E-3	-20.9736E-3	1.10716E-12	281.649E-3	-12.4753E-3
52.5263E-6	1.07754E-12	297.774E-3	-9.52743E-3	1.01047E-12	285.430E-3	-8.93130E-3
47.5238E-6	921.228E-15	305.266E-3	666.626E-6	957.779E-15	297.079E-3	-21.8954E-3
42.5213E-6	828.550E-15	291.562E-3	8.86387E-3	822.011E-15	297.903E-3	-24.4821E-3
37.5188E-6	722.776E-15	280.182E-3	-598.772E-6	690.986E-15	299.527E-3	-16.6066E-3
32.5163E-6	636.211E-15	291.499E-3	-15.0037E-3	635.819E-15	297.112E-3	-12.3349E-3
27.5138E-6	549.994E-15	298.135E-3	-16.5264E-3	541.441E-15	296.594E-3	-10.8600E-3
22.5113E-6	451.867E-15	300.450E-3	-24.8453E-3	382.069E-15	316.526E-3	-12.3220E-3
17.5088E-6	236.657E-15	310.210E-3	-39.6562E-3	279.862E-15	324.507E-3	-16.1849E-3
12.5063E-6	155.864E-15	311.415E-3	-34.8766E-3	232.760E-15	312.652E-3	-18.9670E-3
7.50375E-6	151.165E-15	299.351E-3	-19.6814E-3	146.674E-15	308.570E-3	-15.1267E-3
2.50125E-6	3.39842E-15	295.869E-3	-9.32653E-3	-24.7039E-15	309.042E-3	-10.3733E-3
-2.50125E-6	-147.376E-15	308.089E-3	-10.1301E-3	-136.294E-15	314.015E-3	-5.38125E-3
-7.50375E-6	-239.138E-15	320.454E-3	-20.0578E-3	-218.944E-15	333.339E-3	3.27162E-3
-12.5063E-6	-320.166E-15	326.690E-3	-22.9118E-3	-320.027E-15	345.820E-3	-3.29595E-3
-17.5088E-6	-412.696E-15	325.657E-3	-18.5764E-3	-427.074E-15	337.455E-3	-19.1835E-3
-22.5113E-6	-556.111E-15	317.334E-3	-17.8331E-3	-559.163E-15	335.309E-3	-19.2538E-3
-27.5138E-6	-707.609E-15	320.246E-3	-17.4837E-3	-711.759E-15	351.655E-3	-15.4450E-3
-32.5163E-6	-747.857E-15	328.533E-3	-9.15794E-3	-859.560E-15	369.990E-3	-13.5379E-3
-37.5188E-6	-896.800E-15	332.894E-3	-6.36210E-3	-942.751E-15	387.443E-3	-8.16217E-3
-42.5213E-6	-1.01799E-12	343.630E-3	-12.6573E-3	-1.01939E-12	395.961E-3	-11.8713E-3
-47.5238E-6	-1.19198E-12	351.176E-3	1.74713E-3	-1.16072E-12	394.712E-3	-20.8941E-3
-52.5263E-6	-1.31351E-12	355.887E-3	14.1881E-3	-1.33075E-12	404.259E-3	-21.1187E-3
-57.5288E-6	-1.37777E-12	363.930E-3	-2.97545E-3	-1.42761E-12	424.214E-3	-22.8634E-3
-62.5313E-6	-1.52928E-12	363.550E-3	-8.80654E-3	-1.54368E-12	436.337E-3	-37.4869E-3
-67.5338E-6	-1.68800E-12	366.446E-3	3.74127E-3	-1.72813E-12	447.262E-3	-43.4934E-3
-72.5363E-6	-1.81667E-12	392.135E-3	8.92688E-3	-1.93438E-12	468.893E-3	-42.2719E-3
-77.5388E-6	-2.02338E-12	412.646E-3	2.52066E-3	-2.05280E-12	489.555E-3	-36.9696E-3
-82.5413E-6	-2.19194E-12	409.904E-3	-9.13886E-3	-2.17611E-12	507.537E-3	-19.6539E-3
-87.5438E-6	-2.29688E-12	413.511E-3	-15.0179E-3	-2.32171E-12	521.072E-3	-19.5058E-3
-92.5463E-6	-2.50836E-12	430.073E-3	-15.7687E-3	-2.53398E-12	524.438E-3	-33.0063E-3
-97.5488E-6	-2.69615E-12	459.907E-3	-20.8898E-3	-2.72904E-12	541.015E-3	-34.0799E-3
-102.551E-6	-2.87027E-12	502.676E-3	-31.9271E-3	-2.81872E-12	576.234E-3	-24.2659E-3
-107.554E-6	-3.02036E-12	522.880E-3	-32.4600E-3	-3.02892E-12	596.610E-3	-11.8649E-3
-112.556E-6	-3.19455E-12	528.416E-3	-15.4660E-3	-3.23587E-12	601.381E-3	-6.40874E-3
-117.559E-6	-3.47829E-12	548.513E-3	5.21946E-3	-3.45167E-12	626.815E-3	-16.3901E-3
-122.561E-6	-3.65515E-12	577.431E-3	14.7548E-3	-3.59539E-12	664.282E-3	-28.6001E-3
-127.564E-6	-3.80818E-12	602.890E-3	5.18629E-3	-3.79277E-12	685.062E-3	-21.3338E-3
-132.566E-6	-4.02039E-12	621.353E-3	-12.3282E-3	-4.13921E-12	708.736E-3	-14.1113E-3
-137.569E-6	-4.22922E-12	636.177E-3	-15.9309E-3	-4.38600E-12	737.544E-3	-18.9176E-3
-142.571E-6	-4.48568E-12	638.013E-3	-8.91746E-3	-4.64428E-12	751.950E-3	-19.6395E-3
-147.574E-6	-4.67518E-12	645.769E-3	-7.10823E-3	-4.83432E-12	771.131E-3	-18.5334E-3
-152.576E-6	-4.90256E-12	681.706E-3	-8.74912E-3	-5.03864E-12	805.689E-3	-23.8400E-3
-157.579E-6	-5.07633E-12	708.662E-3	-12.0651E-3	-5.26515E-12	839.448E-3	-21.4176E-3
-162.581E-6	-5.40927E-12	713.605E-3	-20.5463E-3	-5.53048E-12	869.423E-3	-4.23274E-3
-167.584E-6	-5.74265E-12	725.661E-3	-25.2973E-3	-5.96594E-12	895.296E-3	6.06863E-3
-172.586E-6	-6.02127E-12	757.361E-3	-17.6239E-3	-6.25170E-12	918.227E-3	5.50806E-3
-177.589E-6	-6.29700E-12	801.733E-3	-6.91064E-3	-6.38054E-12	939.957E-3	428.702E-6
-182.591E-6	-6.74974E-12	844.481E-3	-6.61332E-3	-6.62091E-12	958.264E-3	-10.2657E-3
-187.594E-6	-7.08670E-12	875.544E-3	-19.0820E-3	-7.05742E-12	986.648E-3	-17.6210E-3
-192.596E-6	-7.37780E-12	892.398E-3	-34.1188E-3	-7.27521E-12	1.02750E+0	-13.4566E-3
-197.599E-6	-7.67069E-12	913.139E-3	-26.9868E-3	-7.47759E-12	1.06131E+0	-9.82826E-3
-202.601E-6	-8.04942E-12	947.503E-3	-5.36606E-3	-7.85582E-12	1.09043E+0	-8.60228E-3
-207.604E-6	-8.45450E-12	990.049E-3	500.157E-6	-8.35739E-12	1.12985E+0	-5.61042E-3
-212.606E-6	-8.69440E-12	1.03892E+0	-9.58680E-3	-8.72507E-12	1.17446E+0	-12.1243E-3
-217.609E-6	-8.97654E-12	1.07248E+0	-20.3830E-3	-9.15207E-12	1.20636E+0	-19.5916E-3
-222.611E-6	-9.45694E-12	1.08484E+0	-21.5493E-3	-9.64300E-12	1.23942E+0	-16.4364E-3
-227.614E-6	-9.81500E-12	1.10670E+0	-12.3386E-3	-10.0511E-12	1.27246E+0	-24.9780E-3
-232.616E-6	-10.0961E-12	1.13892E+0	-6.73335E-3	-10.5378E-12	1.29257E+0	-40.5902E-3
-237.619E-6	-10.3864E-12	1.16766E+0	-18.6446E-3	-10.9277E-12	1.31549E+0	-36.2233E-3
-242.621E-6	-10.8493E-12	1.19715E+0	-31.5375E-3	-11.2035E-12	1.34457E+0	-23.6751E-3
-247.624E-6	-11.3288E-12	1.21759E+0	-21.3361E-3	-11.7431E-12	1.36692E+0	-11.2770E-3
-252.626E-6	-11.6497E-12	1.23892E+0	-11.4438E-3	-12.1571E-12	1.39387E+0	-4.02325E-3
-257.629E-6	-12.0195E-12	1.27487E+0	-15.1544E-3	-12.3643E-12	1.43091E+0	-7.97722E-3
-262.631E-6	-12.6842E-12	1.30585E+0	-16.2603E-3	-12.8321E-12	1.44787E+0	-14.4871E-3
-267.634E-6	-13.1365E-12	1.33013E+0	-15.3011E-3	-13.4017E-12	1.45167E+0	-13.5368E-3
-272.636E-6	-13.6343E-12	1.36144E+0	-7.82129E-3	-13.6256E-12	1.46515E+0	-9.89240E-3
-277.639E-6	-14.2039E-12	1.40054E+0	-3.11331E-3	-13.9098E-12	1.48086E+0	-20.2569E-3
-282.641E-6	-14.8304E-12	1.43563E+0	-7.30761E-3	-14.4672E-12	1.51195E+0	-25.9219E-3
-287.644E-6	-15.2730E-12	1.46136E+0	-11.1086E-3	-15.0327E-12	1.56275E+0	-11.6524E-3
-292.646E-6	-15.7779E-12	1.49240E+0	-13.9502E-3	-15.3487E-12	1.60107E+0	-15.9964E-3
-297.649E-6	-16.4149E-12	1.52911E+0	-8.76263E-3	-15.9263E-12	1.63284E+0	-24.0386E-3
-302.651E-6	-17.0049E-12	1.56357E+0	258.310E-6	-16.7592E-12	1.68123E+0	-11.2631E-3
-307.654E-6	-17.4261E-12	1.59809E+0	-2.38018E-3	-17.4499E-12	1.72624E+0	-5.71068E-3
-312.656E-6	-17.8423E-12	1.62207E+0	-16.4869E-3	-17.9471E-12	1.74652E+0	-4.78244E-3
-317.659E-6	-18.3165E-12	1.63700E+0	-28.3983E-3	-18.6220E-12	1.76592E+0	-4.27999E-3
-322.661E-6	-18.8325E-12	1.65186E+0	-18.9037E-3	-19.4441E-12	1.78348E+0	-10.8760E-3
-327.664E-6	-19.2834E-12	1.67180E+0	-1.84263E-3	-20.1917E-12	1.79838E+0	-20.1892E-3
-332.666E-6	-19.9683E-12	1.69512E+0	-1.53793E-3	-20.5410E-12	1.82967E+0	-23.5233E-3
-337.669E-6	-20.4921E-12	1.71957E+0	-6.78793E-3	-20.9883E-12	1.84565E+0	-19.4799E-3
-342.671E-6	-21.0786E-12	1.74565E+0	-6.60705E-3	-21.8337E-12	1.84599E+0	-13.7999E-3
-347.674E-6	-21.6894E-12	1.76164E+0	-2.47476E-3	-22.3118E-12	1.85428E+0	-11.3378E-3
-352.676E-6	-22.1841E-12	1.77163E+0	3.44911E-3	-22.1570E-12	1.85124E+0	-14.7622E-3
-357.679E-6	-22.6777E-12	1.79290E+0	-4.34828E-3	-22.9598E-12	1.83473E+0	-14.4724E-3
-362.681E-6	-23.7524E-12	1.81950E+0	-23.5271E-3	-23.5419E-12	1.83114E+0	-2.02633E-3
-367.684E-6	-24.4636E-12	1.84524E+0	-28.8591E-3	-23.8303E-12	1.84588E+0	3.52199E-3
-372.686E-6	-24.6566E-12	1.87074E+0	-28.4796E-3	-24.5065E-12	1.85378E+0	-11.9240E-3
-377.689E-6	-25.6192E-12	1.87883E+0	-29.8640E-3	-25.1489E-12	1.86946E+0	-28.3693E-3
-382.691E-6	-26.3988E-12	1.88047E+0	-19.1006E-3	-25.7295E-12	1.90898E+0	-31.5823E-3
-387.694E-6	-26.8923E-12	1.89736E+0	-5.67377E-3	-26.5908E-12	1.93748E+0	-28.0176E-3
-392.696E-6	-27.6386E-12	1.91016E+0	-4.46275E-3	-27.3704E-12	1.95713E+0	-17.3415E-3
-397.699E-6	-28.2811E-12	1.91638E+0	-5.50819E-3	-28.0479E-12	1.97723E+0	-18.1162E-3
-402.701E-6	-28.7155E-12	1.93043E+0	-7.60995E-3	-29.0408E-12	1.97774E+0	-31.7085E-3
-407.704E-6	-29.4633E-12	1.94041E+0	-21.2605E-3	-30.0224E-12	1.97768E+0	-35.7410E-3
-412.706E-6	-30.0646E-12	1.94694E+0	-27.1066E-3	-30.3512E-12	1.99018E+0	-40.9133E-3
-417.709E-6	-30.4591E-12	1.96211E+0	-10.4001E-3	-31.3197E-12	1.98185E+0	-46.3725E-3
-422.711E-6	-31.0797E-12	1.96196E+0	-6.96310E-3	-32.5008E-12	1.95045E+0	-38.8420E-3
-427.714E-6	-31.8361E-12	1.94347E+0	-16.7921E-3	-32.5826E-12	1.93000E+0	-25.3750E-3
-432.716E-6	-32.5468E-12	1.93112E+0	-16.6849E-3	-33.0019E-12	1.92942E+0	-15.5983E-3
-437.719E-6	-33.1717E-12	1.92461E+0	-27.4618E-3	-33.5239E-12	1.92866E+0	-5.30205E-3
-442.721E-6	-33.9567E-12	1.92640E+0	-40.5982E-3	-33.9243E-12	1.91755E+0	-647.488E-6
-447.724E-6	-34.7962E-12	1.93468E+0	-31.7741E-3	-34.3535E-12	1.90089E+0	-12.0722E-3
-452.726E-6	-35.0703E-12	1.94823E+0	-23.4058E-3	-34.6837E-12	1.88606E+0	-14.3797E-3
-457.729E-6	-35.9615E-12	1.96282E+0	-24.0107E-3	-35.1559E-12	1.88304E+0	-5.86998E-3
-462.731E-6	-36.7196E-12	1.96216E+0	-15.9567E-3	-35.9681E-12	1.88391E+0	-14.6788E-3
-467.734E-6	-36.8085E-12	1.94374E+0	-10.8155E-3	-36.8380E-12	1.87953E+0	-25.9405E-3
-472.736E-6	-37.6568E-12	1.91887E+0	-5.83900E-3	-37.1883E-12	1.87928E+0	-19.7488E-3
-477.739E-6	-38.6026E-12	1.89909E+0	-3.37626E-3	-37.9677E-12	1.87145E+0	-13.2871E-3
-482.741E-6	-38.5687E-12	1.89645E+0	-17.1504E-3	-39.0110E-12	1.85581E+0	-7.89203E-3
-487.744E-6	-39.0435E-12	1.89993E+0	-32.2354E-3	-39.5282E-12	1.84991E+0	-1.52694E-3
-492.746E-6	-39.8923E-12	1.86708E+0	-35.1898E-3	-40.2135E-12	1.83696E+0	-8.11352E-3
-497.749E-6	-40.3397E-12	1.82942E+0	-36.0221E-3	-41.4527E-12	1.80912E+0	-14.5346E-3
-502.751E-6	-40.7726E-12	1.82428E+0	-35.1834E-3	-42.1122E-12	1.79273E+0	-12.6556E-3
-507.754E-6	-41.5824E-12	1.81886E+0	-21.3141E-3	-41.9781E-12	1.77542E+0	-6.91918E-3
-512.756E-6	-42.2940E-12	1.80873E+0	-10.7772E-3	-42.9539E-12	1.74108E+0	-4.31511E-3
-517.759E-6	-42.8395E-12	1.79739E+0	-11.4286E-3	-43.5322E-12	1.71713E+0	-1.27352E-3
-522.761E-6	-43.6885E-12	1.77456E+0	-11.6817E-3	-43.5610E-12	1.68928E+0	10.5091E-3
-527.764E-6	-44.5144E-12	1.75153E+0	-7.92334E-3	-44.0806E-12	1.64817E+0	9.10848E-3
-532.766E-6	-45.3875E-12	1.74017E+0	-12.2990E-3	-44.7170E-12	1.62491E+0	-12.9643E-3
-537.769E-6	-45.6140E-12	1.73316E+0	-21.3157E-3	-45.3073E-12	1.62265E+0	-29.4152E-3
-542.771E-6	-46.1332E-12	1.71508E+0	-17.9530E-3	-45.4291E-12	1.60445E+0	-28.3755E-3
-547.774E-6	-46.6189E-12	1.68359E+0	-16.0813E-3	-45.5797E-12	1.55990E+0	-15.2800E-3
-552.776E-6	-47.3283E-12	1.65417E+0	-22.9593E-3	-46.4199E-12	1.52397E+0	-15.0034E-3
-557.779E-6	-47.0813E-12	1.63873E+0	-27.4679E-3	-47.0344E-12	1.51387E+0	-33.1007E-3
-562.781E-6	-47.7966E-12	1.62974E+0	-32.7919E-3	-47.6962E-12	1.51347E+0	-42.8150E-3
-567.784E-6	-48.4647E-12	1.60301E+0	-29.7064E-3	-48.6175E-12	1.49979E+0	-48.2443E-3
-572.786E-6	-48.8517E-12	1.55708E+0	-21.7609E-3	-50.0192E-12	1.45778E+0	-52.1593E-3
-577.789E-6	-49.2832E-12	1.51079E+0	-25.9775E-3	-50.4913E-12	1.41058E+0	-38.5832E-3
-582.791E-6	-50.0438E-12	1.49788E+0	-26.9288E-3	-50.8957E-12	1.38332E+0	-34.0822E-3
-587.794E-6	-50.0998E-12	1.50883E+0	-19.9831E-3	-51.5080E-12	1.36310E+0	-46.8744E-3
-592.796E-6	-50.1334E-12	1.48307E+0	-16.9028E-3	-52.0880E-12	1.33447E+0	-43.8840E-3
-597.799E-6	-51.3244E-12	1.43299E+0	-12.7535E-3	-52.2807E-12	1.29263E+0	-22.2344E-3
-602.801E-6	-51.7848E-12	1.40363E+0	-8.24474E-3	-52.6905E-12	1.25805E+0	-4.73485E-3
-607.804E-6	-52.0473E-12	1.38159E+0	-11.6833E-3	-52.9237E-12	1.22427E+0	-226.955E-6
-612.806E-6	-52.9853E-12	1.34759E+0	-20.8750E-3	-52.9636E-12	1.18958E+0	4.01744E-3
-617.809E-6	-54.1233E-12	1.31399E+0	-26.4163E-3	-53.4906E-12	1.16665E+0	3.41358E-3
-622.811E-6	-54.3242E-12	1.29336E+0	-29.0710E-3	-53.5530E-12	1.13651E+0	-15.8681E-3
-627.814E-6	-54.4655E-12	1.27915E+0	-26.0447E-3	-53.7015E-12	1.10605E+0	-42.5459E-3
-632.816E-6	-55.6357E-12	1.25361E+0	-8.08715E-3	-54.0307E-12	1.08477E+0	-42.4688E-3
-637.819E-6	-55.8392E-12	1.22004E+0	6.78816E-3	-55.0297E-12	1.06613E+0	-35.4277E-3
-642.821E-6	-55.7795E-12	1.19561E+0	2.12432E-3	-55.4906E-12	1.04752E+0	-40.4384E-3
-647.824E-6	-55.8853E-12	1.17476E+0	-8.25754E-3	-55.8026E-12	1.01095E+0	-26.5232E-3
-652.826E-6	-56.6915E-12	1.13626E+0	-5.85626E-3	-55.9955E-12	984.661E-3	-21.3920E-3
-657.829E-6	-56.1735E-12	1.10750E+0	-1.34427E-3	-56.7835E-12	989.410E-3	-38.1211E-3
-662.831E-6	-56.8832E-12	1.10117E+0	-7.81691E-3	-57.0946E-12	967.214E-3	-36.6935E-3
-667.834E-6	-57.0191E-12	1.07030E+0	-12.1078E-3	-57.7131E-12	910.625E-3	-13.2088E-3
-672.836E-6	-57.0368E-12	1.02182E+0	-8.68753E-3	-58.8775E-12	867.346E-3	6.05835E-3
-677.839E-6	-57.2388E-12	989.341E-3	-7.27822E-3	-58.2977E-12	833.628E-3	8.32489E-3
-682.841E-6	-58.1798E-12	958.756E-3	-12.6426E-3	-58.0753E-12	788.227E-3	-2.40811E-3
-687.844E-6	-58.1126E-12	925.274E-3	-26.8674E-3	-58.7200E-12	764.217E-3	-20.1070E-3
-692.846E-6	-58.6676E-12	903.818E-3	-38.4013E-3	-59.0237E-12	758.903E-3	-35.4468E-3
-697.849E-6	-59.5940E-12	883.877E-3	-28.5318E-3	-58.3202E-12	729.192E-3	-38.6569E-3
-702.851E-6	-59.9101E-12	857.222E-3	-22.6040E-3	-58.8099E-12	697.115E-3	-27.4649E-3
-707.854E-6	-59.8446E-12	828.907E-3	-23.0229E-3	-58.8739E-12	682.942E-3	-29.0923E-3
-712.856E-6	-60.2241E-12	804.444E-3	-6.40907E-3	-58.5778E-12	666.927E-3	-36.6286E-3
-717.859E-6	-59.8680E-12	789.237E-3	3.13064E-3	-58.7211E-12	648.626E-3	-17.9654E-3
-722.861E-6	-60.3977E-12	750.792E-3	-8.41109E-3	-59.7179E-12	640.703E-3	-2.05225E-3
-727.864E-6	-61.0216E-12	699.239E-3	-24.2469E-3	-59.9302E-12	620.025E-3	-4.78410E-3
-732.866E-6	-60.4763E-12	669.862E-3	-27.6981E-3	-60.6828E-12	583.818E-3	-7.50451E-3
-737.869E-6	-60.5618E-12	661.261E-3	-14.3654E-3	-61.3550E-12	568.066E-3	-13.9617E-3
-742.871E-6	-61.0379E-12	650.166E-3	2.64022E-3	-61.5146E-12	571.985E-3	-24.8923E-3
-747.874E-6	-61.1659E-12	620.766E-3	-1.90449E-3	-62.2791E-12	562.665E-3	-23.0677E-3
-752.876E-6	-61.0582E-12	602.087E-3	-18.3660E-3	-62.8729E-12	536.985E-3	-13.9525E-3
-757.879E-6	-61.3246E-12	593.581E-3	-25.0686E-3	-62.5208E-12	516.850E-3	-20.9706E-3
-762.881E-6	-60.6808E-12	582.058E-3	-33.2788E-3	-62.4420E-12	493.526E-3	-34.5698E-3
-767.884E-6	-61.1257E-12	556.196E-3	-37.9091E-3	-62.9045E-12	471.541E-3	-34.1628E-3
-772.886E-6	-62.0789E-12	516.497E-3	-29.5094E-3	-63.0447E-12	451.434E-3	-21.2249E-3
-777.889E-6	-62.3955E-12	500.486E-3	-26.6362E-3	-62.5103E-12	416.009E-3	-11.5844E-3
-782.891E-6	-62.1437E-12	488.367E-3	-24.1401E-3	-61.8147E-12	381.175E-3	1.37239E-3
-787.894E-6	-62.8063E-12	464.298E-3	-14.9559E-3	-61.9568E-12	371.712E-3	14.2189E-3
-792.896E-6	-63.2498E-12	450.641E-3	-9.16713E-3	-61.3935E-12	380.317E-3	-3.53666E-3
-797.899E-6	-63.2146E-12	439.455E-3	-2.56399E-3	-61.3417E-12	376.549E-3	-24.9869E-3
-802.901E-6	-63.5824E-12	421.645E-3	-4.42726E-3	-61.6402E-12	351.458E-3	-27.7533E-3
-807.904E-6	-64.2462E-12	401.204E-3	-12.6565E-3	-61.9433E-12	326.217E-3	-37.1073E-3
-812.906E-6	-63.9022E-12	379.145E-3	-11.1803E-3	-61.8294E-12	308.703E-3	-28.4333E-3
-817.909E-6	-63.1445E-12	362.213E-3	-6.29978E-3	-62.0576E-12	304.197E-3	-1.65499E-3
-822.911E-6	-63.6133E-12	354.265E-3	-9.04232E-3	-62.8619E-12	304.986E-3	-2.05043E-3
-827.914E-6	-63.7966E-12	342.968E-3	-27.9127E-3	-63.6177E-12	281.707E-3	-5.05021E-3
-832.916E-6	-63.7078E-12	329.842E-3	-45.4946E-3	-64.3985E-12	265.459E-3	11.4809E-3
-837.919E-6	-62.6763E-12	321.425E-3	-40.2596E-3	-64.3319E-12	267.962E-3	8.29100E-3
-842.921E-6	-63.3087E-12	311.199E-3	-12.3103E-3	-64.7307E-12	255.779E-3	-12.3385E-3
-847.924E-6	-63.7313E-12	300.897E-3	11.3038E-3	-65.2005E-12	243.105E-3	-12.8750E-3
-852.926E-6	-62.8679E-12	284.844E-3	-503.095E-6	-65.0815E-12	242.300E-3	7.08885E-3
-857.929E-6	-63.5547E-12	253.517E-3	-26.7261E-3	-64.8448E-12	238.239E-3	19.4253E-3
-862.931E-6	-64.8545E-12	241.341E-3	-32.5442E-3	-64.4752E-12	231.389E-3	19.8663E-3
-867.934E-6	-64.4618E-12	259.107E-3	-22.6796E-3	-64.4320E-12	229.181E-3	29.6587E-3
-872.936E-6	-64.8311E-12	270.013E-3	-12.1639E-3	-64.1219E-12	221.343E-3	24.7072E-3
-877.939E-6	-65.3574E-12	259.753E-3	-6.62656E-3	-63.5620E-12	212.329E-3	3.86853E-3
-882.941E-6	-65.3088E-12	230.064E-3	-22.2727E-3	-63.2202E-12	200.986E-3	1.72316E-3
-887.944E-6	-66.0226E-12	209.890E-3	-40.5444E-3	-63.9019E-12	192.331E-3	717.695E-6
-892.946E-6	-65.2011E-12	212.590E-3	-37.9051E-3	-63.5752E-12	190.199E-3	-7.90559E-3
-897.949E-6	-65.9082E-12	216.836E-3	-36.4848E-3	-62.8459E-12	193.964E-3	-10.5935E-3
-902.951E-6	-65.8857E-12	216.372E-3	-41.9493E-3	-63.7906E-12	199.447E-3	-1.02786E-3
-907.954E-6	-65.1932E-12	205.332E-3	-42.5286E-3	-64.9033E-12	180.934E-3	5.83797E-3
-912.956E-6	-64.8791E-12	190.052E-3	-38.7533E-3	-64.4662E-12	156.799E-3	-12.4737E-3
-917.959E-6	-65.7734E-12	185.302E-3	-35.7672E-3	-65.2351E-12	161.827E-3	-25.3669E-3
-922.961E-6	-64.8691E-12	185.211E-3	-30.9532E-3	-65.8167E-12	162.866E-3	-12.2156E-3
-927.964E-6	-64.5888E-12	179.082E-3	-25.9363E-3	-66.0764E-12	157.375E-3	-5.76504E-3
-932.966E-6	-65.4465E-12	167.261E-3	-19.9381E-3	-66.6313E-12	173.421E-3	-18.2890E-3
-937.969E-6	-64.7866E-12	168.530E-3	-3.11975E-3	-67.2896E-12	177.258E-3	-23.0966E-3
-942.971E-6	-64.8301E-12	175.082E-3	8.65619E-3	-67.4346E-12	167.936E-3	-14.0932E-3
-947.974E-6	-65.5901E-12	170.224E-3	-4.57098E-3	-67.5000E-12	171.895E-3	-9.22954E-3
-952.976E-6	-65.9581E-12	167.378E-3	-16.8314E-3	-67.5737E-12	167.859E-3	-10.0188E-3
-957.979E-6	-65.3336E-12	163.316E-3	-18.2456E-3	-67.0188E-12	140.504E-3	-13.8112E-3
-962.981E-6	-66.0759E-12	157.035E-3	-20.2558E-3	-67.2697E-12	127.948E-3	-20.5151E-3
-967.984E-6	-66.3709E-12	157.373E-3	-12.3565E-3	-66.3293E-12	140.107E-3	-32.6660E-3
-972.986E-6	-66.0071E-12	145.795E-3	-10.1261E-3	-66.0286E-12	148.678E-3	-40.0415E-3
-977.989E-6	-66.3714E-12	128.619E-3	-27.2420E-3	-65.7744E-12	160.781E-3	-23.1972E-3
-982.991E-6	-67.2661E-12	133.953E-3	-38.2489E-3	-65.5236E-12	171.693E-3	-8.51396E-3
-987.994E-6	-66.1697E-12	141.097E-3	-25.1179E-3	-65.3749E-12	167.351E-3	-16.0038E-3
-992.997E-6	-65.6464E-12	149.001E-3	-11.0058E-3	-65.6017E-12	161.752E-3	-28.6070E-3
-997.999E-6	-66.0438E-12	178.082E-3	-17.6372E-3	-66.2604E-12	165.954E-3	-38.5635E-3
-1.00300E-3	-65.9479E-12	177.304E-3	-25.4570E-3	-66.0398E-12	165.302E-3	-44.3340E-3
-1.00800E-3	-65.2522E-12	143.974E-3	-26.9297E-3	-65.9864E-12	156.511E-3	-41.6683E-3
-1.01301E-3	-66.4806E-12	151.546E-3	-25.6249E-3	-66.5000E-12	165.033E-3	-41.3449E-3
-1.01801E-3	-66.5154E-12	183.649E-3	-27.5290E-3	-67.0843E-12	182.108E-3	-44.5998E-3
-1.02301E-3	-65.5933E-12	179.818E-3	-39.4524E-3	-66.5212E-12	192.082E-3	-32.6308E-3
-1.02801E-3	-66.4288E-12	158.800E-3	-35.9838E-3	-66.6427E-12	194.627E-3	-12.0832E-3
-1.03302E-3	-67.2847E-12	153.816E-3	-21.1453E-3	-67.1707E-12	190.976E-3	-8.14183E-3
-1.03802E-3	-67.0008E-12	154.109E-3	-16.7134E-3	-67.2971E-12	178.831E-3	-28.6274E-3
-1.04302E-3	-67.0121E-12	165.956E-3	-5.05699E-3	-66.6720E-12	169.003E-3	-50.1598E-3
-1.04802E-3	-67.4755E-12	172.679E-3	9.62363E-3	-66.2106E-12	188.666E-3	-58.6556E-3
-1.05303E-3	-67.4294E-12	160.432E-3	2.70196E-3	-66.5067E-12	211.313E-3	-48.9376E-3
-1.05803E-3	-67.3774E-12	171.380E-3	-9.06296E-3	-67.1182E-12	210.868E-3	-33.8615E-3
-1.06303E-3	-67.1895E-12	191.653E-3	-12.0475E-3	-66.3452E-12	211.504E-3	-33.6118E-3
-1.06803E-3	-67.4397E-12	187.875E-3	-21.3462E-3	-66.3446E-12	207.176E-3	-36.7185E-3
-1.07304E-3	-67.8438E-12	184.768E-3	-26.3264E-3	-66.6007E-12	202.287E-3	-40.1565E-3
-1.07804E-3	-66.5179E-12	195.015E-3	-14.6710E-3	-66.5650E-12	223.135E-3	-42.8858E-3
-1.08304E-3	-66.5399E-12	195.887E-3	-12.3402E-3	-66.7617E-12	233.509E-3	-35.1484E-3
-1.08804E-3	-67.6803E-12	194.792E-3	-14.7348E-3	-67.8023E-12	224.302E-3	-21.4464E-3
-1.09305E-3	-67.0500E-12	203.338E-3	2.52816E-3	-67.4676E-12	241.310E-3	-7.40132E-3
-1.09805E-3	-66.2055E-12	207.341E-3	14.1139E-3	-67.4429E-12	270.899E-3	-914.760E-6
-1.10305E-3	-67.0067E-12	215.169E-3	-3.02215E-3	-67.7302E-12	273.201E-3	-13.2898E-3
-1.10805E-3	-67.1987E-12	225.001E-3	-12.5020E-3	-68.3189E-12	263.936E-3	-29.3103E-3
-1.11306E-3	-66.7286E-12	214.891E-3	182.373E-6	-67.5043E-12	266.885E-3	-30.0795E-3
-1.11806E-3	-67.3344E-12	212.259E-3	-1.19724E-3	-67.9560E-12	277.148E-3	-13.6834E-3
-1.12306E-3	-68.0056E-12	233.273E-3	-9.43381E-3	-68.1903E-12	289.952E-3	-6.27727E-3
-1.12806E-3	-67.6801E-12	256.896E-3	-12.5448E-3	-67.8498E-12	304.119E-3	-20.1017E-3
-1.13307E-3	-68.3794E-12	279.237E-3	-14.1297E-3	-67.9552E-12	302.404E-3	-30.9772E-3
-1.13807E-3	-69.4661E-12	301.839E-3	-45.7769E-6	-68.6111E-12	294.336E-3	-23.4904E-3
-1.14307E-3	-68.2943E-12	312.282E-3	9.23875E-3	-67.9323E-12	301.099E-3	-10.8892E-3
-1.14807E-3	-68.5881E-12	305.195E-3	-3.62610E-3	-67.5495E-12	309.002E-3	-13.4553E-3
-1.15308E-3	-69.5442E-12	307.528E-3	-16.8483E-3	-68.2065E-12	312.194E-3	-17.8878E-3
-1.15808E-3	-69.0243E-12	308.119E-3	-23.2870E-3	-68.5560E-12	323.622E-3	-17.4971E-3
-1.16308E-3	-68.3244E-12	303.962E-3	-21.7987E-3	-67.9744E-12	338.402E-3	-29.6710E-3
-1.16808E-3	-68.0841E-12	314.810E-3	-19.7681E-3	-68.4957E-12	353.970E-3	-40.9511E-3
-1.17309E-3	-67.9438E-12	317.647E-3	-24.1124E-3	-68.6896E-12	389.320E-3	-28.2320E-3
-1.17809E-3	-67.7682E-12	316.529E-3	-35.2175E-3	-68.6621E-12	411.346E-3	-18.4390E-3
-1.18309E-3	-68.0264E-12	329.206E-3	-32.0279E-3	-69.6693E-12	398.078E-3	-20.3381E-3
-1.18809E-3	-67.5770E-12	348.916E-3	-5.82970E-3	-69.8738E-12	391.545E-3	-23.1480E-3
-1.19310E-3	-67.7776E-12	370.575E-3	-6.83802E-3	-69.5448E-12	399.832E-3	-33.7845E-3
-1.19810E-3	-68.7922E-12	380.329E-3	-14.9857E-3	-70.1777E-12	414.260E-3	-46.6196E-3
-1.20310E-3	-69.4020E-12	373.438E-3	-6.22197E-3	-70.7000E-12	441.627E-3	-47.3355E-3
-1.20810E-3	-69.1998E-12	370.408E-3	-13.3533E-3	-69.9345E-12	459.860E-3	-32.7796E-3
-1.21311E-3	-69.7905E-12	370.728E-3	-10.7262E-3	-70.1020E-12	461.960E-3	-27.9021E-3
-1.21811E-3	-70.4572E-12	379.263E-3	11.9178E-3	-70.6063E-12	479.298E-3	-24.3549E-3
-1.22311E-3	-70.4398E-12	406.964E-3	17.1943E-3	-69.5477E-12	509.889E-3	-13.7173E-3
-1.22811E-3	-70.6257E-12	433.532E-3	-2.77703E-3	-70.0199E-12	521.188E-3	-2.40916E-3
-1.23312E-3	-72.2327E-12	446.360E-3	-35.6560E-3	-70.6315E-12	517.904E-3	8.33408E-3
-1.23812E-3	-71.8087E-12	464.657E-3	-49.8773E-3	-70.0675E-12	524.246E-3	-10.3219E-3
-1.24312E-3	-71.1081E-12	483.081E-3	-19.4998E-3	-70.8104E-12	535.157E-3	-38.9593E-3
-1.24812E-3	-71.2245E-12	487.515E-3	23.1641E-3	-71.1243E-12	541.181E-3	-23.7764E-3
-1.25313E-3	-71.5153E-12	505.132E-3	19.3455E-3	-71.0949E-12	558.103E-3	-8.53567E-3
-1.25813E-3	-71.2042E-12	529.428E-3	-9.77463E-3	-71.3635E-12	570.381E-3	-20.8319E-3
-1.26313E-3	-71.5512E-12	536.084E-3	-18.7825E-3	-72.2196E-12	573.268E-3	-19.8558E-3
-1.26813E-3	-71.2956E-12	524.056E-3	-23.8978E-3	-72.8105E-12	600.193E-3	-21.3702E-3
-1.27314E-3	-71.0080E-12	523.781E-3	-37.0308E-3	-73.0109E-12	633.362E-3	-32.9284E-3
-1.27814E-3	-71.0956E-12	554.552E-3	-37.1956E-3	-73.1709E-12	650.386E-3	-29.9646E-3
-1.28314E-3	-71.4202E-12	580.724E-3	-18.2371E-3	-73.6826E-12	661.054E-3	-19.9483E-3
-1.28814E-3	-71.3964E-12	598.599E-3	-8.38283E-3	-73.3972E-12	663.524E-3	-31.1921E-3
-1.29315E-3	-71.7285E-12	618.585E-3	-2.36576E-3	-73.6683E-12	657.859E-3	-45.8805E-3
-1.29815E-3	-72.3314E-12	626.967E-3	10.0080E-3	-73.3789E-12	670.849E-3	-36.5918E-3
-1.30315E-3	-72.6075E-12	637.778E-3	4.41764E-3	-72.9020E-12	704.102E-3	-28.8991E-3
-1.30815E-3	-72.9240E-12	638.720E-3	-14.4686E-3	-73.0739E-12	713.201E-3	-17.1546E-3
-1.31316E-3	-73.8791E-12	624.947E-3	-20.1932E-3	-72.5585E-12	706.399E-3	-2.97840E-3
-1.31816E-3	-74.0572E-12	636.429E-3	-18.2684E-3	-71.9753E-12	723.317E-3	-16.5460E-3
-1.32316E-3	-74.1880E-12	656.520E-3	-5.20745E-3	-72.5702E-12	729.702E-3	-37.4091E-3
-1.32816E-3	-74.5370E-12	666.503E-3	16.1375E-3	-73.2675E-12	712.596E-3	-27.1092E-3
-1.33317E-3	-74.9534E-12	686.367E-3	4.49273E-3	-72.8318E-12	719.541E-3	-11.6199E-3
-1.33817E-3	-74.7555E-12	708.878E-3	-14.0550E-3	-73.2188E-12	743.754E-3	-23.4382E-3
-1.34317E-3	-74.6873E-12	710.940E-3	-15.4657E-3	-74.5574E-12	758.517E-3	-21.9814E-3
-1.34817E-3	-74.5405E-12	712.075E-3	-26.9630E-3	-75.0480E-12	782.117E-3	4.44316E-3
-1.35318E-3	-74.9823E-12	747.166E-3	-30.0613E-3	-75.3236E-12	809.619E-3	12.4733E-3
-1.35818E-3	-74.8671E-12	780.754E-3	-26.8428E-3	-75.9001E-12	814.310E-3	-1.16596E-3
-1.36318E-3	-74.5063E-12	771.463E-3	-36.1723E-3	-76.6944E-12	803.856E-3	-4.29329E-3
-1.36818E-3	-74.6974E-12	768.416E-3	-39.7813E-3	-77.7131E-12	791.488E-3	-3.52982E-3
-1.37319E-3	-75.6130E-12	783.028E-3	-20.8143E-3	-77.1789E-12	792.868E-3	-21.8399E-3
-1.37819E-3	-75.6439E-12	783.194E-3	-4.75501E-3	-77.2627E-12	814.887E-3	-37.4013E-3
-1.38319E-3	-76.5821E-12	791.445E-3	-15.7279E-3	-77.6256E-12	830.742E-3	-27.2483E-3
-1.38819E-3	-77.1043E-12	796.484E-3	-32.8497E-3	-77.1976E-12	818.862E-3	-18.8404E-3
-1.39320E-3	-77.5631E-12	790.215E-3	-43.4968E-3	-76.7940E-12	813.833E-3	-12.0673E-3
-1.39820E-3	-77.6873E-12	806.057E-3	-45.7782E-3	-76.9262E-12	841.604E-3	-1.90070E-3
-1.40320E-3	-78.5789E-12	823.817E-3	-18.9707E-3	-76.8840E-12	864.875E-3	-20.6264E-3
-1.40820E-3	-78.8822E-12	831.645E-3	1.94320E-3	-76.6707E-12	874.838E-3	-36.0370E-3
-1.41321E-3	-78.5971E-12	849.364E-3	-9.01115E-3	-76.6042E-12	886.803E-3	-34.3997E-3
-1.41821E-3	-78.9273E-12	857.201E-3	-10.3608E-3	-76.6604E-12	901.782E-3	-45.4420E-3
-1.42321E-3	-79.6526E-12	847.226E-3	-8.74787E-3	-77.2258E-12	918.857E-3	-39.1511E-3
-1.42821E-3	-79.2955E-12	839.710E-3	-8.37031E-3	-78.0217E-12	928.753E-3	-6.34102E-3
-1.43322E-3	-79.8174E-12	843.175E-3	-2.10495E-3	-78.6566E-12	915.123E-3	12.9815E-3
-1.43822E-3	-80.1390E-12	862.303E-3	-9.63279E-3	-79.6383E-12	899.245E-3	-1.96308E-3
-1.44322E-3	-79.9340E-12	886.849E-3	-12.3239E-3	-80.9695E-12	906.687E-3	-22.7272E-3
-1.44822E-3	-80.0398E-12	889.221E-3	-1.41999E-3	-81.3341E-12	928.629E-3	-20.3476E-3
-1.45323E-3	-81.0231E-12	877.501E-3	-8.71133E-3	-82.5550E-12	941.006E-3	-15.1856E-3
-1.45823E-3	-81.1172E-12	881.293E-3	-29.0715E-3	-83.2117E-12	922.605E-3	-21.5430E-3
-1.46323E-3	-81.2101E-12	881.792E-3	-29.1822E-3	-82.9544E-12	900.631E-3	-26.7821E-3
-1.46823E-3	-81.8055E-12	882.002E-3	-9.88704E-3	-83.2764E-12	900.448E-3	-32.7258E-3
-1.47324E-3	-82.8914E-12	901.880E-3	-1.55323E-3	-84.4283E-12	911.694E-3	-40.1029E-3
-1.47824E-3	-82.3789E-12	914.894E-3	-16.8627E-3	-83.2870E-12	918.477E-3	-49.4611E-3
-1.48324E-3	-83.2330E-12	913.079E-3	-39.2117E-3	-82.5604E-12	906.704E-3	-57.8530E-3
-1.48824E-3	-84.3411E-12	909.942E-3	-45.2989E-3	-83.3275E-12	887.543E-3	-49.1363E-3
-1.49325E-3	-83.9117E-12	893.928E-3	-42.9802E-3	-82.5813E-12	886.992E-3	-31.6753E-3
-1.49825E-3	-84.1215E-12	876.245E-3	-43.4169E-3	-82.4535E-12	886.630E-3	-33.2891E-3
-1.50325E-3	-84.3051E-12	883.454E-3	-36.3431E-3	-82.8174E-12	871.841E-3	-28.6288E-3
-1.50825E-3	-84.3561E-12	912.160E-3	-26.4954E-3	-82.5466E-12	881.816E-3	-8.96452E-3
-1.51326E-3	-84.1319E-12	923.787E-3	-23.0541E-3	-83.5521E-12	916.012E-3	-14.3094E-3
-1.51826E-3	-84.3300E-12	900.841E-3	-36.3033E-3	-84.9388E-12	945.623E-3	-27.8336E-3
-1.52326E-3	-84.6195E-12	884.026E-3	-42.2156E-3	-84.1832E-12	950.137E-3	-28.5219E-3
-1.52826E-3	-85.2340E-12	884.325E-3	-20.5954E-3	-85.6830E-12	922.709E-3	-31.9623E-3
-1.53327E-3	-85.1516E-12	898.732E-3	-12.3489E-3	-86.2101E-12	903.951E-3	-35.8953E-3
-1.53827E-3	-85.2792E-12	912.908E-3	-14.9987E-3	-86.2017E-12	905.483E-3	-34.5790E-3
-1.54327E-3	-85.7990E-12	910.721E-3	-15.0344E-3	-87.3416E-12	908.562E-3	-31.5822E-3
-1.54827E-3	-86.5613E-12	915.034E-3	-22.8692E-3	-88.0327E-12	908.076E-3	-23.5979E-3
-1.55328E-3	-86.9139E-12	923.529E-3	-32.6309E-3	-87.7572E-12	894.994E-3	-9.79999E-3
-1.55828E-3	-87.3475E-12	915.677E-3	-42.0674E-3	-88.0327E-12	872.534E-3	-1.67544E-3
-1.56328E-3	-88.0905E-12	906.108E-3	-40.0115E-3	-88.3105E-12	863.035E-3	735.091E-6
-1.56828E-3	-88.9602E-12	915.272E-3	-32.6692E-3	-87.5143E-12	872.355E-3	4.27725E-3
-1.57329E-3	-89.2819E-12	914.834E-3	-43.8909E-3	-88.4660E-12	889.412E-3	-5.41844E-3
-1.57829E-3	-89.8679E-12	884.718E-3	-43.7937E-3	-88.4984E-12	900.226E-3	-35.6887E-3
-1.58329E-3	-89.8990E-12	862.399E-3	-16.6740E-3	-88.0319E-12	902.240E-3	-41.1253E-3
-1.58829E-3	-90.1921E-12	870.890E-3	-6.45360E-3	-88.7534E-12	899.399E-3	-24.7031E-3
-1.59330E-3	-89.5055E-12	891.804E-3	-14.5446E-3	-89.2050E-12	889.684E-3	-37.3059E-3
-1.59830E-3	-89.3700E-12	904.306E-3	-10.2184E-3	-88.4821E-12	884.086E-3	-51.0507E-3
-1.60330E-3	-89.4403E-12	901.770E-3	2.30737E-3	-89.8887E-12	888.899E-3	-40.5027E-3
-1.60830E-3	-89.2151E-12	898.222E-3	852.975E-6	-90.7757E-12	890.655E-3	-26.3145E-3
-1.61331E-3	-89.0651E-12	899.285E-3	-10.1595E-3	-90.3114E-12	888.505E-3	-10.2794E-3
-1.61831E-3	-89.1225E-12	879.827E-3	-18.3826E-3	-91.7018E-12	877.635E-3	-11.7906E-3
-1.62331E-3	-89.4304E-12	857.337E-3	-20.7201E-3	-92.1022E-12	866.671E-3	-27.4648E-3
-1.62831E-3	-89.8539E-12	868.040E-3	-6.67299E-3	-91.9368E-12	865.409E-3	-29.8656E-3
-1.63332E-3	-90.6504E-12	886.109E-3	12.8328E-3	-92.2194E-12	864.509E-3	-19.7021E-3
-1.63832E-3	-90.9279E-12	881.484E-3	2.85188E-3	-92.7729E-12	866.449E-3	-13.2174E-3
-1.64332E-3	-91.7138E-12	860.389E-3	-23.0302E-3	-92.8546E-12	865.526E-3	-21.2506E-3
-1.64832E-3	-92.2662E-12	830.009E-3	-11.6940E-3	-92.5397E-12	851.713E-3	-24.6005E-3
-1.65333E-3	-93.2152E-12	823.875E-3	11.9186E-3	-92.9312E-12	850.146E-3	-25.6743E-3
-1.65833E-3	-93.7212E-12	864.268E-3	3.33425E-3	-92.6480E-12	852.953E-3	-33.6679E-3
-1.66333E-3	-94.6141E-12	891.956E-3	-8.61038E-3	-91.9790E-12	840.255E-3	-31.9193E-3
-1.66833E-3	-94.9196E-12	886.203E-3	-11.3821E-3	-92.4837E-12	835.433E-3	-23.2068E-3
-1.67334E-3	-95.0281E-12	882.257E-3	-15.8035E-3	-93.4334E-12	841.712E-3	-9.77576E-3
-1.67834E-3	-95.5641E-12	864.917E-3	1.95734E-3	-93.5078E-12	856.838E-3	3.97558E-3
-1.68334E-3	-94.7929E-12	837.615E-3	10.4052E-3	-94.0261E-12	872.253E-3	2.91880E-3
-1.68834E-3	-94.4827E-12	840.827E-3	-16.9162E-3	-95.2182E-12	861.419E-3	-11.7057E-3
-1.69335E-3	-94.6330E-12	856.056E-3	-11.3791E-3	-95.7869E-12	831.466E-3	-23.2816E-3
-1.69835E-3	-94.5483E-12	841.971E-3	19.7268E-3	-96.5072E-12	814.617E-3	-25.2131E-3
-1.70335E-3	-94.4666E-12	831.600E-3	24.3324E-3	-96.8657E-12	818.479E-3	-17.1049E-3
-1.70835E-3	-94.9122E-12	838.053E-3	14.0728E-3	-97.3816E-12	831.375E-3	5.58860E-3
-1.71336E-3	-95.1344E-12	826.141E-3	-9.99240E-3	-97.7602E-12	821.497E-3	22.1356E-3
-1.71836E-3	-95.4972E-12	818.549E-3	-31.6345E-3	-97.9231E-12	793.836E-3	8.06975E-3
-1.72336E-3	-95.6637E-12	825.471E-3	-24.4024E-3	-97.8371E-12	784.738E-3	-14.4034E-3
-1.72836E-3	-96.1419E-12	825.060E-3	-15.0646E-3	-97.0595E-12	788.992E-3	-24.0635E-3
-1.73337E-3	-96.8345E-12	836.726E-3	-11.3765E-3	-97.7450E-12	789.890E-3	-11.8342E-3
-1.73837E-3	-97.4226E-12	855.623E-3	-5.20471E-3	-96.7015E-12	786.665E-3	6.93231E-3
-1.74337E-3	-98.2840E-12	848.536E-3	-30.3161E-3	-96.2591E-12	785.391E-3	2.32501E-3
-1.74837E-3	-98.8051E-12	839.477E-3	-56.4893E-3	-96.0524E-12	785.055E-3	-2.31676E-3
-1.75338E-3	-99.8098E-12	847.862E-3	-33.2187E-3	-96.7640E-12	779.763E-3	3.38235E-3
-1.75838E-3	-99.8334E-12	840.046E-3	-7.15878E-3	-96.0789E-12	779.391E-3	-1.40182E-3
-1.76338E-3	-99.8436E-12	834.361E-3	-20.5961E-3	-97.1336E-12	791.606E-3	-13.3434E-3
-1.76838E-3	-100.575E-12	840.116E-3	-28.5080E-3	-97.8741E-12	795.581E-3	-25.4314E-3
-1.77339E-3	-101.058E-12	826.609E-3	-17.4824E-3	-98.9029E-12	794.280E-3	-31.9390E-3
-1.77839E-3	-99.8804E-12	804.078E-3	-16.4700E-3	-100.062E-12	804.505E-3	-32.2417E-3
-1.78339E-3	-99.8232E-12	808.971E-3	-13.1938E-3	-100.724E-12	810.690E-3	-28.6491E-3
-1.78839E-3	-100.259E-12	820.506E-3	-6.07377E-3	-101.007E-12	809.433E-3	-18.4424E-3
-1.79340E-3	-99.6068E-12	807.613E-3	-24.3881E-3	-102.612E-12	796.536E-3	-12.9705E-3
-1.79840E-3	-100.106E-12	798.079E-3	-51.3758E-3	-102.462E-12	774.489E-3	-18.9421E-3
-1.80340E-3	-100.929E-12	784.724E-3	-45.8239E-3	-102.414E-12	765.555E-3	-14.8372E-3
-1.80840E-3	-101.131E-12	778.414E-3	-45.7496E-3	-102.920E-12	780.635E-3	-20.5229E-3
-1.81341E-3	-101.098E-12	797.866E-3	-60.2049E-3	-102.388E-12	796.152E-3	-56.9671E-3
-1.81841E-3	-101.773E-12	801.552E-3	-44.4081E-3	-101.988E-12	785.132E-3	-63.1168E-3
-1.82341E-3	-102.067E-12	789.323E-3	-26.5385E-3	-102.412E-12	779.139E-3	-18.0698E-3
-1.82841E-3	-101.782E-12	783.103E-3	-20.0837E-3	-101.493E-12	786.081E-3	13.8694E-3
-1.83342E-3	-102.955E-12	785.872E-3	3.98586E-3	-100.649E-12	769.661E-3	24.1184E-3
-1.83842E-3	-103.319E-12	790.557E-3	13.8508E-3	-101.420E-12	763.412E-3	29.5608E-3
-1.84342E-3	-103.074E-12	792.331E-3	-12.9730E-3	-100.781E-12	785.397E-3	9.33077E-3
-1.84842E-3	-104.591E-12	786.925E-3	-27.6076E-3	-101.102E-12	787.352E-3	-24.6671E-3
-1.85343E-3	-104.760E-12	766.681E-3	-10.4455E-3	-101.662E-12	772.949E-3	-31.9968E-3
-1.85843E-3	-104.148E-12	766.663E-3	12.7635E-3	-102.601E-12	768.139E-3	-2.14687E-3
-1.86343E-3	-104.088E-12	783.532E-3	15.5033E-3	-103.638E-12	758.847E-3	12.7161E-3
-1.86843E-3	-104.092E-12	769.454E-3	-17.4297E-3	-104.223E-12	759.387E-3	-7.17352E-3
-1.87344E-3	-103.738E-12	746.551E-3	-52.2214E-3	-106.161E-12	773.868E-3	-6.68519E-3
-1.87844E-3	-104.148E-12	726.347E-3	-38.6440E-3	-107.266E-12	770.580E-3	5.89354E-3
-1.88344E-3	-104.000E-12	711.758E-3	-14.2976E-3	-107.284E-12	750.926E-3	3.14123E-3
-1.88844E-3	-104.294E-12	726.469E-3	-31.9488E-3	-107.441E-12	745.421E-3	-9.40307E-3
-1.89345E-3	-104.638E-12	748.752E-3	-47.5413E-3	-108.126E-12	761.468E-3	-31.9328E-3
-1.89845E-3	-105.272E-12	737.567E-3	-40.5601E-3	-108.256E-12	756.449E-3	-48.0620E-3
-1.90345E-3	-105.726E-12	718.575E-3	-42.2802E-3	-108.376E-12	736.061E-3	-50.9116E-3
-1.90845E-3	-106.861E-12	725.988E-3	-32.9520E-3	-106.960E-12	732.726E-3	-48.7010E-3
-1.91346E-3	-106.912E-12	732.976E-3	-9.72775E-3	-107.098E-12	737.689E-3	-31.9275E-3
-1.91846E-3	-107.420E-12	742.083E-3	-17.5609E-3	-106.781E-12	746.076E-3	-7.87250E-3
-1.92346E-3	-107.557E-12	757.236E-3	-44.5009E-3	-105.608E-12	753.126E-3	-9.85520E-3
-1.92846E-3	-108.168E-12	750.116E-3	-50.0899E-3	-105.601E-12	746.261E-3	-18.5439E-3
-1.93347E-3	-107.977E-12	745.778E-3	-45.7700E-3	-106.570E-12	753.843E-3	-18.9213E-3
-1.93847E-3	-108.166E-12	762.531E-3	-43.7112E-3	-106.460E-12	773.909E-3	-23.3213E-3
-1.94347E-3	-107.570E-12	759.963E-3	-49.2882E-3	-106.211E-12	756.695E-3	-14.1470E-3
-1.94847E-3	-107.506E-12	745.604E-3	-61.1053E-3	-107.446E-12	734.417E-3	3.00232E-3
-1.95348E-3	-108.234E-12	737.402E-3	-48.2124E-3	-108.452E-12	745.831E-3	5.63762E-3
-1.95848E-3	-108.178E-12	735.603E-3	-32.2531E-3	-108.553E-12	749.771E-3	9.99363E-3
-1.96348E-3	-108.534E-12	749.972E-3	-30.5236E-3	-109.740E-12	743.964E-3	18.8589E-3
-1.96848E-3	-108.883E-12	764.450E-3	-24.5564E-3	-110.685E-12	745.363E-3	14.5078E-3
-1.97349E-3	-109.315E-12	754.227E-3	-23.0374E-3	-110.779E-12	730.121E-3	8.52801E-3
-1.97849E-3	-109.796E-12	723.906E-3	-26.7309E-3	-110.652E-12	717.872E-3	8.90564E-3
-1.98349E-3	-110.507E-12	710.722E-3	-22.3831E-3	-111.406E-12	732.118E-3	6.26324E-3
-1.98849E-3	-110.594E-12	715.115E-3	-1.89821E-3	-111.457E-12	735.101E-3	4.18212E-3
-1.99350E-3	-111.952E-12	720.456E-3	-6.47418E-3	-111.495E-12	727.968E-3	-6.84591E-3
-1.99850E-3	-112.457E-12	738.736E-3	-30.2843E-3	-110.848E-12	727.621E-3	-37.6559E-3
-2.00350E-3	-112.185E-12	739.813E-3	-27.3403E-3	-110.909E-12	714.744E-3	-50.3948E-3
-2.00850E-3	-113.027E-12	727.357E-3	-24.9352E-3	-111.491E-12	707.594E-3	-30.9388E-3
-2.01351E-3	-113.953E-12	752.354E-3	-27.3550E-3	-111.352E-12	723.615E-3	-13.3736E-3
-2.01851E-3	-112.729E-12	786.109E-3	-19.2188E-3	-111.156E-12	732.711E-3	-29.7719E-3
-2.02351E-3	-113.273E-12	794.505E-3	-37.3602E-3	-111.121E-12	732.643E-3	-37.7239E-3
-2.02851E-3	-113.332E-12	786.630E-3	-63.3919E-3	-111.574E-12	739.703E-3	-14.2852E-3
-2.03352E-3	-112.486E-12	770.245E-3	-49.6830E-3	-111.971E-12	742.277E-3	-11.8810E-3
-2.03852E-3	-111.485E-12	752.434E-3	-44.6341E-3	-112.620E-12	727.157E-3	-21.3759E-3
-2.04352E-3	-111.919E-12	742.968E-3	-51.6196E-3	-112.952E-12	714.006E-3	-26.4768E-3
-2.04852E-3	-112.273E-12	725.000E-3	-32.0833E-3	-113.691E-12	729.111E-3	-31.2121E-3
-2.05353E-3	-112.302E-12	681.050E-3	-18.5082E-3	-113.952E-12	721.354E-3	-25.0417E-3
-2.05853E-3	-112.447E-12	663.503E-3	-19.6212E-3	-114.597E-12	688.820E-3	-15.5466E-3
-2.06353E-3	-113.860E-12	702.150E-3	-2.56951E-3	-114.965E-12	691.263E-3	-17.2402E-3
-2.06853E-3	-113.661E-12	739.022E-3	11.6115E-3	-114.389E-12	689.695E-3	-20.7878E-3
-2.07354E-3	-114.424E-12	742.750E-3	-993.573E-6	-115.018E-12	684.523E-3	-13.2341E-3
-2.07854E-3	-115.408E-12	724.770E-3	-10.8746E-3	-115.175E-12	717.063E-3	-19.8992E-3
-2.08354E-3	-116.294E-12	705.675E-3	-19.0363E-3	-114.266E-12	735.707E-3	-23.3985E-3
-2.08854E-3	-116.111E-12	720.087E-3	-24.2095E-3	-114.357E-12	724.064E-3	3.93188E-3
-2.09355E-3	-117.206E-12	736.154E-3	-10.8759E-3	-114.988E-12	739.736E-3	13.8101E-3
-2.09855E-3	-117.910E-12	726.529E-3	-4.98500E-3	-114.783E-12	759.993E-3	2.16930E-3
-2.10355E-3	-118.107E-12	739.853E-3	-9.80408E-3	-115.247E-12	740.710E-3	10.1876E-3
-2.10855E-3	-117.879E-12	768.715E-3	-8.88548E-3	-116.030E-12	712.271E-3	7.76916E-3
-2.11356E-3	-119.181E-12	762.190E-3	-8.37703E-3	-116.538E-12	696.525E-3	-23.9344E-3
-2.11856E-3	-118.549E-12	737.190E-3	-9.34858E-3	-117.547E-12	695.635E-3	-41.7091E-3
-2.12356E-3	-116.630E-12	737.307E-3	4.12931E-3	-117.558E-12	732.456E-3	-37.3171E-3
-2.12856E-3	-116.839E-12	733.369E-3	9.83708E-3	-118.887E-12	771.868E-3	-26.7211E-3
-2.13357E-3	-117.271E-12	708.745E-3	-15.7638E-3	-118.864E-12	767.863E-3	-5.02720E-3
-2.13857E-3	-116.108E-12	713.759E-3	-12.3735E-3	-119.047E-12	751.363E-3	12.0774E-3
-2.14357E-3	-115.657E-12	733.649E-3	6.80936E-3	-119.046E-12	734.560E-3	-3.87364E-3
-2.14857E-3	-116.466E-12	726.012E-3	-18.0596E-3	-119.332E-12	710.842E-3	-22.1888E-3
-2.15358E-3	-116.983E-12	721.338E-3	-45.5849E-3	-118.639E-12	702.025E-3	-19.5632E-3
-2.15858E-3	-118.364E-12	718.591E-3	-45.9575E-3	-118.701E-12	718.593E-3	-30.1124E-3
-2.16358E-3	-119.202E-12	709.386E-3	-36.7856E-3	-118.653E-12	733.802E-3	-37.9833E-3
-2.16858E-3	-119.554E-12	722.379E-3	-18.5035E-3	-118.328E-12	725.549E-3	-25.3549E-3
-2.17359E-3	-120.353E-12	726.927E-3	2.38599E-3	-118.843E-12	713.026E-3	-36.4593E-3
-2.17859E-3	-121.298E-12	717.759E-3	-2.89393E-3	-118.665E-12	706.462E-3	-58.8525E-3
-2.18359E-3	-122.606E-12	741.960E-3	-9.87965E-3	-118.322E-12	705.439E-3	-48.9663E-3
-2.18859E-3	-122.370E-12	760.955E-3	-8.15444E-3	-119.156E-12	716.338E-3	-21.3140E-3
-2.19360E-3	-122.410E-12	747.789E-3	-17.9068E-3	-119.555E-12	718.918E-3	-15.8316E-3
-2.19860E-3	-123.329E-12	747.294E-3	-11.0111E-3	-119.695E-12	711.202E-3	-31.5477E-3
-2.20360E-3	-123.590E-12	744.427E-3	3.62961E-3	-121.068E-12	717.716E-3	-49.0079E-3
-2.20860E-3	-122.211E-12	723.920E-3	-14.8206E-3	-121.641E-12	734.915E-3	-47.9221E-3
-2.21361E-3	-121.954E-12	719.578E-3	-26.3485E-3	-121.935E-12	733.444E-3	-29.4241E-3
-2.21861E-3	-122.556E-12	720.131E-3	1.17086E-3	-123.237E-12	734.070E-3	-24.4248E-3
-2.22361E-3	-121.276E-12	717.693E-3	13.3842E-3	-123.826E-12	752.364E-3	-27.0529E-3
-2.22861E-3	-120.584E-12	737.681E-3	-10.8072E-3	-123.409E-12	758.511E-3	-24.3171E-3
-2.23362E-3	-121.493E-12	733.036E-3	-27.5489E-3	-123.024E-12	751.472E-3	-15.7276E-3
-2.23862E-3	-120.710E-12	708.662E-3	-19.2609E-3	-123.857E-12	745.101E-3	-9.06070E-3
-2.24362E-3	-121.236E-12	731.249E-3	-12.2929E-3	-123.412E-12	735.144E-3	741.175E-6
-2.24862E-3	-122.118E-12	744.913E-3	-18.7939E-3	-122.934E-12	725.241E-3	9.05859E-3
-2.25363E-3	-123.126E-12	721.964E-3	-22.7039E-3	-122.713E-12	724.643E-3	4.65780E-3
-2.25863E-3	-123.660E-12	711.984E-3	-23.1573E-3	-122.944E-12	712.655E-3	6.54240E-3
-2.26363E-3	-124.462E-12	712.653E-3	-19.9807E-3	-123.015E-12	701.827E-3	3.63934E-3
-2.26863E-3	-125.120E-12	704.433E-3	-9.86034E-3	-122.683E-12	703.426E-3	-6.84874E-3
-2.27364E-3	-125.177E-12	708.680E-3	-19.1789E-3	-123.009E-12	704.866E-3	-11.7880E-3
-2.27864E-3	-126.337E-12	715.459E-3	-40.9625E-3	-123.105E-12	708.081E-3	-18.6203E-3
-2.28364E-3	-127.415E-12	706.261E-3	-49.9475E-3	-123.701E-12	711.424E-3	-15.9079E-3
-2.28864E-3	-126.699E-12	719.441E-3	-62.1896E-3	-124.547E-12	706.337E-3	-9.70239E-3
-2.29365E-3	-125.708E-12	738.891E-3	-66.1240E-3	-124.858E-12	697.840E-3	-17.8739E-3
-2.29865E-3	-126.043E-12	727.811E-3	-55.3919E-3	-126.133E-12	724.012E-3	-21.5139E-3
-2.30365E-3	-126.288E-12	710.825E-3	-51.5854E-3	-126.924E-12	767.119E-3	-14.6090E-3
-2.30865E-3	-125.778E-12	711.899E-3	-39.0736E-3	-127.673E-12	773.127E-3	-24.5500E-3
-2.31366E-3	-126.869E-12	716.734E-3	-28.3749E-3	-127.940E-12	757.203E-3	-29.8841E-3
-2.31866E-3	-125.727E-12	723.086E-3	-31.2487E-3	-127.329E-12	736.395E-3	-16.4434E-3
-2.32366E-3	-125.659E-12	736.295E-3	-22.3089E-3	-128.731E-12	720.465E-3	-15.5571E-3
-2.32866E-3	-125.630E-12	740.822E-3	-4.35974E-3	-128.242E-12	720.520E-3	-24.0342E-3
-2.33367E-3	-127.516E-12	740.652E-3	-1.31307E-3	-126.957E-12	710.256E-3	-21.8279E-3
-2.33867E-3	-126.838E-12	737.575E-3	-22.0799E-3	-127.270E-12	688.158E-3	-15.4548E-3
-2.34367E-3	-126.982E-12	712.623E-3	-35.0115E-3	-128.517E-12	698.722E-3	-27.8444E-3
-2.34867E-3	-128.847E-12	696.564E-3	-33.2171E-3	-126.999E-12	729.379E-3	-58.7716E-3
-2.35368E-3	-128.985E-12	719.937E-3	-38.2175E-3	-126.223E-12	726.874E-3	-60.1103E-3
-2.35868E-3	-128.951E-12	723.011E-3	-23.2366E-3	-127.935E-12	712.149E-3	-38.8924E-3
-2.36368E-3	-129.857E-12	694.628E-3	-7.37562E-3	-127.477E-12	712.028E-3	-29.5957E-3
-2.36868E-3	-130.136E-12	693.025E-3	-17.8687E-3	-127.522E-12	708.097E-3	-9.06549E-3
-2.37369E-3	-129.770E-12	697.062E-3	-18.5408E-3	-128.448E-12	710.069E-3	-3.94101E-3
-2.37869E-3	-130.216E-12	681.023E-3	-13.2225E-3	-128.377E-12	727.269E-3	-25.1364E-3
-2.38369E-3	-129.960E-12	685.286E-3	-9.89816E-3	-128.617E-12	732.693E-3	-17.0370E-3
-2.38869E-3	-130.155E-12	718.537E-3	3.28030E-3	-130.766E-12	717.060E-3	312.046E-6
-2.39370E-3	-129.648E-12	753.702E-3	-12.5668E-3	-130.855E-12	705.437E-3	2.26342E-3
-2.39870E-3	-129.320E-12	768.392E-3	-51.2727E-3	-130.562E-12	690.441E-3	13.6924E-3
-2.40370E-3	-131.040E-12	754.890E-3	-41.1432E-3	-131.946E-12	676.402E-3	10.1356E-3
-2.40870E-3	-132.446E-12	723.065E-3	-952.620E-6	-133.262E-12	689.363E-3	-15.8839E-3
-2.41371E-3	-131.364E-12	690.230E-3	-4.66493E-3	-132.491E-12	711.254E-3	-32.1910E-3
-2.41871E-3	-132.197E-12	662.252E-3	-35.6081E-3	-131.601E-12	718.907E-3	-35.9155E-3
-2.42371E-3	-133.324E-12	653.622E-3	-49.4244E-3	-132.933E-12	707.999E-3	-31.8346E-3
-2.42871E-3	-133.087E-12	655.462E-3	-40.7451E-3	-132.159E-12	700.394E-3	-36.4675E-3
-2.43372E-3	-133.097E-12	649.277E-3	-20.5721E-3	-131.438E-12	716.255E-3	-44.5941E-3
-2.43872E-3	-133.447E-12	657.343E-3	-31.0538E-3	-131.549E-12	717.269E-3	-25.5728E-3
-2.44372E-3	-133.420E-12	689.003E-3	-58.2596E-3	-131.649E-12	701.641E-3	-1.00809E-3
-2.44872E-3	-132.880E-12	741.592E-3	-58.1170E-3	-131.557E-12	700.339E-3	-5.91806E-3
-2.45373E-3	-133.453E-12	751.120E-3	-37.4529E-3	-132.211E-12	692.931E-3	-41.0280E-3
-2.45873E-3	-133.772E-12	709.957E-3	-28.4335E-3	-131.774E-12	684.533E-3	-52.4951E-3
-2.46373E-3	-132.415E-12	691.438E-3	-27.3122E-3	-132.723E-12	706.237E-3	-24.4465E-3
-2.46873E-3	-132.589E-12	699.364E-3	-27.2082E-3	-134.065E-12	730.793E-3	-12.0480E-3
-2.47374E-3	-133.786E-12	710.597E-3	-36.9054E-3	-134.279E-12	729.592E-3	-33.4012E-3
-2.47874E-3	-132.400E-12	727.590E-3	-24.7783E-3	-134.745E-12	718.955E-3	-42.9692E-3
-2.48374E-3	-132.884E-12	726.424E-3	-2.78065E-3	-135.533E-12	715.840E-3	-30.1762E-3
-2.48874E-3	-133.605E-12	697.553E-3	-14.3348E-3	-136.115E-12	695.951E-3	-18.2462E-3
-2.49375E-3	-133.660E-12	687.647E-3	-20.8551E-3	-136.172E-12	657.779E-3	-2.26658E-3
-2.49875E-3	-134.710E-12	685.955E-3	-4.08992E-3	-137.020E-12	652.128E-3	-1.70940E-3
-2.50375E-3	-135.510E-12	686.556E-3	-8.52939E-3	-137.221E-12	672.285E-3	-13.9688E-3
-2.50875E-3	-136.106E-12	708.986E-3	-25.3755E-3	-136.862E-12	709.127E-3	-30.3124E-3
-2.51376E-3	-137.750E-12	722.693E-3	-26.6988E-3	-137.892E-12	742.032E-3	-46.6024E-3
-2.51876E-3	-138.584E-12	716.121E-3	-13.5855E-3	-137.249E-12	726.597E-3	-37.8289E-3
-2.52376E-3	-138.114E-12	722.973E-3	12.2371E-3	-136.533E-12	693.362E-3	-28.7837E-3
-2.52876E-3	-138.894E-12	729.342E-3	27.4597E-3	-136.559E-12	682.375E-3	-34.3537E-3
-2.53377E-3	-138.873E-12	722.153E-3	17.3346E-3	-136.218E-12	678.383E-3	-31.4241E-3
-2.53877E-3	-138.515E-12	732.022E-3	8.73659E-3	-135.582E-12	669.114E-3	-17.5626E-3
-2.54377E-3	-138.376E-12	728.505E-3	2.32008E-3	-136.140E-12	673.185E-3	7.67113E-3
-2.54877E-3	-137.539E-12	689.125E-3	-22.3630E-3	-136.419E-12	684.900E-3	12.2499E-3
-2.55378E-3	-136.858E-12	674.537E-3	-33.5893E-3	-137.037E-12	698.065E-3	-13.0765E-3
-2.55878E-3	-136.497E-12	689.677E-3	-7.01322E-3	-137.701E-12	711.609E-3	-29.1811E-3
-2.56378E-3	-135.672E-12	681.487E-3	8.53288E-3	-137.871E-12	703.631E-3	-21.3984E-3
-2.56878E-3	-135.662E-12	675.775E-3	-6.21385E-3	-138.320E-12	700.246E-3	-1.47358E-3
-2.57379E-3	-137.104E-12	680.888E-3	-8.94291E-3	-138.601E-12	700.049E-3	-1.60513E-3
-2.57879E-3	-136.568E-12	671.349E-3	-2.32406E-3	-138.817E-12	677.685E-3	-13.2770E-3
-2.58379E-3	-137.311E-12	667.953E-3	-15.0722E-3	-139.208E-12	676.165E-3	-17.2977E-3
-2.58879E-3	-138.393E-12	669.780E-3	-22.8585E-3	-139.725E-12	692.495E-3	-12.4572E-3
-2.59380E-3	-139.032E-12	663.777E-3	-18.4715E-3	-139.434E-12	698.090E-3	-7.50210E-3
-2.59880E-3	-139.582E-12	681.834E-3	-30.9391E-3	-140.009E-12	706.117E-3	-14.7961E-3
-2.60380E-3	-141.569E-12	716.870E-3	-37.7498E-3	-139.962E-12	697.845E-3	-15.8369E-3
-2.60880E-3	-142.341E-12	713.336E-3	-21.4108E-3	-139.384E-12	678.862E-3	-9.42993E-3
-2.61381E-3	-143.017E-12	698.615E-3	283.814E-6	-140.242E-12	681.837E-3	6.29381E-3
-2.61881E-3	-143.003E-12	699.172E-3	16.1859E-3	-140.015E-12	689.458E-3	28.5000E-3
-2.62381E-3	-143.207E-12	687.090E-3	24.9018E-3	-140.116E-12	694.147E-3	35.1605E-3
-2.62881E-3	-143.637E-12	689.867E-3	18.4902E-3	-140.335E-12	687.925E-3	31.5523E-3
-2.63382E-3	-143.147E-12	707.324E-3	8.17848E-3	-140.772E-12	663.827E-3	1.70019E-3
-2.63882E-3	-141.793E-12	703.679E-3	8.86912E-3	-141.505E-12	654.437E-3	-24.4642E-3
-2.64382E-3	-141.179E-12	701.992E-3	-11.6054E-3	-140.924E-12	644.622E-3	-261.963E-6
-2.64882E-3	-140.540E-12	712.680E-3	-37.1303E-3	-141.685E-12	646.927E-3	20.0978E-3
-2.65383E-3	-139.418E-12	698.185E-3	-32.9636E-3	-142.721E-12	678.562E-3	-2.89879E-3
-2.65883E-3	-140.164E-12	670.467E-3	-34.1957E-3	-142.991E-12	699.409E-3	-18.6851E-3
-2.66383E-3	-140.389E-12	673.488E-3	-41.6869E-3	-142.521E-12	714.579E-3	-15.2074E-3
-2.66883E-3	-139.627E-12	684.249E-3	-23.2479E-3	-144.099E-12	719.164E-3	-1.69464E-3
-2.67384E-3	-140.176E-12	681.851E-3	-459.464E-6	-144.397E-12	710.317E-3	18.2038E-3
-2.67884E-3	-141.949E-12	681.601E-3	18.1803E-3	-142.256E-12	705.181E-3	10.9435E-3
-2.68384E-3	-141.742E-12	675.657E-3	37.8563E-3	-143.528E-12	697.451E-3	-4.39690E-3
-2.68884E-3	-143.018E-12	665.764E-3	25.5105E-3	-145.292E-12	695.817E-3	-6.57748E-3
-2.69385E-3	-144.894E-12	660.665E-3	3.62781E-3	-144.057E-12	723.188E-3	-7.94538E-3
-2.69885E-3	-145.231E-12	654.356E-3	5.72534E-3	-143.186E-12	747.295E-3	2.99515E-3
-2.70385E-3	-145.376E-12	647.563E-3	-8.38033E-3	-145.232E-12	722.826E-3	18.0090E-3
-2.70885E-3	-147.036E-12	650.101E-3	-19.9854E-3	-146.533E-12	671.761E-3	21.4312E-3
-2.71386E-3	-147.026E-12	669.303E-3	-7.27450E-3	-144.605E-12	656.728E-3	1.31151E-3
-2.71886E-3	-147.485E-12	681.295E-3	-13.5021E-3	-145.971E-12	680.837E-3	-38.8314E-3
-2.72386E-3	-147.564E-12	681.635E-3	-36.1273E-3	-148.191E-12	701.807E-3	-59.4233E-3
-2.72886E-3	-146.484E-12	685.088E-3	-36.6913E-3	-146.752E-12	703.003E-3	-57.0887E-3
-2.73387E-3	-146.618E-12	687.517E-3	-14.0844E-3	-146.906E-12	690.609E-3	-38.4591E-3
-2.73887E-3	-147.074E-12	705.271E-3	-10.0383E-3	-148.638E-12	699.347E-3	-11.6717E-3
-2.74387E-3	-145.147E-12	720.462E-3	-13.3627E-3	-148.558E-12	725.519E-3	-10.8067E-3
-2.74887E-3	-145.899E-12	699.649E-3	-16.3124E-3	-148.071E-12	735.920E-3	-37.8139E-3
-2.75388E-3	-146.029E-12	675.433E-3	-37.3523E-3	-149.450E-12	728.931E-3	-63.4348E-3
-2.75888E-3	-145.785E-12	666.567E-3	-28.6394E-3	-148.592E-12	714.589E-3	-60.2132E-3
-2.76388E-3	-146.461E-12	656.798E-3	3.65546E-3	-148.123E-12	700.212E-3	-34.9847E-3
-2.76888E-3	-147.695E-12	663.312E-3	-1.98533E-3	-148.791E-12	697.164E-3	-18.8426E-3
-2.77389E-3	-147.011E-12	691.129E-3	-22.9425E-3	-148.871E-12	688.916E-3	-28.5374E-3
-2.77889E-3	-147.229E-12	694.876E-3	-33.1738E-3	-146.994E-12	676.905E-3	-46.7449E-3
-2.78389E-3	-148.523E-12	680.906E-3	-42.3408E-3	-146.737E-12	693.788E-3	-53.3516E-3
-2.78889E-3	-148.429E-12	686.471E-3	-49.6576E-3	-147.512E-12	705.856E-3	-43.4938E-3
-2.79390E-3	-148.588E-12	692.420E-3	-56.2552E-3	-146.465E-12	689.831E-3	-14.1836E-3
-2.79890E-3	-150.153E-12	692.503E-3	-54.2539E-3	-147.141E-12	690.741E-3	9.01949E-3
-2.80390E-3	-150.265E-12	716.780E-3	-45.5325E-3	-148.034E-12	705.107E-3	10.4756E-3
-2.80890E-3	-150.517E-12	746.638E-3	-36.8274E-3	-148.354E-12	694.962E-3	-1.36080E-3
-2.81391E-3	-152.031E-12	750.049E-3	-34.9922E-3	-148.745E-12	688.007E-3	-8.94500E-3
-2.81891E-3	-151.118E-12	746.153E-3	-36.1603E-3	-149.656E-12	700.371E-3	-19.3921E-3
-2.82391E-3	-151.026E-12	720.305E-3	-30.2065E-3	-150.695E-12	703.237E-3	-27.2484E-3
-2.82891E-3	-151.638E-12	688.949E-3	-20.6909E-3	-151.313E-12	684.807E-3	-29.4985E-3
-2.83392E-3	-150.753E-12	705.705E-3	929.819E-6	-151.746E-12	673.393E-3	-59.0024E-3
-2.83892E-3	-149.997E-12	723.762E-3	4.92680E-3	-152.481E-12	692.801E-3	-78.4077E-3
-2.84392E-3	-150.386E-12	715.378E-3	-32.0538E-3	-151.959E-12	723.962E-3	-40.0283E-3
-2.84892E-3	-151.021E-12	720.008E-3	-59.5897E-3	-152.454E-12	724.388E-3	716.815E-6
-2.85393E-3	-150.605E-12	712.197E-3	-50.6765E-3	-152.378E-12	665.862E-3	-8.70688E-3
-2.85893E-3	-150.985E-12	676.653E-3	-18.7290E-3	-152.159E-12	616.373E-3	-16.1213E-3
-2.86393E-3	-151.892E-12	679.108E-3	1.85343E-3	-152.321E-12	635.639E-3	-4.26031E-3
-2.86893E-3	-152.424E-12	700.843E-3	-8.80175E-3	-152.524E-12	668.573E-3	-10.1717E-3
-2.87394E-3	-152.196E-12	693.702E-3	-35.0044E-3	-151.285E-12	668.366E-3	-7.95874E-3
-2.87894E-3	-152.239E-12	687.117E-3	-52.7256E-3	-151.264E-12	655.408E-3	4.20667E-3
-2.88394E-3	-152.355E-12	688.528E-3	-27.8962E-3	-151.639E-12	655.354E-3	-11.5528E-3
-2.88894E-3	-152.189E-12	694.804E-3	-12.4302E-3	-151.131E-12	665.969E-3	-21.4011E-3
-2.89395E-3	-152.435E-12	713.408E-3	-25.8408E-3	-150.557E-12	691.510E-3	-3.56036E-3
-2.89895E-3	-153.065E-12	732.273E-3	-5.86370E-3	-152.246E-12	714.158E-3	-3.10318E-3
-2.90395E-3	-153.546E-12	717.433E-3	-11.6124E-3	-152.499E-12	710.572E-3	-5.56907E-3
-2.90895E-3	-153.443E-12	682.205E-3	-42.1213E-3	-152.614E-12	708.368E-3	7.20734E-3
-2.91396E-3	-154.431E-12	677.662E-3	-17.1010E-3	-154.241E-12	715.500E-3	3.12141E-3
-2.91896E-3	-155.020E-12	701.699E-3	9.52729E-3	-155.412E-12	709.557E-3	-20.2058E-3
-2.92396E-3	-155.134E-12	723.769E-3	-18.6278E-3	-155.148E-12	706.334E-3	-36.1065E-3
-2.92896E-3	-155.256E-12	715.596E-3	-36.5163E-3	-156.373E-12	713.368E-3	-35.0016E-3
-2.93397E-3	-155.831E-12	687.640E-3	-9.15690E-3	-156.793E-12	720.974E-3	-18.3709E-3
-2.93897E-3	-156.984E-12	685.583E-3	-3.84696E-3	-156.584E-12	736.540E-3	8.85401E-3
-2.94397E-3	-155.427E-12	719.963E-3	-29.5642E-3	-155.936E-12	727.395E-3	13.6808E-3
-2.94897E-3	-155.958E-12	732.521E-3	-40.6021E-3	-156.228E-12	691.308E-3	-2.09247E-3
-2.95398E-3	-156.840E-12	710.408E-3	-46.0125E-3	-156.705E-12	687.255E-3	-4.03788E-3
-2.95898E-3	-156.370E-12	691.877E-3	-51.7861E-3	-156.163E-12	698.797E-3	3.71714E-3
-2.96398E-3	-155.807E-12	680.745E-3	-33.8211E-3	-155.458E-12	696.950E-3	243.941E-6
-2.96898E-3	-156.655E-12	690.405E-3	-10.8487E-3	-156.390E-12	686.297E-3	-9.11871E-3
-2.97399E-3	-156.097E-12	721.795E-3	-8.10061E-3	-156.116E-12	667.967E-3	-11.3343E-3
-2.97899E-3	-156.256E-12	733.055E-3	-21.1036E-3	-155.510E-12	671.934E-3	-4.31578E-3
-2.98399E-3	-157.175E-12	701.685E-3	-21.7772E-3	-155.858E-12	697.458E-3	7.46715E-3
-2.98899E-3	-156.524E-12	666.053E-3	-5.49128E-3	-156.734E-12	711.972E-3	7.11499E-3
-2.99400E-3	-155.694E-12	657.352E-3	-3.88482E-3	-156.855E-12	707.877E-3	888.366E-6
-2.99900E-3	-156.996E-12	669.219E-3	-12.4944E-3	-157.719E-12	697.993E-3	6.90261E-3
-3.00400E-3	-157.497E-12	677.406E-3	-27.7929E-3	-159.166E-12	709.093E-3	16.8442E-3
-3.00900E-3	-156.830E-12	660.363E-3	-49.7133E-3	-158.683E-12	724.149E-3	12.6985E-3
-3.01401E-3	-157.715E-12	650.617E-3	-48.1261E-3	-159.762E-12	696.499E-3	6.02037E-3
-3.01901E-3	-158.238E-12	684.538E-3	-10.7001E-3	-161.166E-12	671.937E-3	-4.31601E-3
-3.02401E-3	-159.021E-12	719.354E-3	18.8009E-3	-160.350E-12	694.875E-3	-36.5164E-3
-3.02901E-3	-159.721E-12	701.488E-3	-9.94114E-3	-160.305E-12	716.242E-3	-45.6198E-3
-3.03402E-3	-160.455E-12	668.777E-3	-67.7342E-3	-162.133E-12	719.569E-3	-10.5398E-3
-3.03902E-3	-160.387E-12	665.900E-3	-73.3830E-3	-161.612E-12	732.738E-3	497.776E-6
-3.04402E-3	-161.892E-12	677.995E-3	-30.6869E-3	-160.383E-12	736.965E-3	-21.0788E-3
-3.04902E-3	-161.150E-12	690.952E-3	-1.90204E-3	-161.137E-12	726.314E-3	-13.1395E-3
-3.05403E-3	-162.009E-12	694.885E-3	6.10446E-3	-161.972E-12	706.824E-3	1.86786E-3
-3.05903E-3	-162.134E-12	673.212E-3	-10.7798E-3	-160.512E-12	683.680E-3	-8.69588E-3
-3.06403E-3	-161.890E-12	655.555E-3	-24.1912E-3	-160.894E-12	684.267E-3	-6.63291E-3
-3.06903E-3	-161.683E-12	660.645E-3	-6.50567E-3	-162.209E-12	686.332E-3	12.2431E-3
-3.07404E-3	-161.427E-12	667.872E-3	-8.31322E-3	-162.545E-12	692.020E-3	18.3387E-3
-3.07904E-3	-161.855E-12	677.786E-3	-17.4806E-3	-161.696E-12	717.583E-3	16.8694E-3
-3.08404E-3	-160.811E-12	668.592E-3	1.95314E-3	-162.262E-12	725.880E-3	847.212E-6
-3.08904E-3	-160.600E-12	653.015E-3	-7.54329E-3	-163.325E-12	703.152E-3	-26.4136E-3
-3.09405E-3	-160.591E-12	658.472E-3	-19.6651E-3	-163.386E-12	689.740E-3	-24.5162E-3
-3.09905E-3	-160.209E-12	660.794E-3	10.2821E-3	-163.897E-12	708.284E-3	-20.1527E-3
-3.10405E-3	-160.643E-12	666.720E-3	17.6418E-3	-164.340E-12	706.731E-3	-33.0634E-3
-3.10905E-3	-161.159E-12	687.571E-3	3.50331E-3	-163.853E-12	685.229E-3	-22.8034E-3
-3.11406E-3	-161.638E-12	714.515E-3	-1.45893E-3	-164.696E-12	688.310E-3	-14.0862E-3
-3.11906E-3	-163.355E-12	717.825E-3	-8.97756E-3	-165.178E-12	691.553E-3	-24.1247E-3
-3.12406E-3	-164.708E-12	711.510E-3	-16.0657E-3	-164.041E-12	685.290E-3	-26.0781E-3
-3.12906E-3	-165.039E-12	725.290E-3	-21.9026E-3	-165.483E-12	701.728E-3	-25.2532E-3
-3.13407E-3	-165.825E-12	725.342E-3	-21.6496E-3	-165.837E-12	698.466E-3	-28.9176E-3
-3.13907E-3	-166.835E-12	719.484E-3	-16.2574E-3	-165.122E-12	670.732E-3	-22.9000E-3
-3.14407E-3	-167.690E-12	729.532E-3	-25.7953E-3	-165.806E-12	672.538E-3	-10.3405E-3
-3.14907E-3	-167.598E-12	730.651E-3	-44.9003E-3	-165.631E-12	683.606E-3	-24.6565E-3
-3.15408E-3	-167.605E-12	714.085E-3	-47.6950E-3	-165.930E-12	704.394E-3	-48.5120E-3
-3.15908E-3	-167.240E-12	706.483E-3	-35.6920E-3	-166.532E-12	718.729E-3	-41.4158E-3
-3.16408E-3	-167.072E-12	695.335E-3	-34.0118E-3	-166.502E-12	683.203E-3	-32.4746E-3
-3.16908E-3	-167.367E-12	680.774E-3	-49.1394E-3	-167.037E-12	655.432E-3	-56.6497E-3
-3.17409E-3	-166.324E-12	706.985E-3	-26.8756E-3	-167.100E-12	660.371E-3	-86.3147E-3
-3.17909E-3	-165.725E-12	729.428E-3	19.6167E-3	-167.317E-12	661.456E-3	-62.1549E-3
-3.18409E-3	-165.172E-12	724.592E-3	9.09712E-3	-168.099E-12	674.997E-3	1.46290E-3
-3.18909E-3	-164.998E-12	734.297E-3	-15.4873E-3	-167.701E-12	692.877E-3	23.1273E-3
-3.19410E-3	-164.944E-12	724.009E-3	1.24819E-3	-166.954E-12	693.356E-3	-20.2477E-3
-3.19910E-3	-165.263E-12	688.136E-3	8.83211E-3	-168.098E-12	697.599E-3	-60.0646E-3
-3.20410E-3	-165.367E-12	679.498E-3	-8.27447E-3	-168.291E-12	714.065E-3	-57.5324E-3
-3.20910E-3	-166.345E-12	687.092E-3	-5.66100E-3	-166.702E-12	709.286E-3	-51.6043E-3
-3.21411E-3	-167.381E-12	695.126E-3	-859.985E-6	-166.789E-12	656.674E-3	-36.6007E-3
-3.21911E-3	-168.027E-12	706.050E-3	-24.0239E-3	-167.334E-12	614.776E-3	-7.53561E-3
-3.22411E-3	-168.690E-12	707.447E-3	-30.5203E-3	-166.856E-12	630.725E-3	-7.62148E-3
-3.22911E-3	-170.112E-12	692.048E-3	-18.9289E-3	-167.921E-12	652.970E-3	-22.8402E-3
-3.23412E-3	-170.721E-12	674.412E-3	-12.9762E-3	-168.182E-12	668.559E-3	-11.5596E-3
-3.23912E-3	-170.990E-12	665.480E-3	9.18608E-3	-168.036E-12	685.104E-3	-2.25884E-3
-3.24412E-3	-170.887E-12	665.732E-3	17.9937E-3	-168.827E-12	667.145E-3	-12.1766E-3
-3.24912E-3	-171.393E-12	670.748E-3	518.877E-6	-169.809E-12	654.847E-3	-8.55589E-3
-3.25413E-3	-171.875E-12	662.533E-3	-15.5482E-3	-168.867E-12	693.186E-3	-5.18596E-3
-3.25913E-3	-171.288E-12	662.500E-3	-30.7120E-3	-168.787E-12	714.281E-3	-13.4936E-3
-3.26413E-3	-170.270E-12	692.179E-3	-37.1379E-3	-171.100E-12	698.974E-3	105.234E-6
-3.26913E-3	-170.814E-12	688.820E-3	-32.6500E-3	-172.009E-12	700.100E-3	19.4373E-3
-3.27414E-3	-170.572E-12	654.243E-3	-30.5202E-3	-171.253E-12	699.216E-3	3.48138E-3
-3.27914E-3	-169.787E-12	663.667E-3	-44.7926E-3	-173.056E-12	668.483E-3	-26.4300E-3
-3.28414E-3	-170.261E-12	694.258E-3	-51.9650E-3	-173.414E-12	657.486E-3	-42.5664E-3
-3.28914E-3	-171.509E-12	687.785E-3	-43.4133E-3	-172.241E-12	668.631E-3	-36.3710E-3
-3.29415E-3	-170.584E-12	671.348E-3	-37.0007E-3	-172.272E-12	672.491E-3	-45.2756E-3
-3.29915E-3	-171.092E-12	688.215E-3	-22.8026E-3	-173.037E-12	673.836E-3	-64.3982E-3
-3.30415E-3	-171.997E-12	692.545E-3	-18.1587E-3	-171.740E-12	657.902E-3	-59.4487E-3
-3.30915E-3	-171.225E-12	666.083E-3	-26.7401E-3	-170.587E-12	649.839E-3	-48.3671E-3
-3.31416E-3	-171.926E-12	645.664E-3	-27.0462E-3	-171.493E-12	676.697E-3	-26.0423E-3
-3.31916E-3	-172.427E-12	646.697E-3	-38.9762E-3	-172.214E-12	699.614E-3	-6.36144E-3
-3.32416E-3	-172.519E-12	663.802E-3	-51.4526E-3	-170.860E-12	689.698E-3	-20.4172E-3
-3.32916E-3	-173.132E-12	673.473E-3	-37.6249E-3	-171.680E-12	665.614E-3	-30.3054E-3
-3.33417E-3	-174.886E-12	672.980E-3	-16.2501E-3	-173.124E-12	675.298E-3	-33.1329E-3
-3.33917E-3	-174.887E-12	667.296E-3	-15.4436E-3	-173.412E-12	700.304E-3	-32.2908E-3
-3.34417E-3	-175.368E-12	669.672E-3	-33.1659E-3	-173.871E-12	686.876E-3	-17.9918E-3
-3.34917E-3	-176.002E-12	688.440E-3	-20.1597E-3	-175.202E-12	685.067E-3	-19.6628E-3
-3.35418E-3	-176.552E-12	704.291E-3	10.1027E-3	-176.220E-12	713.449E-3	-15.9528E-3
-3.35918E-3	-176.977E-12	715.426E-3	-7.54735E-3	-176.431E-12	718.483E-3	-14.6175E-3
-3.36418E-3	-176.210E-12	708.329E-3	-33.6858E-3	-177.968E-12	697.416E-3	-31.5480E-3
-3.36918E-3	-176.503E-12	679.845E-3	-12.5859E-3	-178.466E-12	653.965E-3	-21.9193E-3
-3.37419E-3	-177.031E-12	676.515E-3	5.90535E-3	-178.330E-12	638.558E-3	2.03480E-3
-3.37919E-3	-176.601E-12	700.421E-3	-11.3973E-3	-177.919E-12	679.492E-3	-9.93433E-3
-3.38419E-3	-176.164E-12	716.566E-3	-30.5052E-3	-177.826E-12	690.245E-3	-23.5123E-3
-3.38919E-3	-176.956E-12	714.964E-3	-34.4390E-3	-177.062E-12	671.977E-3	4.10009E-3
-3.39420E-3	-176.451E-12	701.401E-3	-14.3543E-3	-176.251E-12	672.981E-3	29.2170E-3
-3.39920E-3	-175.543E-12	682.649E-3	15.1363E-3	-174.831E-12	652.770E-3	15.2376E-3
-3.40420E-3	-176.436E-12	661.354E-3	17.6639E-3	-175.196E-12	621.170E-3	-18.3656E-3
-3.40920E-3	-176.782E-12	656.379E-3	2.27193E-3	-173.890E-12	622.966E-3	-49.0030E-3
-3.41421E-3	-176.483E-12	685.758E-3	-14.1987E-3	-173.675E-12	643.171E-3	-62.2858E-3
-3.41921E-3	-176.892E-12	713.611E-3	-27.6232E-3	-174.310E-12	658.052E-3	-45.1514E-3
-3.42421E-3	-176.578E-12	699.195E-3	-27.4103E-3	-175.293E-12	668.410E-3	-36.7977E-3
-3.42921E-3	-178.019E-12	670.773E-3	-13.9605E-3	-175.571E-12	661.277E-3	-56.4034E-3
-3.43422E-3	-178.300E-12	659.790E-3	-8.04839E-3	-175.756E-12	653.404E-3	-61.6598E-3
-3.43922E-3	-176.864E-12	653.205E-3	-22.9307E-3	-177.043E-12	663.017E-3	-45.6296E-3
-3.44422E-3	-178.553E-12	654.255E-3	-39.7131E-3	-178.772E-12	673.756E-3	-27.5302E-3
-3.44922E-3	-180.292E-12	677.452E-3	-43.0680E-3	-179.710E-12	673.388E-3	-28.9114E-3
-3.45423E-3	-179.001E-12	691.263E-3	-50.5149E-3	-180.302E-12	654.033E-3	-31.6908E-3
-3.45923E-3	-179.723E-12	691.178E-3	-54.3942E-3	-180.589E-12	647.947E-3	-17.2655E-3
-3.46423E-3	-180.886E-12	693.911E-3	-44.6458E-3	-181.377E-12	658.978E-3	-23.2129E-3
-3.46923E-3	-180.731E-12	682.997E-3	-24.7859E-3	-182.548E-12	658.452E-3	-36.0286E-3
-3.47424E-3	-181.412E-12	683.342E-3	-8.86859E-3	-181.858E-12	653.566E-3	-25.5527E-3
-3.47924E-3	-181.758E-12	679.260E-3	-6.61618E-3	-181.615E-12	666.183E-3	-7.35579E-3
-3.48424E-3	-182.273E-12	663.756E-3	-8.60545E-3	-181.941E-12	683.479E-3	5.64770E-3
-3.48924E-3	-181.630E-12	675.545E-3	-12.0925E-3	-180.472E-12	688.805E-3	6.17177E-3
-3.49425E-3	-181.540E-12	685.597E-3	-171.928E-6	-180.745E-12	678.405E-3	-6.69332E-3
-3.49925E-3	-181.616E-12	690.625E-3	-4.04139E-3	-179.738E-12	646.695E-3	-30.4204E-3
-3.50425E-3	-182.326E-12	699.300E-3	-32.1473E-3	-180.176E-12	620.085E-3	-22.5093E-3
-3.50925E-3	-181.052E-12	680.243E-3	-38.9908E-3	-179.925E-12	651.568E-3	-2.17202E-3
-3.51426E-3	-180.722E-12	651.858E-3	-49.1023E-3	-178.643E-12	690.267E-3	-11.7451E-3
-3.51926E-3	-181.383E-12	641.835E-3	-62.6391E-3	-179.828E-12	649.227E-3	-15.8828E-3
-3.52426E-3	-181.346E-12	635.756E-3	-48.6621E-3	-181.949E-12	614.781E-3	-13.2000E-3
-3.52926E-3	-180.740E-12	642.780E-3	-20.1841E-3	-181.016E-12	628.738E-3	-9.35056E-3
-3.53427E-3	-181.453E-12	652.048E-3	-3.28407E-3	-181.988E-12	640.780E-3	-8.60972E-3
-3.53927E-3	-182.116E-12	655.955E-3	-5.72791E-3	-185.677E-12	674.732E-3	-6.06104E-3
-3.54427E-3	-182.297E-12	677.653E-3	-2.67211E-3	-184.866E-12	716.812E-3	22.5346E-3
-3.54927E-3	-182.045E-12	694.726E-3	4.04385E-3	-184.915E-12	717.624E-3	17.8517E-3
-3.55428E-3	-182.737E-12	685.546E-3	7.43380E-3	-188.889E-12	689.082E-3	-23.0480E-3
-3.55928E-3	-184.003E-12	671.421E-3	15.1012E-3	-187.064E-12	674.049E-3	-35.7900E-3
-3.56428E-3	-184.923E-12	677.253E-3	5.20079E-3	-185.194E-12	662.702E-3	-34.2619E-3
-3.56928E-3	-185.470E-12	696.182E-3	-16.0411E-3	-187.109E-12	659.349E-3	-24.4800E-3
-3.57429E-3	-185.764E-12	705.169E-3	-20.9546E-3	-185.427E-12	676.925E-3	-11.3523E-3
-3.57929E-3	-186.489E-12	679.576E-3	-27.2185E-3	-184.612E-12	676.679E-3	-18.0513E-3
-3.58429E-3	-186.976E-12	659.437E-3	-37.1654E-3	-186.291E-12	665.766E-3	-23.2857E-3
-3.58929E-3	-187.046E-12	664.220E-3	-27.2880E-3	-185.562E-12	674.092E-3	-5.49784E-3
-3.59430E-3	-186.895E-12	668.310E-3	-20.8109E-3	-183.874E-12	681.584E-3	17.4287E-3
-3.59930E-3	-187.420E-12	677.565E-3	-31.7581E-3	-184.758E-12	672.281E-3	23.5126E-3
-3.60430E-3	-186.490E-12	690.987E-3	-30.0558E-3	-184.743E-12	674.253E-3	12.8541E-3
-3.60930E-3	-186.108E-12	712.470E-3	-21.5276E-3	-184.422E-12	687.825E-3	-15.1973E-3
-3.61431E-3	-184.972E-12	716.978E-3	-21.8550E-3	-186.326E-12	687.903E-3	-31.3755E-3
-3.61931E-3	-185.097E-12	683.788E-3	-18.3457E-3	-186.311E-12	675.928E-3	-12.0405E-3
-3.62431E-3	-184.901E-12	634.439E-3	-9.49772E-3	-185.939E-12	683.676E-3	-9.43372E-3
-3.62931E-3	-184.401E-12	610.482E-3	-18.5889E-3	-188.036E-12	685.485E-3	-42.7366E-3
-3.63432E-3	-185.004E-12	625.755E-3	-30.5978E-3	-188.555E-12	650.206E-3	-63.8387E-3
-3.63932E-3	-185.949E-12	664.270E-3	-3.89205E-3	-187.471E-12	645.281E-3	-46.0439E-3
-3.64432E-3	-185.797E-12	685.153E-3	15.4547E-3	-187.262E-12	665.820E-3	-15.3743E-3
-3.64932E-3	-186.650E-12	658.532E-3	-18.2908E-3	-189.006E-12	662.401E-3	969.125E-6
-3.65433E-3	-187.653E-12	621.448E-3	-49.5351E-3	-188.476E-12	656.003E-3	16.6450E-3
-3.65933E-3	-187.720E-12	626.213E-3	-54.0118E-3	-187.793E-12	666.570E-3	8.90557E-3
-3.66433E-3	-188.061E-12	660.612E-3	-34.5520E-3	-187.658E-12	684.340E-3	-11.1317E-3
-3.66933E-3	-190.093E-12	676.986E-3	-21.0252E-3	-189.615E-12	685.095E-3	-11.2981E-3
-3.67434E-3	-189.298E-12	679.788E-3	-37.8485E-3	-188.241E-12	672.060E-3	-30.5170E-3
-3.67934E-3	-188.949E-12	688.103E-3	-36.8400E-3	-188.966E-12	668.981E-3	-43.2203E-3
-3.68434E-3	-190.606E-12	679.230E-3	-17.6550E-3	-189.576E-12	679.244E-3	-15.5174E-3
-3.68934E-3	-190.991E-12	664.414E-3	-287.868E-6	-190.537E-12	688.787E-3	4.02281E-3
-3.69435E-3	-191.938E-12	667.226E-3	11.9574E-3	-191.502E-12	689.283E-3	-2.83329E-3
-3.69935E-3	-191.916E-12	679.418E-3	8.92352E-3	-191.718E-12	689.416E-3	-17.6813E-3
-3.70435E-3	-191.743E-12	698.283E-3	-6.47844E-3	-191.560E-12	678.914E-3	-45.8227E-3
-3.70935E-3	-191.679E-12	720.412E-3	-38.6536E-3	-192.059E-12	659.133E-3	-70.3167E-3
-3.71436E-3	-190.474E-12	739.220E-3	-61.0989E-3	-192.861E-12	659.193E-3	-54.0989E-3
-3.71936E-3	-190.615E-12	721.928E-3	-52.2919E-3	-192.977E-12	655.190E-3	-28.9491E-3
-3.72436E-3	-190.263E-12	698.175E-3	-55.4101E-3	-192.841E-12	632.698E-3	-15.1559E-3
-3.72936E-3	-190.102E-12	699.307E-3	-61.7914E-3	-192.245E-12	640.515E-3	-5.23030E-3
-3.73437E-3	-189.527E-12	688.252E-3	-34.4154E-3	-192.013E-12	683.725E-3	-22.4807E-3
-3.73937E-3	-191.121E-12	670.209E-3	-6.16491E-3	-190.742E-12	692.547E-3	-40.4661E-3
-3.74437E-3	-191.547E-12	664.567E-3	-3.74891E-3	-191.169E-12	665.430E-3	-18.7098E-3
-3.74937E-3	-192.602E-12	653.314E-3	-31.1083E-3	-190.719E-12	656.243E-3	-5.45367E-3
-3.75438E-3	-192.878E-12	654.704E-3	-59.1585E-3	-190.228E-12	650.337E-3	-27.8473E-3
-3.75938E-3	-192.985E-12	678.357E-3	-49.3478E-3	-191.447E-12	655.555E-3	-44.6442E-3
-3.76438E-3	-193.468E-12	677.375E-3	-27.3714E-3	-191.415E-12	688.084E-3	-45.7385E-3
-3.76938E-3	-194.761E-12	656.341E-3	-18.0102E-3	-192.240E-12	699.172E-3	-40.8813E-3
-3.77439E-3	-194.347E-12	664.020E-3	-19.7067E-3	-193.714E-12	680.382E-3	-33.4517E-3
-3.77939E-3	-195.214E-12	684.435E-3	-36.4321E-3	-195.228E-12	673.573E-3	-23.6544E-3
-3.78439E-3	-195.698E-12	689.850E-3	-52.7102E-3	-194.547E-12	671.204E-3	-16.9884E-3
-3.78939E-3	-194.511E-12	692.721E-3	-36.6009E-3	-196.439E-12	674.195E-3	-7.66780E-3
-3.79440E-3	-196.243E-12	692.789E-3	6.41475E-3	-197.538E-12	694.594E-3	8.31412E-3
-3.79940E-3	-196.360E-12	692.314E-3	4.61579E-3	-197.472E-12	691.070E-3	12.5377E-3
-3.80440E-3	-194.851E-12	688.873E-3	-31.0418E-3	-197.450E-12	670.410E-3	531.843E-6
-3.80940E-3	-195.007E-12	690.527E-3	-8.55770E-3	-198.786E-12	687.394E-3	-13.5269E-3
-3.81441E-3	-194.944E-12	696.043E-3	16.9672E-3	-197.211E-12	697.051E-3	-23.6252E-3
-3.81941E-3	-193.647E-12	708.687E-3	-550.049E-6	-196.619E-12	686.521E-3	-23.9974E-3
-3.82441E-3	-194.476E-12	705.341E-3	-16.1446E-3	-196.136E-12	677.859E-3	-15.6708E-3
-3.82941E-3	-195.473E-12	654.429E-3	-36.4330E-3	-194.446E-12	659.644E-3	-17.2031E-3
-3.83442E-3	-195.317E-12	621.013E-3	-43.6403E-3	-193.228E-12	667.218E-3	-33.2303E-3
-3.83942E-3	-195.720E-12	639.536E-3	-15.7447E-3	-192.714E-12	688.046E-3	-46.3161E-3
-3.84442E-3	-198.037E-12	660.646E-3	-5.81454E-3	-193.050E-12	683.044E-3	-40.5707E-3
-3.84942E-3	-197.363E-12	676.730E-3	-41.6332E-3	-191.958E-12	668.297E-3	-36.7160E-3
-3.85443E-3	-197.086E-12	680.364E-3	-65.4609E-3	-192.262E-12	670.565E-3	-41.3652E-3
-3.85943E-3	-197.271E-12	666.751E-3	-48.5642E-3	-194.724E-12	670.740E-3	-46.3791E-3
-3.86443E-3	-198.622E-12	660.803E-3	-26.7396E-3	-195.735E-12	669.126E-3	-51.1991E-3
-3.86943E-3	-199.333E-12	658.104E-3	-3.92255E-3	-196.799E-12	689.666E-3	-30.1765E-3
-3.87444E-3	-198.127E-12	684.540E-3	1.65334E-3	-197.586E-12	701.384E-3	6.07149E-3
-3.87944E-3	-198.614E-12	703.470E-3	-13.7721E-3	-200.158E-12	693.705E-3	21.0417E-3
-3.88444E-3	-198.895E-12	664.908E-3	-18.8897E-3	-201.181E-12	689.341E-3	9.32280E-3
-3.88944E-3	-198.715E-12	634.032E-3	-16.6511E-3	-202.462E-12	690.191E-3	-16.2392E-3
-3.89445E-3	-198.972E-12	628.378E-3	-10.6285E-3	-202.773E-12	692.598E-3	-41.9946E-3
-3.89945E-3	-198.928E-12	615.061E-3	-7.47462E-3	-203.287E-12	689.034E-3	-48.9509E-3
-3.90445E-3	-198.870E-12	612.591E-3	-9.65957E-3	-202.869E-12	684.796E-3	-29.2996E-3
-3.90945E-3	-198.436E-12	634.512E-3	-9.52943E-3	-202.035E-12	686.332E-3	-32.0510E-3
-3.91446E-3	-198.915E-12	655.570E-3	3.23008E-3	-200.780E-12	669.168E-3	-72.4196E-3
-3.91946E-3	-198.935E-12	662.578E-3	23.9930E-3	-199.691E-12	643.282E-3	-87.2092E-3
-3.92446E-3	-199.727E-12	654.306E-3	28.4132E-3	-198.949E-12	629.653E-3	-54.9724E-3
-3.92946E-3	-199.577E-12	648.848E-3	23.6974E-3	-197.768E-12	620.935E-3	-7.79413E-3
-3.93447E-3	-200.379E-12	654.152E-3	12.8911E-3	-197.035E-12	628.842E-3	12.8604E-3
-3.93947E-3	-200.481E-12	667.149E-3	3.41956E-3	-197.722E-12	655.463E-3	2.40486E-3
-3.94447E-3	-199.551E-12	692.384E-3	-433.794E-6	-198.372E-12	688.249E-3	-15.2228E-3
-3.94947E-3	-200.771E-12	701.985E-3	-31.0411E-3	-199.291E-12	698.813E-3	-18.4258E-3
-3.95448E-3	-201.308E-12	693.791E-3	-60.3840E-3	-200.193E-12	684.704E-3	7.03864E-3
-3.95948E-3	-200.074E-12	690.483E-3	-49.9793E-3	-202.473E-12	670.586E-3	32.4518E-3
-3.96448E-3	-201.408E-12	676.530E-3	-28.4229E-3	-203.800E-12	672.082E-3	18.2952E-3
-3.96948E-3	-203.360E-12	661.780E-3	-15.1278E-3	-204.461E-12	677.068E-3	-13.3195E-3
-3.97449E-3	-202.505E-12	665.016E-3	-2.37127E-3	-206.385E-12	673.822E-3	-16.9568E-3
-3.97949E-3	-202.986E-12	654.430E-3	-12.5231E-3	-206.870E-12	685.281E-3	-12.3323E-3
-3.98449E-3	-204.166E-12	658.117E-3	-41.7656E-3	-206.561E-12	700.338E-3	-23.1550E-3
-3.98949E-3	-204.112E-12	681.324E-3	-33.2526E-3	-206.315E-12	702.568E-3	-37.1150E-3
-3.99450E-3	-203.391E-12	675.825E-3	-14.0528E-3	-206.654E-12	707.682E-3	-41.9095E-3
-3.99950E-3	-203.359E-12	678.404E-3	-13.9722E-3	-205.183E-12	732.829E-3	-22.0643E-3
-4.00450E-3	-204.827E-12	693.942E-3	1.49687E-3	-203.694E-12	740.120E-3	3.03500E-3
-4.00950E-3	-205.591E-12	687.557E-3	14.2723E-3	-202.861E-12	699.444E-3	15.1307E-3
-4.01451E-3	-205.286E-12	683.370E-3	-2.73384E-3	-203.467E-12	662.969E-3	-2.15869E-3
-4.01951E-3	-205.335E-12	679.720E-3	-15.6929E-3	-202.212E-12	660.557E-3	-23.7767E-3
-4.02451E-3	-205.518E-12	652.922E-3	-20.1962E-3	-201.828E-12	665.292E-3	-33.9573E-3
-4.02951E-3	-206.027E-12	661.887E-3	-38.5563E-3	-201.760E-12	675.839E-3	-51.6962E-3
-4.03452E-3	-205.521E-12	702.369E-3	-27.6482E-3	-202.175E-12	682.937E-3	-44.8883E-3
-4.03952E-3	-204.703E-12	687.682E-3	25.6309E-3	-202.080E-12	670.525E-3	-37.2456E-3
-4.04452E-3	-204.431E-12	648.666E-3	46.5778E-3	-203.973E-12	675.048E-3	-68.7128E-3
-4.04952E-3	-204.649E-12	648.662E-3	25.9406E-3	-204.641E-12	700.017E-3	-76.8273E-3
-4.05453E-3	-203.913E-12	677.473E-3	20.8006E-3	-206.149E-12	708.396E-3	-28.8830E-3
-4.05953E-3	-204.244E-12	700.293E-3	18.5682E-3	-207.982E-12	693.774E-3	-3.91177E-3
-4.06453E-3	-205.707E-12	687.678E-3	11.4069E-3	-209.595E-12	671.447E-3	-9.31151E-3
-4.06953E-3	-206.146E-12	646.862E-3	4.15822E-3	-208.790E-12	679.524E-3	-17.8019E-3
-4.07454E-3	-207.049E-12	629.827E-3	-20.3253E-3	-210.471E-12	713.694E-3	-39.9274E-3
-4.07954E-3	-207.277E-12	660.213E-3	-19.5995E-3	-210.607E-12	723.080E-3	-46.7394E-3
-4.08454E-3	-208.157E-12	673.728E-3	15.3892E-3	-208.519E-12	685.091E-3	-47.6587E-3
-4.08954E-3	-209.519E-12	654.531E-3	13.2503E-3	-209.044E-12	641.750E-3	-53.5920E-3
-4.09455E-3	-209.333E-12	663.691E-3	8.84494E-3	-210.363E-12	658.633E-3	-29.3961E-3
-4.09955E-3	-210.059E-12	679.921E-3	14.5036E-3	-207.774E-12	682.662E-3	405.832E-6
-4.10455E-3	-210.847E-12	696.955E-3	-25.3717E-3	-208.464E-12	656.820E-3	10.0925E-3
-4.10955E-3	-210.706E-12	713.922E-3	-48.4223E-3	-209.214E-12	653.760E-3	24.6400E-3
-4.11456E-3	-210.456E-12	704.178E-3	-22.4806E-3	-207.514E-12	674.053E-3	19.9368E-3
-4.11956E-3	-210.993E-12	677.288E-3	8.28889E-3	-207.895E-12	680.687E-3	-9.66551E-3
-4.12456E-3	-210.861E-12	676.601E-3	954.729E-6	-210.145E-12	700.198E-3	-14.7740E-3
-4.12956E-3	-209.488E-12	713.408E-3	-20.6807E-3	-209.145E-12	724.464E-3	-23.9748E-3
-4.13457E-3	-209.577E-12	721.376E-3	-31.5796E-3	-208.572E-12	712.179E-3	-22.4128E-3
-4.13957E-3	-209.345E-12	684.263E-3	-36.6019E-3	-210.535E-12	682.056E-3	6.96867E-3
-4.14457E-3	-208.594E-12	644.797E-3	-24.8239E-3	-211.093E-12	671.371E-3	2.23904E-3
-4.14957E-3	-209.105E-12	630.475E-3	-8.94027E-3	-211.837E-12	678.422E-3	-27.9846E-3
-4.15458E-3	-208.619E-12	643.838E-3	9.03122E-3	-212.946E-12	672.629E-3	-40.7567E-3
-4.15958E-3	-208.354E-12	661.145E-3	21.9002E-3	-213.161E-12	649.075E-3	-15.8075E-3
-4.16458E-3	-209.368E-12	644.965E-3	18.4538E-3	-212.327E-12	624.611E-3	9.92615E-3
-4.16958E-3	-210.547E-12	617.762E-3	-11.7541E-3	-212.885E-12	602.461E-3	1.31813E-3
-4.17459E-3	-210.311E-12	640.380E-3	-32.8202E-3	-211.366E-12	632.635E-3	-5.92218E-3
-4.17959E-3	-210.938E-12	685.202E-3	-20.0141E-3	-210.436E-12	690.313E-3	-3.72620E-3
-4.18459E-3	-211.767E-12	683.385E-3	-27.5907E-3	-211.729E-12	682.699E-3	-11.1375E-3
-4.18959E-3	-212.398E-12	659.949E-3	-36.5604E-3	-212.305E-12	627.730E-3	-8.31262E-3
-4.19460E-3	-214.221E-12	649.938E-3	-30.4575E-3	-211.526E-12	587.215E-3	-11.3987E-3
-4.19960E-3	-216.151E-12	652.206E-3	-42.6335E-3	-213.141E-12	587.104E-3	-19.8797E-3
-4.20460E-3	-215.131E-12	682.369E-3	-43.3708E-3	-214.154E-12	608.349E-3	-31.1478E-3
-4.20960E-3	-216.018E-12	698.211E-3	-26.9307E-3	-213.781E-12	631.133E-3	-47.6430E-3
-4.21461E-3	-216.173E-12	669.078E-3	-23.4037E-3	-215.096E-12	646.244E-3	-44.4924E-3
-4.21961E-3	-215.903E-12	661.837E-3	-21.6509E-3	-216.423E-12	652.516E-3	-30.0331E-3
-4.22461E-3	-214.619E-12	693.958E-3	-12.7177E-3	-214.429E-12	652.657E-3	-9.31915E-3
-4.22961E-3	-214.099E-12	720.222E-3	-15.2216E-3	-215.650E-12	645.430E-3	13.7495E-3
-4.23462E-3	-213.570E-12	721.994E-3	-11.9510E-3	-216.086E-12	678.297E-3	10.0968E-3
-4.23962E-3	-212.135E-12	685.251E-3	10.4806E-3	-215.426E-12	702.559E-3	-20.2881E-3
-4.24462E-3	-211.900E-12	635.051E-3	13.0565E-3	-213.793E-12	663.479E-3	-28.7616E-3
-4.24962E-3	-211.638E-12	625.432E-3	3.85058E-3	-215.568E-12	634.811E-3	-13.3949E-3
-4.25463E-3	-211.652E-12	657.370E-3	-6.09222E-3	-213.570E-12	631.650E-3	-8.07301E-3
-4.25963E-3	-212.088E-12	656.274E-3	-21.0541E-3	-211.892E-12	624.684E-3	-19.9273E-3
-4.26463E-3	-213.260E-12	608.530E-3	-30.7953E-3	-212.941E-12	622.468E-3	-36.3250E-3
-4.26963E-3	-213.798E-12	618.012E-3	-43.2445E-3	-212.012E-12	614.231E-3	-51.9641E-3
-4.27464E-3	-214.116E-12	665.864E-3	-43.4772E-3	-212.479E-12	617.324E-3	-57.3398E-3
-4.27964E-3	-214.717E-12	665.734E-3	-45.1341E-3	-212.734E-12	663.816E-3	-57.0600E-3
-4.28464E-3	-216.076E-12	644.707E-3	-57.9783E-3	-213.180E-12	698.960E-3	-44.7667E-3
-4.28964E-3	-217.984E-12	627.523E-3	-60.6500E-3	-216.281E-12	688.418E-3	-3.18971E-3
-4.29465E-3	-218.729E-12	624.760E-3	-58.8432E-3	-217.517E-12	672.764E-3	25.1986E-3
-4.29965E-3	-218.935E-12	654.400E-3	-44.4273E-3	-218.731E-12	682.350E-3	15.9197E-3
-4.30465E-3	-220.225E-12	701.602E-3	-19.6320E-3	-221.372E-12	704.397E-3	-6.61596E-3
-4.30965E-3	-222.022E-12	705.133E-3	3.36889E-3	-223.464E-12	719.833E-3	-13.3619E-3
-4.31466E-3	-219.948E-12	684.487E-3	-7.43402E-3	-222.924E-12	734.367E-3	3.01133E-3
-4.31966E-3	-219.376E-12	690.613E-3	-32.2380E-3	-222.613E-12	727.583E-3	-8.94748E-3
-4.32466E-3	-219.787E-12	690.209E-3	-7.65321E-3	-223.600E-12	663.519E-3	-47.2753E-3
-4.32966E-3	-218.110E-12	676.335E-3	26.7141E-3	-222.806E-12	620.022E-3	-32.7960E-3
-4.33467E-3	-217.331E-12	673.534E-3	28.1699E-3	-220.735E-12	650.056E-3	2.59775E-3
-4.33967E-3	-217.895E-12	690.351E-3	6.73090E-3	-220.824E-12	651.557E-3	5.51072E-3
-4.34467E-3	-217.196E-12	685.154E-3	-21.3909E-3	-218.418E-12	613.070E-3	10.9625E-3
-4.34967E-3	-215.485E-12	627.462E-3	-34.7020E-3	-216.726E-12	612.482E-3	20.7249E-3
-4.35468E-3	-216.403E-12	585.339E-3	-36.4542E-3	-217.261E-12	644.696E-3	20.6887E-3
-4.35968E-3	-216.669E-12	613.508E-3	-34.1281E-3	-215.592E-12	680.665E-3	10.2161E-3
-4.36468E-3	-217.278E-12	659.809E-3	-24.0780E-3	-214.643E-12	671.829E-3	3.87819E-3
-4.36968E-3	-218.427E-12	664.297E-3	-2.45165E-3	-215.483E-12	612.808E-3	20.5928E-3
-4.37469E-3	-218.553E-12	641.489E-3	24.0055E-3	-217.060E-12	595.453E-3	30.8255E-3
-4.37969E-3	-220.713E-12	644.634E-3	50.8829E-3	-217.868E-12	635.979E-3	17.1419E-3
-4.38469E-3	-221.162E-12	665.837E-3	42.1655E-3	-220.009E-12	650.152E-3	10.9909E-3
-4.38969E-3	-220.817E-12	686.901E-3	196.551E-6	-221.772E-12	665.970E-3	26.9633E-3
-4.39470E-3	-222.821E-12	701.798E-3	8.04996E-3	-224.235E-12	691.506E-3	32.9851E-3
-4.39970E-3	-224.483E-12	680.346E-3	38.3008E-3	-225.414E-12	665.843E-3	11.0350E-3
-4.40470E-3	-223.814E-12	663.576E-3	20.3622E-3	-226.737E-12	651.339E-3	5.72831E-3
-4.40970E-3	-223.986E-12	682.096E-3	-7.46784E-3	-228.534E-12	662.420E-3	14.8253E-3
-4.41471E-3	-223.747E-12	683.314E-3	-5.64351E-3	-228.030E-12	663.496E-3	9.48809E-3
-4.41971E-3	-223.641E-12	648.839E-3	-10.3495E-3	-228.551E-12	673.142E-3	24.7002E-3
-4.42471E-3	-223.147E-12	625.662E-3	-27.8544E-3	-228.073E-12	687.810E-3	20.3915E-3
-4.42971E-3	-223.294E-12	638.193E-3	-19.5192E-3	-225.303E-12	672.045E-3	-23.9509E-3
-4.43472E-3	-221.886E-12	647.170E-3	-14.8756E-3	-224.903E-12	629.789E-3	-49.1222E-3
-4.43972E-3	-222.158E-12	648.537E-3	-39.4324E-3	-224.555E-12	610.071E-3	-36.4765E-3
-4.44472E-3	-222.041E-12	640.280E-3	-18.8401E-3	-221.336E-12	623.251E-3	-6.34011E-3
-4.44972E-3	-221.673E-12	633.882E-3	33.1826E-3	-219.868E-12	630.555E-3	-822.895E-6
-4.45473E-3	-222.276E-12	656.555E-3	17.4146E-3	-221.275E-12	647.328E-3	-17.8817E-3
-4.45973E-3	-223.954E-12	683.256E-3	-18.8538E-3	-220.910E-12	671.809E-3	-19.7857E-3
-4.46473E-3	-223.066E-12	700.048E-3	-19.8507E-3	-218.719E-12	678.148E-3	5.11545E-3
-4.46973E-3	-223.186E-12	662.544E-3	-6.37345E-3	-220.489E-12	685.806E-3	3.85094E-3
-4.47474E-3	-224.648E-12	587.443E-3	2.09336E-3	-222.052E-12	662.655E-3	-49.9247E-3
-4.47974E-3	-224.202E-12	578.569E-3	-10.2001E-3	-223.351E-12	617.958E-3	-72.9249E-3
-4.48474E-3	-224.028E-12	629.158E-3	-15.2537E-3	-225.408E-12	643.511E-3	-50.4956E-3
-4.48974E-3	-226.142E-12	660.204E-3	-11.3259E-3	-226.023E-12	697.270E-3	-55.8644E-3
-4.49475E-3	-226.257E-12	634.136E-3	-8.59911E-3	-226.076E-12	705.835E-3	-75.7941E-3
-4.49975E-3	-225.997E-12	603.357E-3	241.098E-6	-227.392E-12	688.744E-3	-76.9592E-3
-4.50475E-3	-226.466E-12	636.033E-3	13.1014E-3	-230.313E-12	682.567E-3	-94.0411E-3
-4.50975E-3	-227.500E-12	684.632E-3	14.9219E-3	-228.456E-12	703.386E-3	-110.509E-3
-4.51476E-3	-228.246E-12	698.373E-3	16.0681E-3	-227.245E-12	729.374E-3	-59.9921E-3
-4.51976E-3	-227.563E-12	675.839E-3	21.1965E-3	-229.876E-12	718.726E-3	-3.51445E-3
-4.52476E-3	-229.951E-12	631.965E-3	-17.9075E-3	-228.123E-12	673.330E-3	9.58289E-3
-4.52976E-3	-230.135E-12	616.769E-3	-62.8638E-3	-225.780E-12	642.840E-3	12.1302E-3
-4.53477E-3	-228.460E-12	634.584E-3	-46.7749E-3	-228.527E-12	637.607E-3	-14.0089E-3
-4.53977E-3	-230.264E-12	652.195E-3	-10.1336E-3	-227.370E-12	630.010E-3	-35.5129E-3
-4.54477E-3	-230.708E-12	659.439E-3	-1.21919E-3	-226.408E-12	616.882E-3	-31.9420E-3
-4.54977E-3	-229.201E-12	643.840E-3	-10.0290E-3	-227.537E-12	625.473E-3	-37.5424E-3
-4.55478E-3	-230.556E-12	622.446E-3	-26.8158E-3	-228.392E-12	648.939E-3	-45.6031E-3
-4.55978E-3	-230.374E-12	617.322E-3	-50.4861E-3	-227.529E-12	669.807E-3	-57.3204E-3
-4.56478E-3	-228.081E-12	629.366E-3	-50.6004E-3	-228.970E-12	677.614E-3	-63.1772E-3
-4.56978E-3	-228.968E-12	648.815E-3	-38.4450E-3	-228.953E-12	670.252E-3	-45.5602E-3
-4.57479E-3	-229.806E-12	648.610E-3	-32.2598E-3	-228.796E-12	663.911E-3	-23.9814E-3
-4.57979E-3	-226.455E-12	667.648E-3	-21.0198E-3	-229.634E-12	656.341E-3	-22.3889E-3
-4.58479E-3	-227.731E-12	694.559E-3	-16.7611E-3	-229.982E-12	649.777E-3	-32.9556E-3
-4.58979E-3	-229.431E-12	671.924E-3	-16.8167E-3	-228.632E-12	653.967E-3	-21.8244E-3
-4.59480E-3	-228.286E-12	648.892E-3	9.28359E-3	-228.996E-12	653.268E-3	-7.50182E-3
-4.59980E-3	-228.342E-12	630.253E-3	33.4576E-3	-229.656E-12	639.047E-3	-20.9729E-3
-4.60480E-3	-230.204E-12	639.265E-3	11.0573E-3	-228.713E-12	641.941E-3	-28.0045E-3
-4.60980E-3	-229.432E-12	679.064E-3	-7.70680E-3	-228.177E-12	673.100E-3	-29.8829E-3
-4.61481E-3	-231.588E-12	677.870E-3	-5.20321E-3	-229.756E-12	684.665E-3	-21.1878E-3
-4.61981E-3	-233.015E-12	664.044E-3	-17.3876E-3	-230.059E-12	672.325E-3	22.0195E-3
-4.62481E-3	-232.948E-12	661.427E-3	-7.60408E-3	-229.897E-12	679.245E-3	27.4776E-3
-4.62981E-3	-233.984E-12	660.030E-3	16.5871E-3	-231.400E-12	685.048E-3	-21.4517E-3
-4.63482E-3	-235.818E-12	650.315E-3	22.5553E-3	-233.685E-12	668.283E-3	-30.7114E-3
-4.63982E-3	-236.826E-12	636.385E-3	5.88722E-3	-235.054E-12	651.411E-3	18.8565E-3
-4.64482E-3	-235.904E-12	670.643E-3	-32.8052E-3	-234.004E-12	645.076E-3	55.1664E-3
-4.64982E-3	-234.998E-12	683.908E-3	-41.0071E-3	-235.187E-12	642.318E-3	49.2238E-3
-4.65483E-3	-235.656E-12	633.626E-3	-21.1697E-3	-237.821E-12	638.205E-3	16.7627E-3
-4.65983E-3	-235.033E-12	626.582E-3	-12.5149E-3	-236.258E-12	623.528E-3	-14.6206E-3
-4.66483E-3	-231.155E-12	652.306E-3	2.66082E-3	-236.441E-12	622.117E-3	-13.0178E-3
-4.66983E-3	-231.328E-12	637.598E-3	13.8095E-3	-235.824E-12	668.240E-3	-11.2151E-3
-4.67484E-3	-231.125E-12	630.854E-3	-11.0545E-3	-235.259E-12	697.020E-3	-36.4807E-3
-4.67984E-3	-229.257E-12	654.574E-3	-65.7569E-3	-234.952E-12	672.805E-3	-50.0454E-3
-4.68484E-3	-228.272E-12	672.900E-3	-116.988E-3	-234.014E-12	681.214E-3	-27.5217E-3
-4.68984E-3	-230.552E-12	688.732E-3	-105.303E-3	-231.785E-12	710.367E-3	-9.10241E-3
-4.69485E-3	-230.230E-12	682.224E-3	-39.5175E-3	-230.518E-12	675.616E-3	-131.059E-6
-4.69985E-3	-230.501E-12	659.083E-3	763.133E-6	-230.633E-12	625.966E-3	12.1377E-3
-4.70485E-3	-232.259E-12	648.232E-3	14.8187E-3	-229.669E-12	612.549E-3	-15.7355E-3
-4.70985E-3	-233.862E-12	645.525E-3	27.4577E-3	-230.797E-12	592.238E-3	-60.5214E-3
-4.71486E-3	-235.308E-12	649.748E-3	4.77159E-3	-230.358E-12	596.812E-3	-70.1307E-3
-4.71986E-3	-236.578E-12	657.784E-3	-8.41768E-3	-232.529E-12	650.782E-3	-77.7270E-3
-4.72486E-3	-238.271E-12	666.393E-3	13.9986E-3	-234.109E-12	665.255E-3	-77.8163E-3
-4.72986E-3	-240.599E-12	673.262E-3	19.0855E-3	-236.516E-12	634.280E-3	-32.1124E-3
-4.73487E-3	-240.811E-12	672.272E-3	16.0091E-3	-237.099E-12	655.711E-3	-99.5137E-6
-4.73987E-3	-241.285E-12	665.929E-3	23.7580E-3	-238.842E-12	721.738E-3	-19.3775E-3
-4.74487E-3	-240.786E-12	656.221E-3	18.2624E-3	-240.764E-12	737.056E-3	-45.8156E-3
-4.74988E-3	-240.632E-12	651.638E-3	-17.8119E-3	-242.398E-12	706.984E-3	-57.6442E-3
-4.75488E-3	-238.518E-12	658.088E-3	-14.9687E-3	-241.919E-12	669.724E-3	-68.1870E-3
-4.75988E-3	-237.171E-12	655.879E-3	32.8053E-3	-241.415E-12	642.897E-3	-63.6124E-3
-4.76488E-3	-236.886E-12	643.476E-3	12.4473E-3	-240.671E-12	654.180E-3	-45.0683E-3
-4.76988E-3	-236.512E-12	635.021E-3	-28.7060E-3	-239.152E-12	676.174E-3	-57.8090E-3
-4.77489E-3	-235.633E-12	622.744E-3	-21.0804E-3	-238.242E-12	693.371E-3	-44.0971E-3
-4.77989E-3	-236.212E-12	634.056E-3	-35.2989E-3	-236.930E-12	710.461E-3	17.3119E-3
-4.78489E-3	-234.733E-12	679.615E-3	-24.7813E-3	-235.766E-12	687.018E-3	29.2060E-3
-4.78989E-3	-236.701E-12	688.725E-3	33.3321E-3	-235.215E-12	651.766E-3	15.1084E-3
-4.79490E-3	-236.833E-12	674.475E-3	43.3004E-3	-235.019E-12	665.458E-3	30.1390E-3
-4.79990E-3	-237.135E-12	686.962E-3	13.4043E-3	-234.925E-12	698.054E-3	20.0830E-3
-4.80490E-3	-238.792E-12	683.492E-3	-19.1270E-3	-235.607E-12	706.260E-3	-3.11863E-3
-4.80990E-3	-240.158E-12	679.708E-3	-39.6576E-3	-236.675E-12	685.220E-3	12.3987E-3
-4.81491E-3	-240.756E-12	699.680E-3	-31.6346E-3	-237.978E-12	690.291E-3	4.06358E-3
-4.81991E-3	-241.546E-12	697.869E-3	8.07374E-3	-239.847E-12	722.352E-3	-26.4930E-3
-4.82491E-3	-243.114E-12	678.689E-3	-414.585E-6	-240.342E-12	721.689E-3	7.37578E-3
-4.82991E-3	-241.750E-12	679.112E-3	-62.9539E-3	-243.117E-12	701.674E-3	27.9427E-3
-4.83492E-3	-243.758E-12	706.093E-3	-70.5661E-3	-244.215E-12	683.411E-3	-8.27349E-3
-4.83992E-3	-242.232E-12	714.730E-3	-35.8969E-3	-243.834E-12	675.414E-3	-17.0924E-3
-4.84492E-3	-241.087E-12	694.935E-3	-33.5098E-3	-245.436E-12	699.698E-3	-18.8915E-3
-4.84992E-3	-239.693E-12	693.363E-3	-48.6323E-3	-245.701E-12	721.269E-3	-39.7225E-3
-4.85493E-3	-240.936E-12	685.132E-3	-64.1770E-3	-243.947E-12	685.107E-3	-19.6119E-3
-4.85993E-3	-238.772E-12	657.578E-3	-82.5427E-3	-243.895E-12	663.198E-3	5.05523E-3
-4.86493E-3	-239.365E-12	647.473E-3	-46.8227E-3	-243.101E-12	672.589E-3	-15.5658E-3
-4.86993E-3	-239.923E-12	647.197E-3	4.61469E-3	-240.940E-12	652.916E-3	-36.5629E-3
-4.87494E-3	-240.462E-12	647.777E-3	-16.6379E-3	-241.126E-12	640.054E-3	-36.6442E-3
-4.87994E-3	-240.055E-12	662.174E-3	-38.8336E-3	-241.868E-12	636.803E-3	-53.6118E-3
-4.88494E-3	-241.237E-12	675.407E-3	7.82443E-3	-240.236E-12	618.461E-3	-68.4399E-3
-4.88995E-3	-241.352E-12	673.639E-3	29.9700E-3	-241.062E-12	611.049E-3	-36.5553E-3
-4.89495E-3	-241.711E-12	674.612E-3	-9.16602E-3	-241.450E-12	619.449E-3	-15.8241E-3
-4.89995E-3	-242.408E-12	647.683E-3	-35.5063E-3	-241.791E-12	607.757E-3	-13.9479E-3
-4.90495E-3	-243.215E-12	622.445E-3	-28.1867E-3	-243.263E-12	612.784E-3	-6.32278E-3
-4.90995E-3	-244.448E-12	649.687E-3	-20.1444E-3	-244.923E-12	635.617E-3	-22.8039E-3
-4.91496E-3	-244.934E-12	654.456E-3	-22.5870E-3	-244.407E-12	643.256E-3	-32.6279E-3
-4.91996E-3	-245.433E-12	627.507E-3	-27.8500E-3	-246.140E-12	657.723E-3	-37.8908E-3
-4.92496E-3	-245.004E-12	637.108E-3	-35.4867E-3	-246.814E-12	641.845E-3	-71.5131E-3
-4.92996E-3	-244.035E-12	661.243E-3	-37.9024E-3	-246.863E-12	642.444E-3	-74.8001E-3
-4.93497E-3	-244.158E-12	671.408E-3	-20.2570E-3	-246.658E-12	700.495E-3	-19.7669E-3
-4.93997E-3	-244.205E-12	666.876E-3	917.751E-6	-246.848E-12	708.079E-3	21.8527E-3
-4.94497E-3	-243.604E-12	661.510E-3	-2.71215E-3	-246.084E-12	665.429E-3	28.2768E-3
-4.94997E-3	-245.406E-12	673.191E-3	-10.0144E-3	-246.005E-12	668.226E-3	36.2011E-3
-4.95498E-3	-244.552E-12	666.782E-3	-6.76089E-3	-245.737E-12	673.706E-3	5.18759E-3
-4.95998E-3	-244.881E-12	650.290E-3	-9.16377E-3	-246.987E-12	652.394E-3	-61.5080E-3
-4.96498E-3	-247.496E-12	666.372E-3	-181.117E-6	-245.755E-12	667.700E-3	-71.7151E-3
-4.96998E-3	-247.815E-12	675.244E-3	22.8009E-3	-246.239E-12	677.935E-3	-32.8729E-3
-4.97499E-3	-247.786E-12	664.960E-3	33.5114E-3	-247.300E-12	674.938E-3	-11.7228E-3
-4.97999E-3	-250.337E-12	666.198E-3	25.2444E-3	-247.472E-12	689.958E-3	-15.4640E-3
-4.98499E-3	-250.602E-12	669.226E-3	10.3248E-3	-247.269E-12	673.666E-3	-17.2569E-3
-4.98999E-3	-250.204E-12	671.414E-3	-15.9605E-3	-249.718E-12	643.549E-3	-7.54254E-3
-4.99500E-3	-251.383E-12	692.581E-3	-29.5780E-3	-250.886E-12	654.620E-3	26.1049E-3
-5.00000E-3	-250.848E-12	711.835E-3	17.5195E-3	-250.666E-12	693.876E-3	53.9727E-3
