Experiment	bias spectroscopy	
Date	19.01.2016 21:46:27	
User		
X (m)	49.2689E-9	
Y (m)	257.028E-9	
Z (m)	-132.614E-9	
Z offset (m)	0E+0	
Settling time (s)	200E-6	
Integration time (s)	5E-3	
Z-Ctrl hold	TRUE	
Final Z (m)	N/A	
Filter type	None	
Order		
Cutoff frq		
Comment01	MnPc/Pb(111)	
Comment02	dz =00pm	
Comment03	7 Sweeps	
Comment04	MagField =0.T	
Comment05	Divider 1:10	
Comment06	Setpoint:5mV,200 pA	
Comment07	Lockin: 50uVrms,5ms,5mV	
Comment08	Gain:9; 912Hz modulation	
Comment09	T=1.06K	
Bias>Bias (V)	5E-3	
Bias>Calibration (V/V)	81.475E-3	
Bias>Offset (V)	1.046E-3	
Bias Spectroscopy>Sweep Start (V)	5E-3	
Bias Spectroscopy>Sweep End (V)	-5E-3	
Bias Spectroscopy>Num Pixel	2000	
Bias Spectroscopy>Z Avg time (s)	500E-3	
Bias Spectroscopy>Z offset (m)	0E+0	
Bias Spectroscopy>1st Settling time (s)	500E-3	
Bias Spectroscopy>Settling time (s)	200E-6	
Bias Spectroscopy>Integration time (s)	5E-3	
Bias Spectroscopy>End Settling time (s)	500E-3	
Bias Spectroscopy>Z control time (s)	500E-3	
Bias Spectroscopy>Max Slew rate (V/s)	Inf	
Bias Spectroscopy>backward sweep	TRUE	
Bias Spectroscopy>Z-controller hold	TRUE	
Bias Spectroscopy>Number of sweeps	7	
Bias Spectroscopy>Channels	Current (A);X% LockIn (V);Y% LockIn (V)	
Bias Spectroscopy>Reset Bias	TRUE	
Bias Spectroscopy>Record final Z	FALSE	
Bias Spectroscopy>Lock-In run	FALSE	
Bias Spectroscopy>Sweep mode	Linear	
Bias Spectroscopy>MultiLine Settings : Segment Start (V), Segment End (V), Settling (s), Integration (s), Steps (xn)	100E-3,3.3E-3,100E-6,10E-3,2500;3.3E-3,-3.3E-3,100E-6,10E-3,10;-3.3E-3,-100E-3,100E-6,10E-3,2500	
Current>Current (A)	200.075E-12	
Current>Calibration (A/V)	999.99900E-12	
Current>Offset (A)	-455.429E-15	
Current>Gain	LN 10^9	
Z-Controller>Z (m)	-132.614E-9	
Z-Controller>Controller name	log Current	
Z-Controller>Controller status	ON	
Z-Controller>Setpoint	200E-12	
Z-Controller>Setpoint unit	A	
Z-Controller>P gain	2.96994E-12	
Z-Controller>I gain	67.0321E-9	
Z-Controller>Time const (s)	44.3062E-6	
Z-Controller>TipLift (m)	0E+0	
Z-Controller>Switch off delay (s)	50E-3	
Current (A)	200.014E-12	
Z (m)	-132.614E-9	

[DATA]
Bias calc (V)	Current (A)	X% LockIn (V)	Y% LockIn (V)	Current [bwd] (A)	X% LockIn [bwd] (V)	Y% LockIn [bwd] (V)
5.00000E-3	197.371E-12	644.342E-3	-58.9705E-3	201.820E-12	663.278E-3	-18.9127E-3
4.99500E-3	195.961E-12	644.174E-3	-61.1982E-3	201.969E-12	668.805E-3	-19.3710E-3
4.98999E-3	197.071E-12	657.383E-3	-34.0003E-3	201.870E-12	662.862E-3	-33.2114E-3
4.98499E-3	196.196E-12	657.432E-3	-13.4395E-3	202.315E-12	658.878E-3	-24.6764E-3
4.97999E-3	198.921E-12	671.766E-3	-18.9983E-3	202.916E-12	670.473E-3	-2.34137E-3
4.97499E-3	198.283E-12	689.065E-3	-12.3402E-3	202.778E-12	674.959E-3	4.70803E-3
4.96998E-3	198.828E-12	682.079E-3	-2.02223E-3	202.730E-12	671.458E-3	-6.16867E-3
4.96498E-3	199.629E-12	692.965E-3	-8.58037E-3	203.169E-12	666.366E-3	-23.2112E-3
4.95998E-3	200.395E-12	714.660E-3	-1.89289E-3	202.440E-12	669.732E-3	-17.0898E-3
4.95498E-3	199.199E-12	686.384E-3	-1.17446E-3	200.393E-12	685.129E-3	1.77325E-3
4.94997E-3	198.327E-12	643.562E-3	-28.7786E-3	199.080E-12	705.159E-3	10.4407E-3
4.94497E-3	200.837E-12	637.749E-3	-45.9155E-3	197.494E-12	696.791E-3	14.1798E-3
4.93997E-3	197.185E-12	640.442E-3	-29.3024E-3	196.959E-12	657.058E-3	5.90374E-3
4.93497E-3	196.800E-12	637.366E-3	-11.3448E-3	196.357E-12	638.108E-3	-6.78112E-3
4.92996E-3	196.007E-12	648.495E-3	-15.4070E-3	195.143E-12	650.449E-3	-23.9650E-3
4.92496E-3	197.189E-12	664.051E-3	-33.4781E-3	195.595E-12	658.232E-3	-31.8003E-3
4.91996E-3	195.848E-12	650.694E-3	-35.5822E-3	194.993E-12	657.767E-3	-5.30832E-3
4.91496E-3	193.764E-12	645.066E-3	-15.6167E-3	194.821E-12	664.438E-3	-936.960E-6
4.90995E-3	193.751E-12	679.170E-3	-7.25471E-3	196.195E-12	668.367E-3	-28.3632E-3
4.90495E-3	194.125E-12	690.275E-3	-27.8974E-3	198.143E-12	668.934E-3	-24.8375E-3
4.89995E-3	196.241E-12	670.350E-3	-56.9835E-3	196.336E-12	670.885E-3	-12.2812E-3
4.89495E-3	195.854E-12	651.730E-3	-67.5822E-3	198.598E-12	688.447E-3	-27.7476E-3
4.88995E-3	195.715E-12	631.917E-3	-53.9445E-3	199.712E-12	712.475E-3	-48.9556E-3
4.88494E-3	196.224E-12	634.346E-3	-43.3007E-3	200.655E-12	718.150E-3	-57.8896E-3
4.87994E-3	196.777E-12	653.604E-3	-38.1439E-3	199.153E-12	712.220E-3	-63.1395E-3
4.87494E-3	197.843E-12	670.509E-3	-17.0335E-3	197.944E-12	701.270E-3	-40.2798E-3
4.86993E-3	197.246E-12	695.687E-3	-5.63230E-3	197.722E-12	692.459E-3	-7.28514E-3
4.86493E-3	197.792E-12	713.110E-3	-1.34238E-3	198.054E-12	676.404E-3	-5.16282E-3
4.85993E-3	197.015E-12	697.627E-3	11.2577E-3	197.582E-12	650.051E-3	-1.85534E-3
4.85493E-3	195.881E-12	658.674E-3	2.24576E-3	195.414E-12	648.022E-3	-2.64418E-3
4.84992E-3	195.121E-12	645.597E-3	-20.7094E-3	193.745E-12	646.839E-3	-20.1867E-3
4.84492E-3	194.515E-12	648.407E-3	-19.4561E-3	194.568E-12	611.674E-3	-20.2855E-3
4.83992E-3	191.623E-12	628.794E-3	-20.6659E-3	194.442E-12	595.755E-3	-3.29315E-3
4.83492E-3	190.077E-12	628.142E-3	-14.2117E-3	193.308E-12	618.798E-3	-10.3486E-3
4.82991E-3	190.341E-12	650.516E-3	17.5861E-3	191.002E-12	652.389E-3	-39.3095E-3
4.82491E-3	188.411E-12	637.495E-3	2.00490E-3	192.795E-12	677.018E-3	-49.1068E-3
4.81991E-3	188.463E-12	627.351E-3	-36.7568E-3	193.358E-12	667.413E-3	-62.2342E-3
4.81491E-3	189.551E-12	647.883E-3	-29.1023E-3	192.984E-12	638.334E-3	-74.0627E-3
4.80990E-3	189.263E-12	660.925E-3	-6.17048E-3	190.890E-12	654.196E-3	-42.6191E-3
4.80490E-3	188.605E-12	668.429E-3	-13.6518E-3	190.962E-12	695.038E-3	-32.5486E-3
4.79990E-3	189.550E-12	674.905E-3	-27.5980E-3	190.245E-12	681.778E-3	-55.3653E-3
4.79490E-3	189.513E-12	658.785E-3	-17.9854E-3	191.560E-12	645.428E-3	-32.2101E-3
4.78989E-3	190.512E-12	640.608E-3	-13.1796E-3	191.623E-12	656.342E-3	551.174E-6
4.78489E-3	191.977E-12	657.257E-3	-24.8150E-3	189.797E-12	676.061E-3	-19.4926E-3
4.77989E-3	192.196E-12	650.366E-3	-30.3186E-3	189.473E-12	649.275E-3	-31.9426E-3
4.77489E-3	191.513E-12	620.725E-3	-30.0880E-3	189.684E-12	657.454E-3	-1.59322E-3
4.76988E-3	191.472E-12	629.487E-3	-41.5276E-3	189.511E-12	689.040E-3	18.4813E-3
4.76488E-3	190.951E-12	667.144E-3	-23.8747E-3	188.567E-12	660.152E-3	18.3133E-3
4.75988E-3	189.650E-12	684.437E-3	7.20114E-3	187.714E-12	651.199E-3	934.570E-6
4.75488E-3	188.646E-12	682.643E-3	-15.9777E-3	187.634E-12	666.292E-3	-39.2097E-3
4.74988E-3	187.860E-12	693.186E-3	-44.3192E-3	190.052E-12	655.050E-3	-38.6861E-3
4.74487E-3	187.280E-12	691.847E-3	-34.2099E-3	190.170E-12	666.784E-3	11.2507E-3
4.73987E-3	186.130E-12	684.090E-3	-19.4487E-3	189.166E-12	682.193E-3	30.5542E-3
4.73487E-3	186.284E-12	700.958E-3	2.68701E-3	187.677E-12	666.049E-3	14.7373E-3
4.72986E-3	185.699E-12	726.646E-3	7.31518E-3	189.953E-12	658.221E-3	2.55001E-3
4.72486E-3	185.484E-12	732.280E-3	-18.3208E-3	189.770E-12	668.576E-3	-23.9812E-3
4.71986E-3	184.048E-12	714.896E-3	-24.6826E-3	188.537E-12	673.827E-3	-36.9901E-3
4.71486E-3	185.189E-12	681.432E-3	-18.5314E-3	187.718E-12	675.274E-3	582.066E-6
4.70985E-3	186.093E-12	650.578E-3	-28.5614E-3	186.780E-12	675.417E-3	20.0380E-3
4.70485E-3	187.427E-12	637.231E-3	-33.4543E-3	187.823E-12	662.506E-3	-3.42612E-3
4.69985E-3	185.405E-12	629.483E-3	-9.71961E-3	187.071E-12	654.686E-3	3.13902E-3
4.69485E-3	186.042E-12	626.228E-3	5.76781E-3	185.211E-12	679.660E-3	14.6175E-3
4.68984E-3	186.978E-12	647.452E-3	3.18277E-3	183.615E-12	685.543E-3	-14.3161E-3
4.68484E-3	188.749E-12	653.721E-3	2.62686E-3	184.691E-12	659.302E-3	-28.9984E-3
4.67984E-3	186.885E-12	623.866E-3	-11.2851E-3	184.589E-12	661.467E-3	-26.0293E-3
4.67484E-3	185.838E-12	619.480E-3	-44.4908E-3	183.704E-12	659.589E-3	-33.8425E-3
4.66983E-3	186.269E-12	626.727E-3	-54.7981E-3	182.933E-12	637.051E-3	-16.0278E-3
4.66483E-3	185.468E-12	633.705E-3	-2.65498E-3	183.021E-12	653.394E-3	8.38603E-3
4.65983E-3	185.197E-12	661.021E-3	35.5638E-3	185.739E-12	682.365E-3	-9.00879E-3
4.65483E-3	184.896E-12	671.728E-3	-1.54127E-3	184.277E-12	683.348E-3	-10.2378E-3
4.64982E-3	186.019E-12	675.180E-3	-37.9686E-3	183.834E-12	670.472E-3	1.27530E-3
4.64482E-3	184.341E-12	680.556E-3	-27.3275E-3	183.922E-12	645.388E-3	-21.2384E-3
4.63982E-3	184.231E-12	663.879E-3	-4.53963E-3	185.190E-12	618.781E-3	-21.2682E-3
4.63482E-3	185.634E-12	664.757E-3	4.38256E-3	184.370E-12	616.413E-3	-10.3047E-3
4.62981E-3	184.444E-12	670.213E-3	-952.297E-6	183.271E-12	647.311E-3	-32.9614E-3
4.62481E-3	184.428E-12	658.434E-3	-7.97072E-3	182.943E-12	671.887E-3	-26.5142E-3
4.61981E-3	184.476E-12	658.372E-3	-32.3363E-3	183.025E-12	690.267E-3	7.27828E-3
4.61481E-3	185.682E-12	653.437E-3	-50.8039E-3	182.337E-12	698.880E-3	-21.4586E-3
4.60980E-3	184.832E-12	647.536E-3	-25.7067E-3	181.922E-12	672.563E-3	-80.6397E-3
4.60480E-3	184.004E-12	668.145E-3	-2.15666E-3	181.020E-12	645.345E-3	-81.5319E-3
4.59980E-3	183.136E-12	681.521E-3	-26.5869E-3	180.452E-12	640.457E-3	-36.7568E-3
4.59480E-3	183.327E-12	673.697E-3	-58.4807E-3	179.888E-12	637.861E-3	-11.4738E-3
4.58979E-3	184.446E-12	681.353E-3	-34.2112E-3	180.514E-12	638.538E-3	-17.4679E-3
4.58479E-3	182.421E-12	687.457E-3	3.36092E-3	180.965E-12	655.585E-3	-28.3304E-3
4.57979E-3	180.938E-12	670.768E-3	335.144E-6	180.350E-12	673.214E-3	-21.2433E-3
4.57479E-3	179.722E-12	655.043E-3	-26.3845E-3	180.045E-12	685.134E-3	3.68873E-3
4.56978E-3	181.604E-12	655.556E-3	-42.8648E-3	180.531E-12	703.396E-3	7.80472E-3
4.56478E-3	180.884E-12	663.963E-3	-37.7075E-3	181.631E-12	728.860E-3	-16.6526E-3
4.55978E-3	181.508E-12	658.422E-3	-28.0684E-3	182.784E-12	729.224E-3	-20.9785E-3
4.55478E-3	181.856E-12	652.461E-3	-21.9454E-3	182.898E-12	711.632E-3	516.610E-6
4.54977E-3	181.255E-12	664.389E-3	-17.9768E-3	183.772E-12	711.735E-3	-2.29526E-3
4.54477E-3	182.339E-12	672.577E-3	-29.5345E-3	182.089E-12	701.312E-3	-26.4752E-3
4.53977E-3	181.993E-12	679.230E-3	-36.7278E-3	182.115E-12	662.512E-3	-44.3287E-3
4.53477E-3	182.930E-12	681.305E-3	-22.3467E-3	180.751E-12	642.804E-3	-53.7592E-3
4.52976E-3	181.082E-12	662.578E-3	-14.0349E-3	180.699E-12	659.455E-3	-64.4599E-3
4.52476E-3	181.903E-12	657.225E-3	-10.6544E-3	178.794E-12	681.214E-3	-47.9814E-3
4.51976E-3	181.400E-12	664.204E-3	-16.9875E-3	177.472E-12	681.347E-3	-6.09103E-3
4.51476E-3	181.701E-12	652.378E-3	-25.5159E-3	176.495E-12	666.150E-3	5.01236E-3
4.50975E-3	179.078E-12	655.375E-3	-29.2043E-3	177.503E-12	665.240E-3	-14.8354E-3
4.50475E-3	178.982E-12	681.444E-3	-33.6082E-3	176.436E-12	660.599E-3	-28.6112E-3
4.49975E-3	180.726E-12	699.538E-3	-25.3621E-3	175.719E-12	634.859E-3	-18.2034E-3
4.49475E-3	177.898E-12	693.038E-3	-16.1933E-3	174.571E-12	628.580E-3	-7.54859E-3
4.48974E-3	177.322E-12	675.268E-3	-31.1328E-3	174.433E-12	649.699E-3	-22.3933E-3
4.48474E-3	175.772E-12	668.711E-3	-60.4713E-3	175.751E-12	682.840E-3	-38.6514E-3
4.47974E-3	176.195E-12	680.270E-3	-60.4461E-3	175.662E-12	725.102E-3	-37.3439E-3
4.47474E-3	176.385E-12	686.890E-3	-52.8952E-3	176.743E-12	732.257E-3	-36.8702E-3
4.46973E-3	176.832E-12	681.482E-3	-65.2097E-3	177.193E-12	691.673E-3	-40.4620E-3
4.46473E-3	175.876E-12	680.326E-3	-57.6624E-3	177.989E-12	672.356E-3	-23.5348E-3
4.45973E-3	177.001E-12	694.219E-3	-26.6324E-3	179.517E-12	686.435E-3	356.157E-6
4.45473E-3	179.669E-12	707.327E-3	-22.1970E-3	178.600E-12	679.089E-3	-18.2971E-3
4.44972E-3	178.269E-12	692.802E-3	-29.1141E-3	177.841E-12	661.272E-3	-47.7744E-3
4.44472E-3	178.214E-12	688.700E-3	-30.2204E-3	177.839E-12	667.275E-3	-35.4346E-3
4.43972E-3	178.645E-12	693.022E-3	-43.1663E-3	178.679E-12	664.778E-3	-17.0908E-3
4.43472E-3	177.454E-12	706.559E-3	-35.1990E-3	176.318E-12	643.684E-3	-15.1077E-3
4.42971E-3	176.797E-12	720.817E-3	-8.26413E-3	174.303E-12	643.125E-3	-17.7456E-3
4.42471E-3	177.430E-12	682.800E-3	-14.7608E-3	173.317E-12	653.954E-3	-19.9384E-3
4.41971E-3	175.715E-12	644.794E-3	-37.5915E-3	174.380E-12	646.358E-3	-2.78958E-3
4.41471E-3	173.986E-12	654.294E-3	-26.1982E-3	172.770E-12	644.739E-3	10.8898E-3
4.40970E-3	173.177E-12	659.926E-3	-17.2784E-3	171.514E-12	644.824E-3	2.11512E-3
4.40470E-3	170.697E-12	648.811E-3	-34.1329E-3	170.651E-12	646.334E-3	-6.14438E-3
4.39970E-3	168.534E-12	636.537E-3	-23.8515E-3	170.775E-12	678.540E-3	6.02574E-3
4.39470E-3	169.484E-12	617.221E-3	3.47922E-3	171.963E-12	702.521E-3	6.30044E-3
4.38969E-3	168.929E-12	608.425E-3	-7.61645E-3	170.081E-12	674.313E-3	-36.7153E-3
4.38469E-3	168.448E-12	619.838E-3	-25.6151E-3	171.049E-12	634.200E-3	-58.9421E-3
4.37969E-3	170.154E-12	633.370E-3	-16.4919E-3	172.087E-12	632.170E-3	-34.2099E-3
4.37469E-3	170.469E-12	645.956E-3	-15.2190E-3	173.861E-12	652.769E-3	-18.4830E-3
4.36968E-3	171.024E-12	662.573E-3	-22.4693E-3	172.294E-12	670.020E-3	-21.4008E-3
4.36468E-3	172.208E-12	675.085E-3	-24.8815E-3	172.662E-12	679.513E-3	-23.0052E-3
4.35968E-3	174.166E-12	668.522E-3	-38.3740E-3	174.038E-12	674.623E-3	-11.9997E-3
4.35468E-3	173.874E-12	662.520E-3	-66.7754E-3	173.573E-12	664.183E-3	13.1546E-3
4.34967E-3	173.808E-12	678.334E-3	-75.5945E-3	173.693E-12	662.688E-3	25.7960E-3
4.34467E-3	173.760E-12	697.735E-3	-56.2323E-3	173.011E-12	653.661E-3	27.5140E-3
4.33967E-3	174.097E-12	703.128E-3	-28.4038E-3	172.686E-12	631.810E-3	26.4881E-3
4.33467E-3	175.166E-12	707.679E-3	-381.347E-6	173.467E-12	632.073E-3	3.25490E-3
4.32966E-3	173.639E-12	709.917E-3	9.55989E-3	171.899E-12	657.469E-3	-29.5608E-3
4.32466E-3	171.834E-12	701.408E-3	468.122E-6	171.413E-12	667.345E-3	-39.6041E-3
4.31966E-3	171.293E-12	676.922E-3	-11.1400E-3	171.245E-12	653.454E-3	-39.3384E-3
4.31466E-3	169.061E-12	650.711E-3	-27.0606E-3	171.162E-12	627.136E-3	-39.3277E-3
4.30965E-3	168.160E-12	644.641E-3	-37.2607E-3	168.674E-12	621.369E-3	-33.3487E-3
4.30465E-3	166.973E-12	652.689E-3	-21.5365E-3	170.078E-12	645.514E-3	-20.5110E-3
4.29965E-3	167.261E-12	666.813E-3	-2.31845E-3	170.836E-12	665.957E-3	-2.06005E-3
4.29465E-3	166.261E-12	661.011E-3	-5.40256E-3	171.346E-12	678.473E-3	13.4178E-3
4.28964E-3	166.988E-12	642.542E-3	-15.6739E-3	169.522E-12	681.436E-3	3.55416E-3
4.28464E-3	167.198E-12	653.068E-3	-29.9708E-3	168.853E-12	672.108E-3	-18.3036E-3
4.27964E-3	167.156E-12	672.644E-3	-38.6319E-3	168.229E-12	676.786E-3	-25.7243E-3
4.27464E-3	168.877E-12	656.411E-3	-10.8202E-3	169.424E-12	681.460E-3	-38.7605E-3
4.26963E-3	170.073E-12	625.892E-3	11.4679E-3	168.105E-12	658.630E-3	-35.7237E-3
4.26463E-3	170.827E-12	626.650E-3	-9.44083E-3	167.642E-12	654.763E-3	-11.2211E-3
4.25963E-3	171.364E-12	653.197E-3	-41.3075E-3	168.555E-12	673.744E-3	-10.9402E-3
4.25463E-3	171.195E-12	678.505E-3	-48.3930E-3	168.683E-12	682.514E-3	-21.0904E-3
4.24962E-3	170.003E-12	671.646E-3	-36.0545E-3	167.362E-12	699.740E-3	-18.0230E-3
4.24462E-3	171.561E-12	649.890E-3	-22.0934E-3	167.375E-12	711.969E-3	-2.98507E-3
4.23962E-3	170.728E-12	661.484E-3	-13.4220E-3	167.674E-12	687.813E-3	9.40305E-3
4.23462E-3	168.727E-12	674.512E-3	-3.53708E-3	168.532E-12	652.653E-3	4.80393E-3
4.22961E-3	167.975E-12	674.174E-3	-10.5109E-3	168.310E-12	653.420E-3	-4.35410E-3
4.22461E-3	168.010E-12	677.162E-3	-35.7301E-3	167.056E-12	689.097E-3	-9.33318E-3
4.21961E-3	167.272E-12	681.782E-3	-37.1104E-3	166.949E-12	709.258E-3	-14.3273E-3
4.21461E-3	166.124E-12	688.615E-3	-22.5547E-3	169.156E-12	706.666E-3	-17.3804E-3
4.20960E-3	166.397E-12	689.490E-3	-4.39141E-3	169.090E-12	705.508E-3	-20.4623E-3
4.20460E-3	166.133E-12	672.792E-3	3.97111E-3	166.736E-12	702.625E-3	-29.3796E-3
4.19960E-3	165.774E-12	653.617E-3	-23.3802E-3	165.823E-12	682.828E-3	-31.1250E-3
4.19460E-3	165.673E-12	656.555E-3	-57.2774E-3	167.954E-12	658.922E-3	-17.0208E-3
4.18959E-3	164.076E-12	656.765E-3	-46.3651E-3	167.911E-12	643.643E-3	-16.7254E-3
4.18459E-3	164.990E-12	653.726E-3	-11.5544E-3	165.125E-12	643.518E-3	-20.8262E-3
4.17959E-3	165.865E-12	662.229E-3	6.50498E-3	163.067E-12	656.652E-3	2.34682E-3
4.17459E-3	166.509E-12	679.073E-3	138.829E-6	162.347E-12	657.821E-3	13.7726E-3
4.16958E-3	165.605E-12	702.539E-3	-20.1139E-3	162.630E-12	644.211E-3	-2.33855E-3
4.16458E-3	166.021E-12	702.951E-3	-30.3788E-3	161.561E-12	644.619E-3	-21.7083E-3
4.15958E-3	166.220E-12	684.679E-3	-31.9865E-3	161.088E-12	657.653E-3	-21.8015E-3
4.15458E-3	164.829E-12	672.490E-3	-27.3011E-3	161.210E-12	664.205E-3	-11.6961E-3
4.14957E-3	164.377E-12	672.653E-3	-29.1325E-3	161.643E-12	689.837E-3	-18.9592E-3
4.14457E-3	162.937E-12	679.161E-3	-18.6464E-3	162.607E-12	705.545E-3	-30.3631E-3
4.13957E-3	161.413E-12	662.741E-3	9.42807E-3	162.343E-12	690.818E-3	-36.2425E-3
4.13457E-3	161.630E-12	633.903E-3	2.52482E-3	163.272E-12	680.229E-3	-38.9885E-3
4.12956E-3	162.179E-12	624.727E-3	-28.0017E-3	162.382E-12	682.199E-3	-19.5003E-3
4.12456E-3	160.698E-12	616.178E-3	-38.4458E-3	163.972E-12	697.780E-3	1.03368E-3
4.11956E-3	159.849E-12	627.604E-3	-32.3343E-3	164.777E-12	714.595E-3	-601.850E-6
4.11456E-3	160.080E-12	656.275E-3	-24.1376E-3	165.560E-12	703.855E-3	-2.88960E-3
4.10955E-3	161.173E-12	656.007E-3	-14.9005E-3	165.355E-12	686.839E-3	-22.7220E-3
4.10455E-3	161.808E-12	635.379E-3	-22.6027E-3	164.406E-12	680.302E-3	-55.7508E-3
4.09955E-3	160.478E-12	621.110E-3	-38.3116E-3	162.997E-12	683.035E-3	-49.3307E-3
4.09455E-3	159.253E-12	635.760E-3	-35.4883E-3	162.863E-12	681.510E-3	-17.4647E-3
4.08954E-3	159.589E-12	656.035E-3	-14.8495E-3	161.057E-12	654.213E-3	-5.37746E-3
4.08454E-3	161.021E-12	657.478E-3	-4.42290E-3	158.599E-12	638.847E-3	643.886E-6
4.07954E-3	159.635E-12	663.733E-3	-2.06758E-3	158.181E-12	658.323E-3	16.9519E-3
4.07454E-3	158.497E-12	685.050E-3	-14.3878E-3	157.640E-12	688.001E-3	16.1211E-3
4.06953E-3	158.159E-12	678.434E-3	-35.3400E-3	157.351E-12	699.838E-3	-5.90803E-3
4.06453E-3	158.263E-12	649.451E-3	-29.1316E-3	157.171E-12	687.737E-3	-19.3316E-3
4.05953E-3	157.326E-12	632.026E-3	-13.3661E-3	155.783E-12	675.958E-3	-16.7727E-3
4.05453E-3	155.966E-12	633.539E-3	2.76600E-3	155.337E-12	675.488E-3	-16.9214E-3
4.04952E-3	156.148E-12	652.082E-3	3.12224E-3	157.389E-12	669.208E-3	-22.6242E-3
4.04452E-3	157.419E-12	667.229E-3	-14.8606E-3	158.642E-12	681.520E-3	-6.93937E-3
4.03952E-3	158.226E-12	672.271E-3	-33.2296E-3	158.238E-12	706.610E-3	9.69662E-3
4.03452E-3	159.540E-12	662.500E-3	-30.5243E-3	158.019E-12	708.635E-3	-1.83979E-3
4.02951E-3	159.556E-12	649.664E-3	-22.6268E-3	158.896E-12	704.869E-3	-10.5893E-3
4.02451E-3	160.328E-12	659.356E-3	-33.1458E-3	160.097E-12	686.156E-3	-10.6247E-3
4.01951E-3	161.017E-12	667.821E-3	-41.0822E-3	159.424E-12	656.567E-3	-10.5539E-3
4.01451E-3	162.504E-12	663.920E-3	-34.2267E-3	158.412E-12	660.202E-3	-4.21470E-3
4.00950E-3	160.978E-12	674.757E-3	-28.9729E-3	158.457E-12	671.424E-3	-13.6943E-3
4.00450E-3	159.869E-12	682.008E-3	-20.2331E-3	158.908E-12	658.431E-3	-25.4292E-3
3.99950E-3	159.854E-12	678.694E-3	-2.94421E-3	158.781E-12	655.061E-3	-17.4030E-3
3.99450E-3	159.004E-12	688.146E-3	-15.7326E-3	155.362E-12	659.591E-3	-22.9185E-3
3.98949E-3	159.319E-12	685.382E-3	-30.5323E-3	154.763E-12	657.486E-3	-37.0231E-3
3.98449E-3	156.112E-12	667.948E-3	-32.1796E-3	155.673E-12	657.171E-3	-33.1054E-3
3.97949E-3	154.649E-12	677.423E-3	-41.4604E-3	155.846E-12	651.168E-3	-8.39818E-3
3.97449E-3	152.793E-12	685.264E-3	-29.7439E-3	154.086E-12	643.691E-3	18.6680E-3
3.96948E-3	151.912E-12	662.873E-3	-8.67756E-3	152.331E-12	644.851E-3	5.71983E-3
3.96448E-3	150.269E-12	645.698E-3	-3.07785E-3	151.725E-12	656.866E-3	-34.9079E-3
3.95948E-3	150.072E-12	642.231E-3	-458.967E-6	152.901E-12	664.526E-3	-46.2541E-3
3.95448E-3	149.461E-12	643.938E-3	-281.738E-6	153.587E-12	664.954E-3	-12.7982E-3
3.94947E-3	149.350E-12	651.240E-3	6.72505E-3	152.529E-12	670.885E-3	15.5628E-3
3.94447E-3	150.903E-12	658.990E-3	23.1544E-3	151.046E-12	676.637E-3	5.20980E-3
3.93947E-3	151.191E-12	653.554E-3	12.2218E-3	151.835E-12	673.978E-3	-17.0661E-3
3.93447E-3	153.598E-12	649.480E-3	-10.1546E-3	153.459E-12	655.764E-3	-24.8497E-3
3.92946E-3	154.111E-12	659.902E-3	-9.43750E-3	153.410E-12	648.804E-3	-22.4248E-3
3.92446E-3	156.320E-12	662.506E-3	-11.9496E-3	152.893E-12	668.537E-3	-23.2739E-3
3.91946E-3	155.217E-12	679.802E-3	-43.1672E-3	152.898E-12	678.525E-3	-12.1757E-3
3.91446E-3	154.876E-12	696.709E-3	-60.9267E-3	153.767E-12	675.667E-3	4.34207E-3
3.90945E-3	154.792E-12	685.247E-3	-32.3471E-3	152.642E-12	671.618E-3	-11.6743E-3
3.90445E-3	153.639E-12	689.670E-3	-4.17963E-3	151.410E-12	661.461E-3	-36.8600E-3
3.89945E-3	151.840E-12	701.011E-3	-11.2958E-3	150.884E-12	652.459E-3	-26.2267E-3
3.89445E-3	150.744E-12	689.577E-3	-14.0730E-3	151.038E-12	649.860E-3	7.01808E-3
3.88944E-3	152.453E-12	676.962E-3	13.0605E-3	151.156E-12	643.628E-3	16.8586E-3
3.88444E-3	149.244E-12	679.485E-3	25.7200E-3	150.332E-12	640.051E-3	7.73135E-3
3.87944E-3	147.096E-12	679.316E-3	13.7519E-3	149.883E-12	661.825E-3	4.70141E-3
3.87444E-3	145.838E-12	662.092E-3	-8.03900E-3	149.511E-12	690.105E-3	-1.74181E-3
3.86943E-3	148.475E-12	653.556E-3	-23.3875E-3	150.079E-12	683.839E-3	-19.7883E-3
3.86443E-3	147.988E-12	641.742E-3	-19.9246E-3	149.208E-12	667.273E-3	-24.3552E-3
3.85943E-3	145.922E-12	617.462E-3	-19.2300E-3	148.707E-12	688.782E-3	-15.7659E-3
3.85443E-3	147.135E-12	616.206E-3	-33.7937E-3	148.848E-12	700.652E-3	-11.6574E-3
3.84942E-3	147.974E-12	642.610E-3	-36.1944E-3	149.955E-12	672.546E-3	6.18441E-3
3.84442E-3	150.671E-12	669.297E-3	-15.8966E-3	150.189E-12	655.242E-3	19.5666E-3
3.83942E-3	149.689E-12	678.657E-3	-13.5299E-3	149.617E-12	651.870E-3	1.54940E-3
3.83442E-3	150.322E-12	693.995E-3	-32.8678E-3	149.130E-12	655.923E-3	-23.5446E-3
3.82941E-3	149.342E-12	701.154E-3	-21.7470E-3	149.720E-12	671.786E-3	-34.8134E-3
3.82441E-3	151.523E-12	687.309E-3	-6.19448E-3	150.595E-12	677.203E-3	-23.7290E-3
3.81941E-3	151.036E-12	677.477E-3	-25.0708E-3	149.760E-12	676.038E-3	7.72692E-3
3.81441E-3	148.434E-12	665.980E-3	-45.9098E-3	147.850E-12	673.618E-3	14.4047E-3
3.80940E-3	148.396E-12	665.176E-3	-56.5414E-3	149.065E-12	669.440E-3	-26.3495E-3
3.80440E-3	147.324E-12	680.165E-3	-38.4310E-3	148.206E-12	670.434E-3	-50.8918E-3
3.79940E-3	148.042E-12	677.344E-3	-12.5903E-3	148.220E-12	683.365E-3	-23.5047E-3
3.79440E-3	146.474E-12	664.154E-3	-16.2748E-3	146.991E-12	702.304E-3	-5.82303E-3
3.78939E-3	144.859E-12	671.000E-3	-21.8836E-3	148.935E-12	693.719E-3	-22.2529E-3
3.78439E-3	144.546E-12	674.809E-3	-7.39743E-3	148.305E-12	667.133E-3	-34.4166E-3
3.77939E-3	145.543E-12	665.678E-3	5.16996E-3	147.437E-12	660.319E-3	-44.3109E-3
3.77439E-3	146.842E-12	663.831E-3	-4.04715E-3	146.214E-12	671.211E-3	-57.1904E-3
3.76938E-3	144.647E-12	669.924E-3	-22.1829E-3	146.865E-12	691.199E-3	-25.4263E-3
3.76438E-3	145.140E-12	673.247E-3	-29.4816E-3	147.364E-12	710.498E-3	12.8438E-3
3.75938E-3	145.706E-12	675.778E-3	-27.5802E-3	146.777E-12	708.312E-3	-14.1336E-3
3.75438E-3	147.809E-12	681.981E-3	-29.1694E-3	145.551E-12	677.091E-3	-43.7754E-3
3.74937E-3	147.072E-12	680.553E-3	-32.0277E-3	145.795E-12	657.679E-3	-28.1264E-3
3.74437E-3	146.876E-12	677.713E-3	-26.8654E-3	146.243E-12	664.816E-3	-4.51127E-3
3.73937E-3	147.368E-12	674.404E-3	-2.52127E-3	145.488E-12	655.445E-3	8.84698E-3
3.73437E-3	146.795E-12	671.551E-3	16.7544E-3	145.053E-12	642.747E-3	-5.07386E-3
3.72936E-3	147.477E-12	699.974E-3	11.7951E-3	146.483E-12	652.807E-3	-35.3300E-3
3.72436E-3	145.463E-12	735.764E-3	16.3664E-3	145.013E-12	661.354E-3	-27.9735E-3
3.71936E-3	145.307E-12	706.001E-3	8.91903E-3	144.794E-12	676.821E-3	6.65457E-3
3.71436E-3	142.343E-12	659.132E-3	-18.4593E-3	145.516E-12	691.462E-3	14.3335E-3
3.70935E-3	143.371E-12	658.147E-3	-8.70325E-3	144.898E-12	671.635E-3	-7.09560E-3
3.70435E-3	143.327E-12	651.440E-3	17.0933E-3	144.326E-12	671.711E-3	-28.1180E-3
3.69935E-3	143.191E-12	650.776E-3	-6.19899E-3	144.691E-12	699.862E-3	-37.7061E-3
3.69435E-3	142.678E-12	685.267E-3	-44.3852E-3	145.250E-12	693.784E-3	-18.4987E-3
3.68934E-3	141.737E-12	699.879E-3	-40.9302E-3	143.949E-12	684.964E-3	7.06091E-3
3.68434E-3	143.410E-12	683.464E-3	-33.7005E-3	143.227E-12	700.044E-3	2.46008E-3
3.67934E-3	144.377E-12	665.565E-3	-29.2800E-3	142.926E-12	684.526E-3	-12.9064E-3
3.67434E-3	146.023E-12	648.561E-3	1.48708E-3	143.539E-12	662.000E-3	-8.15990E-3
3.66933E-3	142.913E-12	657.578E-3	7.90928E-3	142.462E-12	666.998E-3	1.62503E-3
3.66433E-3	145.316E-12	706.956E-3	-17.2636E-3	141.234E-12	656.089E-3	-17.1859E-3
3.65933E-3	143.921E-12	725.534E-3	-8.81729E-3	140.034E-12	647.021E-3	-36.5069E-3
3.65433E-3	143.628E-12	690.143E-3	11.4815E-3	141.053E-12	681.870E-3	-30.4712E-3
3.64932E-3	142.057E-12	673.049E-3	-5.39434E-3	141.126E-12	707.072E-3	-24.9649E-3
3.64432E-3	141.515E-12	684.832E-3	-19.2288E-3	140.021E-12	684.711E-3	-11.7379E-3
3.63932E-3	140.611E-12	675.029E-3	-23.1309E-3	139.564E-12	668.602E-3	-9.52563E-3
3.63432E-3	140.007E-12	651.242E-3	-39.5129E-3	139.232E-12	666.370E-3	-46.4259E-3
3.62931E-3	138.967E-12	648.586E-3	-19.7198E-3	139.010E-12	654.728E-3	-53.3801E-3
3.62431E-3	137.612E-12	640.065E-3	3.64293E-3	140.185E-12	663.275E-3	-23.7332E-3
3.61931E-3	137.751E-12	630.623E-3	-20.7327E-3	138.230E-12	673.786E-3	-16.5677E-3
3.61431E-3	137.799E-12	647.833E-3	-38.2189E-3	138.206E-12	657.992E-3	-10.2597E-3
3.60930E-3	138.759E-12	651.565E-3	-19.5929E-3	138.365E-12	659.127E-3	-10.3737E-3
3.60430E-3	139.739E-12	653.696E-3	-7.73596E-3	139.715E-12	679.665E-3	-35.6314E-3
3.59930E-3	138.764E-12	688.041E-3	-7.78668E-3	138.974E-12	690.047E-3	-17.7083E-3
3.59430E-3	138.355E-12	707.627E-3	-1.00771E-3	138.151E-12	700.858E-3	32.0678E-3
3.58929E-3	139.594E-12	695.831E-3	-5.26454E-3	139.133E-12	698.596E-3	30.6649E-3
3.58429E-3	139.924E-12	681.418E-3	-186.427E-6	138.974E-12	676.081E-3	-198.190E-6
3.57929E-3	139.716E-12	669.894E-3	8.43428E-3	137.452E-12	660.446E-3	2.38668E-3
3.57429E-3	139.505E-12	673.031E-3	-11.7116E-3	137.191E-12	654.926E-3	27.6217E-3
3.56928E-3	138.670E-12	697.484E-3	-32.6284E-3	137.093E-12	644.455E-3	26.5794E-3
3.56428E-3	138.740E-12	700.296E-3	-15.4283E-3	136.035E-12	639.429E-3	6.26527E-3
3.55928E-3	136.747E-12	676.622E-3	2.73078E-3	134.730E-12	659.071E-3	-11.6212E-3
3.55428E-3	136.837E-12	691.293E-3	445.913E-6	134.196E-12	665.111E-3	-29.3155E-3
3.54927E-3	134.349E-12	715.475E-3	6.87308E-3	134.568E-12	656.232E-3	-24.7061E-3
3.54427E-3	133.932E-12	695.664E-3	-84.7875E-6	134.817E-12	662.841E-3	-15.5162E-3
3.53927E-3	134.031E-12	694.914E-3	-12.4092E-3	133.248E-12	658.444E-3	-28.8321E-3
3.53427E-3	132.253E-12	717.346E-3	-2.53518E-3	133.102E-12	645.994E-3	-23.2228E-3
3.52926E-3	132.293E-12	696.450E-3	-10.2725E-3	134.073E-12	652.657E-3	4.63845E-6
3.52426E-3	132.190E-12	661.811E-3	-31.0433E-3	134.036E-12	668.459E-3	-17.9280E-9
3.51926E-3	134.339E-12	653.124E-3	-12.8130E-3	134.129E-12	679.195E-3	-10.5600E-3
3.51426E-3	134.727E-12	640.033E-3	11.2655E-3	134.682E-12	675.426E-3	-16.3775E-3
3.50925E-3	133.351E-12	624.018E-3	11.1775E-3	135.468E-12	655.349E-3	-23.7990E-3
3.50425E-3	133.273E-12	637.516E-3	24.2458E-3	135.824E-12	644.385E-3	-18.5728E-3
3.49925E-3	135.201E-12	652.533E-3	25.6530E-3	136.662E-12	678.801E-3	-9.08588E-3
3.49425E-3	136.433E-12	652.212E-3	-12.3819E-3	137.113E-12	708.393E-3	-25.1358E-3
3.48924E-3	135.383E-12	665.427E-3	-27.8585E-3	134.815E-12	683.217E-3	-34.3859E-3
3.48424E-3	134.054E-12	680.716E-3	970.398E-6	134.064E-12	672.885E-3	-19.3724E-3
3.47924E-3	133.965E-12	662.311E-3	8.59867E-3	134.220E-12	686.523E-3	-24.2502E-3
3.47424E-3	134.600E-12	648.325E-3	-9.67590E-3	134.997E-12	685.548E-3	-29.4911E-3
3.46923E-3	133.660E-12	658.034E-3	-15.1364E-3	134.027E-12	675.338E-3	-1.44824E-3
3.46423E-3	131.734E-12	655.593E-3	-12.9601E-3	132.811E-12	652.694E-3	18.4251E-3
3.45923E-3	130.013E-12	663.345E-3	-10.2763E-3	130.506E-12	647.964E-3	7.51201E-3
3.45423E-3	129.254E-12	678.252E-3	-4.19693E-3	131.300E-12	666.089E-3	-3.72838E-3
3.44922E-3	129.981E-12	672.134E-3	-6.11374E-3	130.876E-12	671.369E-3	-8.60123E-3
3.44422E-3	129.239E-12	675.091E-3	-24.2664E-3	130.334E-12	661.083E-3	-19.9714E-3
3.43922E-3	128.599E-12	686.961E-3	-32.5636E-3	129.735E-12	657.573E-3	-24.2279E-3
3.43422E-3	127.920E-12	681.584E-3	-20.8625E-3	129.947E-12	676.072E-3	-24.5307E-3
3.42921E-3	128.979E-12	670.731E-3	-7.39980E-3	130.609E-12	686.812E-3	-22.4435E-3
3.42421E-3	130.620E-12	669.807E-3	-8.94108E-3	130.674E-12	670.446E-3	-15.8293E-3
3.41921E-3	131.018E-12	674.432E-3	-23.7816E-3	129.829E-12	666.160E-3	-15.9986E-3
3.41421E-3	130.931E-12	685.554E-3	-31.6930E-3	130.140E-12	678.159E-3	-17.3751E-3
3.40920E-3	130.790E-12	694.633E-3	-28.8679E-3	130.794E-12	674.309E-3	-19.2210E-3
3.40420E-3	132.476E-12	692.857E-3	-22.7777E-3	130.256E-12	672.856E-3	-33.6036E-3
3.39920E-3	132.471E-12	685.484E-3	-27.9017E-3	130.451E-12	684.081E-3	-58.5355E-3
3.39420E-3	131.963E-12	683.322E-3	-43.0205E-3	130.621E-12	692.879E-3	-60.0152E-3
3.38919E-3	130.178E-12	680.503E-3	-36.7928E-3	130.425E-12	701.028E-3	-28.8385E-3
3.38419E-3	129.506E-12	661.773E-3	-12.4483E-3	129.550E-12	695.488E-3	-6.90588E-3
3.37919E-3	129.739E-12	652.317E-3	6.26768E-3	129.074E-12	680.977E-3	-5.09156E-3
3.37419E-3	128.877E-12	672.726E-3	12.7273E-3	129.693E-12	677.290E-3	-6.82625E-3
3.36918E-3	127.762E-12	681.914E-3	351.109E-6	130.347E-12	677.371E-3	-16.0415E-3
3.36418E-3	126.394E-12	669.234E-3	-18.1264E-3	127.997E-12	671.366E-3	-13.4885E-3
3.35918E-3	126.334E-12	662.889E-3	-31.5385E-3	127.045E-12	685.098E-3	-6.21417E-3
3.35418E-3	127.008E-12	664.406E-3	-45.9073E-3	127.235E-12	711.315E-3	-25.2599E-3
3.34917E-3	124.849E-12	667.165E-3	-46.4225E-3	126.761E-12	688.279E-3	-35.1799E-3
3.34417E-3	124.027E-12	670.589E-3	-20.3678E-3	125.734E-12	663.663E-3	-13.5546E-3
3.33917E-3	125.236E-12	665.818E-3	-2.43839E-3	124.815E-12	696.379E-3	-5.61422E-3
3.33417E-3	125.943E-12	645.963E-3	-9.13738E-3	124.506E-12	714.489E-3	-19.2041E-3
3.32916E-3	125.670E-12	636.733E-3	-6.45491E-3	126.963E-12	696.925E-3	-18.4051E-3
3.32416E-3	125.512E-12	647.358E-3	-15.6172E-3	125.614E-12	682.120E-3	-22.0269E-3
3.31916E-3	125.583E-12	654.109E-3	-49.0124E-3	124.340E-12	669.341E-3	-35.0536E-3
3.31416E-3	125.298E-12	651.386E-3	-49.2023E-3	124.687E-12	650.654E-3	-31.3014E-3
3.30915E-3	126.698E-12	662.374E-3	-32.8759E-3	126.518E-12	653.192E-3	-30.8878E-3
3.30415E-3	125.632E-12	674.618E-3	-28.9631E-3	126.200E-12	689.400E-3	-44.7694E-3
3.29915E-3	124.951E-12	671.806E-3	-23.2389E-3	126.018E-12	714.944E-3	-42.5117E-3
3.29415E-3	124.074E-12	670.667E-3	-11.1143E-3	124.961E-12	708.268E-3	-24.7876E-3
3.28914E-3	124.740E-12	686.105E-3	-1.38874E-3	125.755E-12	677.235E-3	-24.8534E-3
3.28414E-3	123.955E-12	691.436E-3	-13.6448E-3	125.976E-12	646.963E-3	-27.9841E-3
3.27914E-3	122.492E-12	681.393E-3	-18.8320E-3	125.397E-12	659.741E-3	-17.4541E-3
3.27414E-3	121.756E-12	687.639E-3	-8.02598E-3	124.414E-12	691.764E-3	-16.7484E-3
3.26913E-3	121.725E-12	678.884E-3	-9.22589E-3	123.661E-12	687.835E-3	-26.1404E-3
3.26413E-3	121.816E-12	657.999E-3	-7.84183E-3	126.089E-12	674.724E-3	-18.1875E-3
3.25913E-3	120.449E-12	655.274E-3	-286.717E-6	125.593E-12	669.432E-3	-8.88023E-3
3.25413E-3	120.269E-12	665.450E-3	-4.79256E-3	123.256E-12	657.030E-3	-15.1913E-3
3.24912E-3	120.337E-12	679.784E-3	-11.7007E-3	122.038E-12	664.223E-3	-4.76366E-3
3.24412E-3	122.185E-12	678.521E-3	-10.7633E-3	122.315E-12	670.687E-3	5.51152E-3
3.23912E-3	121.223E-12	662.220E-3	-7.36459E-3	123.810E-12	655.734E-3	-1.89624E-3
3.23412E-3	120.976E-12	663.477E-3	-11.8689E-3	120.725E-12	654.185E-3	-13.9070E-3
3.22911E-3	120.831E-12	670.734E-3	-22.3429E-3	120.034E-12	670.375E-3	-34.3853E-3
3.22411E-3	121.313E-12	664.508E-3	-33.5884E-3	120.219E-12	678.912E-3	-39.2486E-3
3.21911E-3	121.688E-12	660.504E-3	-38.4692E-3	120.760E-12	680.638E-3	-14.4338E-3
3.21411E-3	120.831E-12	658.483E-3	-36.8514E-3	120.407E-12	680.249E-3	-8.42797E-3
3.20910E-3	120.429E-12	659.270E-3	-46.3396E-3	119.599E-12	682.566E-3	-20.6069E-3
3.20410E-3	119.448E-12	682.455E-3	-56.9448E-3	120.034E-12	687.025E-3	-20.2859E-3
3.19910E-3	120.041E-12	701.479E-3	-51.8240E-3	119.883E-12	677.757E-3	-20.7468E-3
3.19410E-3	118.912E-12	682.714E-3	-37.8449E-3	120.002E-12	659.343E-3	-15.0592E-3
3.18909E-3	119.516E-12	654.672E-3	-30.0325E-3	119.779E-12	658.471E-3	2.02958E-3
3.18409E-3	118.203E-12	643.046E-3	-14.4201E-3	119.984E-12	677.338E-3	-882.333E-6
3.17909E-3	119.287E-12	656.084E-3	-178.737E-6	119.846E-12	700.424E-3	-35.8253E-3
3.17409E-3	119.890E-12	666.362E-3	-10.2906E-3	119.597E-12	715.825E-3	-47.7631E-3
3.16908E-3	119.345E-12	673.720E-3	-9.75073E-3	119.889E-12	710.283E-3	-21.5567E-3
3.16408E-3	119.481E-12	692.745E-3	4.17013E-3	120.153E-12	694.525E-3	-7.53844E-3
3.15908E-3	120.090E-12	696.025E-3	6.93402E-3	120.174E-12	675.530E-3	-6.79969E-3
3.15408E-3	119.742E-12	686.235E-3	5.54354E-3	118.945E-12	661.138E-3	-5.04541E-3
3.14907E-3	119.518E-12	671.514E-3	-14.9276E-3	118.304E-12	664.010E-3	-19.9339E-3
3.14407E-3	120.284E-12	657.970E-3	-39.8257E-3	117.954E-12	674.389E-3	-23.7930E-3
3.13907E-3	119.725E-12	666.555E-3	-35.1713E-3	116.830E-12	685.168E-3	-11.1972E-3
3.13407E-3	118.867E-12	696.335E-3	-31.5255E-3	116.034E-12	688.056E-3	-14.7909E-3
3.12906E-3	118.087E-12	722.200E-3	-34.9185E-3	116.057E-12	685.127E-3	-18.0461E-3
3.12406E-3	118.195E-12	723.257E-3	-33.3824E-3	116.006E-12	684.372E-3	-14.3822E-3
3.11906E-3	117.402E-12	703.263E-3	-35.3756E-3	114.907E-12	669.971E-3	-13.6830E-3
3.11406E-3	117.197E-12	695.491E-3	-25.3562E-3	114.697E-12	648.040E-3	-3.00293E-3
3.10905E-3	115.684E-12	698.399E-3	-13.9594E-3	114.837E-12	653.450E-3	1.18172E-3
3.10405E-3	115.178E-12	693.063E-3	-16.8183E-3	114.284E-12	666.548E-3	-13.9823E-3
3.09905E-3	115.016E-12	690.368E-3	-7.49400E-3	114.163E-12	668.322E-3	-15.1733E-3
3.09405E-3	115.663E-12	687.849E-3	-2.98692E-3	114.850E-12	682.236E-3	-9.55920E-3
3.08904E-3	115.285E-12	678.217E-3	-23.6024E-3	114.223E-12	699.237E-3	-7.86297E-3
3.08404E-3	114.126E-12	662.649E-3	-42.1926E-3	114.840E-12	710.211E-3	-12.4917E-3
3.07904E-3	113.896E-12	663.325E-3	-38.7620E-3	116.382E-12	717.021E-3	-13.5294E-3
3.07404E-3	113.987E-12	673.116E-3	-22.7171E-3	116.359E-12	712.795E-3	-303.318E-6
3.06903E-3	114.891E-12	664.697E-3	-26.3283E-3	115.407E-12	710.882E-3	4.80954E-3
3.06403E-3	114.409E-12	659.437E-3	-39.7175E-3	116.971E-12	716.844E-3	713.187E-6
3.05903E-3	114.247E-12	671.289E-3	-29.4438E-3	116.503E-12	711.015E-3	-7.00518E-3
3.05403E-3	112.967E-12	673.140E-3	-16.7177E-3	116.509E-12	695.955E-3	-21.6368E-3
3.04902E-3	114.022E-12	680.357E-3	-30.8979E-3	115.998E-12	701.430E-3	-23.7831E-3
3.04402E-3	113.831E-12	686.729E-3	-37.6774E-3	115.035E-12	710.522E-3	-7.73726E-3
3.03902E-3	112.626E-12	674.560E-3	-20.3572E-3	113.991E-12	695.398E-3	-648.080E-6
3.03402E-3	111.938E-12	680.364E-3	-22.6551E-3	114.723E-12	680.647E-3	-266.636E-6
3.02901E-3	111.216E-12	695.894E-3	-24.6707E-3	113.459E-12	683.758E-3	-295.894E-9
3.02401E-3	110.717E-12	688.460E-3	-1.38987E-3	111.858E-12	689.281E-3	-475.603E-6
3.01901E-3	109.594E-12	660.953E-3	10.7330E-3	111.504E-12	686.900E-3	-6.55198E-3
3.01401E-3	110.622E-12	652.695E-3	1.73129E-3	111.284E-12	698.013E-3	-16.6522E-3
3.00900E-3	110.706E-12	665.367E-3	-16.3871E-3	111.118E-12	702.700E-3	-21.8150E-3
3.00400E-3	109.459E-12	674.007E-3	-36.6000E-3	111.384E-12	682.004E-3	-18.8802E-3
2.99900E-3	109.678E-12	677.524E-3	-35.3206E-3	112.204E-12	673.374E-3	-7.32731E-3
2.99400E-3	111.282E-12	666.520E-3	-12.6847E-3	110.913E-12	674.776E-3	-10.9902E-3
2.98899E-3	111.807E-12	656.506E-3	-5.17814E-3	110.993E-12	675.374E-3	-23.9654E-3
2.98399E-3	111.279E-12	677.289E-3	-12.4999E-3	112.568E-12	696.572E-3	-19.7696E-3
2.97899E-3	111.721E-12	699.286E-3	-17.9906E-3	112.212E-12	722.275E-3	-19.4780E-3
2.97399E-3	112.072E-12	707.999E-3	-31.3028E-3	112.433E-12	712.842E-3	-34.7458E-3
2.96898E-3	111.647E-12	721.647E-3	-23.1424E-3	112.637E-12	683.805E-3	-21.8753E-3
2.96398E-3	110.759E-12	711.782E-3	8.04175E-3	112.499E-12	675.968E-3	3.37562E-3
2.95898E-3	109.990E-12	685.857E-3	-4.24982E-3	111.466E-12	693.394E-3	-11.5518E-3
2.95398E-3	111.073E-12	694.568E-3	-31.8759E-3	112.284E-12	713.163E-3	-26.2201E-3
2.94897E-3	109.846E-12	716.072E-3	-25.4464E-3	112.335E-12	722.671E-3	-16.9415E-3
2.94397E-3	108.547E-12	707.410E-3	-2.99730E-3	111.399E-12	715.596E-3	-13.4744E-3
2.93897E-3	107.754E-12	690.939E-3	8.39240E-3	109.854E-12	700.062E-3	-14.5147E-3
2.93397E-3	108.634E-12	685.778E-3	-10.8278E-3	108.532E-12	697.093E-3	-14.9618E-3
2.92896E-3	107.535E-12	685.229E-3	-36.5060E-3	108.545E-12	696.742E-3	-11.9123E-3
2.92396E-3	106.596E-12	693.949E-3	-42.5756E-3	108.855E-12	691.868E-3	3.66488E-3
2.91896E-3	107.168E-12	691.254E-3	-25.6276E-3	107.966E-12	706.670E-3	12.7883E-3
2.91396E-3	107.058E-12	673.182E-3	-19.9966E-3	106.022E-12	712.334E-3	5.83196E-3
2.90895E-3	106.854E-12	666.418E-3	-42.1446E-3	106.959E-12	700.560E-3	-6.98807E-3
2.90395E-3	106.633E-12	677.705E-3	-38.7114E-3	107.644E-12	702.460E-3	-31.6746E-3
2.89895E-3	107.333E-12	696.143E-3	-12.8421E-3	106.293E-12	697.415E-3	-44.2999E-3
2.89395E-3	107.885E-12	714.088E-3	-8.87019E-3	105.320E-12	686.725E-3	-35.4458E-3
2.88894E-3	108.587E-12	713.729E-3	-8.93345E-3	104.921E-12	690.292E-3	-40.6823E-3
2.88394E-3	108.816E-12	693.225E-3	-1.69464E-3	106.279E-12	688.001E-3	-49.5330E-3
2.87894E-3	106.792E-12	692.445E-3	-19.5502E-3	106.376E-12	679.244E-3	-36.0598E-3
2.87394E-3	107.128E-12	709.848E-3	-44.0565E-3	105.834E-12	689.799E-3	-14.7183E-3
2.86893E-3	107.313E-12	702.703E-3	-31.4153E-3	105.202E-12	701.229E-3	-5.25306E-3
2.86393E-3	106.642E-12	685.162E-3	-18.5530E-3	106.769E-12	681.597E-3	-2.16313E-3
2.85893E-3	104.968E-12	692.271E-3	-34.0347E-3	106.487E-12	664.842E-3	-9.64632E-3
2.85393E-3	104.798E-12	699.584E-3	-30.6434E-3	106.134E-12	681.862E-3	-22.2628E-3
2.84892E-3	104.883E-12	694.693E-3	-16.0508E-3	104.477E-12	693.210E-3	-15.1389E-3
2.84392E-3	103.935E-12	707.802E-3	-14.9021E-3	104.593E-12	698.889E-3	-3.62049E-3
2.83892E-3	102.886E-12	722.909E-3	-9.08496E-3	105.150E-12	707.868E-3	-13.3982E-3
2.83392E-3	103.055E-12	705.879E-3	-20.1262E-3	105.240E-12	695.760E-3	-25.1621E-3
2.82891E-3	103.383E-12	681.778E-3	-27.3467E-3	104.070E-12	686.348E-3	-15.4918E-3
2.82391E-3	102.443E-12	682.161E-3	-16.5411E-3	103.572E-12	694.605E-3	-8.87970E-3
2.81891E-3	101.732E-12	701.118E-3	-26.3445E-3	103.613E-12	688.400E-3	-23.8035E-3
2.81391E-3	101.712E-12	707.999E-3	-37.5623E-3	102.609E-12	680.864E-3	-22.4843E-3
2.80890E-3	101.912E-12	692.791E-3	-29.3930E-3	102.716E-12	695.908E-3	-11.2390E-3
2.80390E-3	102.356E-12	679.044E-3	-25.3092E-3	102.037E-12	708.193E-3	-17.2746E-3
2.79890E-3	102.120E-12	683.587E-3	-33.2565E-3	101.541E-12	699.025E-3	-11.1047E-3
2.79390E-3	101.606E-12	686.455E-3	-26.8712E-3	101.420E-12	689.820E-3	1.08271E-3
2.78889E-3	101.678E-12	683.026E-3	-4.48164E-3	101.230E-12	692.272E-3	-2.95691E-3
2.78389E-3	101.830E-12	686.787E-3	-7.98215E-3	100.399E-12	695.451E-3	-377.398E-6
2.77889E-3	101.202E-12	694.424E-3	-29.5027E-3	99.9775E-12	710.775E-3	6.76507E-3
2.77389E-3	100.737E-12	694.635E-3	-33.4343E-3	100.435E-12	717.990E-3	530.596E-6
2.76888E-3	100.140E-12	678.638E-3	-30.3849E-3	100.465E-12	695.233E-3	-1.45516E-3
2.76388E-3	99.6825E-12	677.247E-3	-26.4855E-3	99.2507E-12	681.401E-3	875.200E-6
2.75888E-3	99.8174E-12	698.114E-3	-21.4455E-3	99.4299E-12	686.200E-3	-15.4705E-3
2.75388E-3	99.3421E-12	715.528E-3	-21.2881E-3	99.8805E-12	683.115E-3	-25.2509E-3
2.74887E-3	99.0877E-12	718.230E-3	-27.3076E-3	99.6432E-12	682.169E-3	-18.9755E-3
2.74387E-3	98.6547E-12	718.235E-3	-27.5108E-3	99.4851E-12	685.181E-3	-26.4349E-3
2.73887E-3	98.8162E-12	724.929E-3	-31.6890E-3	99.1770E-12	678.714E-3	-24.8608E-3
2.73387E-3	98.4388E-12	719.298E-3	-34.3665E-3	99.8570E-12	690.901E-3	-9.27250E-3
2.72886E-3	98.0024E-12	701.590E-3	-7.21442E-3	99.6505E-12	714.148E-3	-7.97362E-3
2.72386E-3	97.8243E-12	691.541E-3	22.8129E-3	99.5637E-12	708.132E-3	-25.1361E-3
2.71886E-3	98.5163E-12	688.779E-3	26.0014E-3	98.7716E-12	695.027E-3	-38.8338E-3
2.71386E-3	98.5028E-12	676.746E-3	13.1248E-3	98.7019E-12	693.409E-3	-36.1925E-3
2.70885E-3	97.8880E-12	670.992E-3	921.674E-6	97.7041E-12	694.247E-3	-26.2808E-3
2.70385E-3	97.3751E-12	678.406E-3	-775.461E-6	97.0960E-12	700.940E-3	-13.0727E-3
2.69885E-3	96.3947E-12	687.453E-3	1.26277E-3	96.9054E-12	707.513E-3	-18.1312E-3
2.69385E-3	96.5151E-12	693.420E-3	-4.58340E-3	97.0340E-12	705.064E-3	-25.9434E-3
2.68884E-3	96.0588E-12	695.612E-3	-43.9887E-6	97.2107E-12	699.673E-3	-13.8760E-3
2.68384E-3	95.2041E-12	709.873E-3	6.79970E-3	95.1820E-12	699.117E-3	-7.22986E-3
2.67884E-3	94.3697E-12	715.597E-3	2.64275E-3	95.2680E-12	709.968E-3	-9.36488E-3
2.67384E-3	94.4090E-12	699.368E-3	-9.39356E-3	94.7293E-12	715.069E-3	-158.970E-6
2.66883E-3	94.0875E-12	688.968E-3	-23.7228E-3	95.7859E-12	706.354E-3	6.50105E-3
2.66383E-3	93.9574E-12	684.258E-3	-28.4802E-3	94.2664E-12	694.837E-3	-11.2449E-3
2.65883E-3	94.3937E-12	680.284E-3	-26.8473E-3	94.1046E-12	690.365E-3	-23.0432E-3
2.65383E-3	93.1557E-12	691.519E-3	-20.6707E-3	94.4857E-12	696.666E-3	-5.88292E-3
2.64882E-3	93.7820E-12	696.709E-3	-30.3905E-3	96.3612E-12	701.201E-3	8.24778E-3
2.64382E-3	95.1203E-12	684.476E-3	-47.3868E-3	95.6847E-12	703.329E-3	11.4679E-3
2.63882E-3	96.1021E-12	687.584E-3	-36.6057E-3	94.3411E-12	705.365E-3	12.1231E-3
2.63382E-3	94.3098E-12	709.607E-3	-23.3710E-3	95.0766E-12	709.187E-3	-1.02952E-3
2.62881E-3	94.3980E-12	721.539E-3	-34.1220E-3	94.8796E-12	711.316E-3	-13.8086E-3
2.62381E-3	93.9579E-12	720.451E-3	-37.3370E-3	96.2037E-12	725.478E-3	-9.03408E-3
2.61881E-3	94.7251E-12	720.930E-3	-15.8600E-3	94.9554E-12	745.189E-3	-12.8572E-3
2.61381E-3	95.0043E-12	730.159E-3	-4.98670E-3	94.6911E-12	736.458E-3	-21.4279E-3
2.60880E-3	93.0169E-12	744.456E-3	-11.8358E-3	94.0410E-12	726.706E-3	-11.0102E-3
2.60380E-3	92.3373E-12	744.811E-3	-8.70938E-3	94.3544E-12	736.609E-3	-11.1278E-3
2.59880E-3	91.9954E-12	736.969E-3	-9.06993E-3	94.3524E-12	735.732E-3	-37.3222E-3
2.59380E-3	92.7788E-12	717.457E-3	-19.6424E-3	92.3642E-12	727.371E-3	-57.4653E-3
2.58879E-3	91.6937E-12	690.801E-3	-15.6517E-3	92.0394E-12	717.816E-3	-53.8595E-3
2.58379E-3	90.6309E-12	692.582E-3	-10.4129E-3	91.3033E-12	692.153E-3	-44.4441E-3
2.57879E-3	90.1384E-12	706.575E-3	-12.6211E-3	92.3878E-12	681.856E-3	-32.8872E-3
2.57379E-3	90.6317E-12	710.071E-3	-9.55021E-3	91.7153E-12	712.983E-3	-24.1444E-3
2.56878E-3	91.1160E-12	721.552E-3	-1.28674E-3	91.6991E-12	740.650E-3	-19.2501E-3
2.56378E-3	90.5631E-12	723.107E-3	6.74500E-3	91.1875E-12	733.228E-3	-1.82146E-3
2.55878E-3	91.0908E-12	701.694E-3	-1.83166E-3	91.7605E-12	722.368E-3	5.78393E-3
2.55378E-3	91.1983E-12	690.189E-3	-20.9136E-3	92.6872E-12	721.868E-3	-5.95755E-3
2.54877E-3	92.5783E-12	701.754E-3	-19.3912E-3	91.6533E-12	716.885E-3	1.23220E-3
2.54377E-3	91.8434E-12	708.076E-3	-7.93195E-3	91.3506E-12	722.162E-3	14.0234E-3
2.53877E-3	91.3049E-12	716.106E-3	-11.8673E-3	90.6331E-12	733.159E-3	-984.881E-6
2.53377E-3	90.6176E-12	747.719E-3	-11.1253E-3	91.5023E-12	733.562E-3	-11.4554E-3
2.52876E-3	90.4643E-12	764.120E-3	-11.2608E-3	90.3512E-12	736.263E-3	-4.15199E-3
2.52376E-3	90.0858E-12	749.913E-3	-10.5602E-3	90.5637E-12	739.981E-3	-1.74453E-3
2.51876E-3	89.2892E-12	733.423E-3	2.63583E-3	88.8056E-12	732.666E-3	-3.24184E-3
2.51376E-3	88.2981E-12	733.609E-3	-3.87748E-3	88.5513E-12	728.337E-3	-6.40496E-3
2.50875E-3	87.6169E-12	732.640E-3	-28.3503E-3	88.5579E-12	726.971E-3	-10.7557E-3
2.50375E-3	86.9723E-12	715.892E-3	-32.3518E-3	87.4793E-12	712.738E-3	-16.8566E-3
2.49875E-3	86.5693E-12	695.475E-3	-18.0252E-3	86.7701E-12	708.625E-3	-20.7812E-3
2.49375E-3	86.4452E-12	692.391E-3	-17.6860E-3	85.9915E-12	717.948E-3	-17.3488E-3
2.48874E-3	85.7988E-12	716.906E-3	-18.9494E-3	86.0133E-12	716.518E-3	-7.83218E-3
2.48374E-3	85.2460E-12	727.424E-3	-14.2603E-3	85.3218E-12	721.468E-3	-3.39234E-3
2.47874E-3	85.4213E-12	730.265E-3	-19.7849E-3	85.4203E-12	733.387E-3	-10.1633E-3
2.47374E-3	86.1987E-12	741.666E-3	-16.0775E-3	84.9281E-12	723.000E-3	-15.1097E-3
2.46873E-3	86.7126E-12	726.665E-3	-5.11690E-3	85.6598E-12	710.120E-3	-17.9437E-3
2.46373E-3	86.0098E-12	708.614E-3	-12.0296E-3	85.8011E-12	718.837E-3	-20.6816E-3
2.45873E-3	85.6987E-12	723.448E-3	-26.9838E-3	86.1553E-12	729.285E-3	-21.8452E-3
2.45373E-3	86.0106E-12	741.048E-3	-25.7863E-3	85.9036E-12	737.077E-3	-17.9540E-3
2.44872E-3	86.2731E-12	740.313E-3	-14.9912E-3	86.1568E-12	763.919E-3	-14.6227E-3
2.44372E-3	85.9886E-12	742.891E-3	-13.7435E-3	86.0447E-12	778.614E-3	-14.1938E-3
2.43872E-3	85.0117E-12	749.546E-3	-8.98346E-3	86.1434E-12	761.553E-3	-3.29429E-3
2.43372E-3	85.1580E-12	739.310E-3	-7.28158E-3	85.4742E-12	739.728E-3	12.4455E-3
2.42871E-3	84.8366E-12	715.661E-3	-21.3525E-3	85.7877E-12	713.237E-3	13.6395E-3
2.42371E-3	85.4857E-12	708.349E-3	-24.3591E-3	85.0095E-12	695.916E-3	-7.25082E-3
2.41871E-3	83.8632E-12	717.854E-3	-11.7911E-3	84.1850E-12	712.608E-3	-30.3766E-3
2.41371E-3	82.6450E-12	731.226E-3	-9.56757E-3	83.3602E-12	730.729E-3	-37.8878E-3
2.40870E-3	82.4545E-12	734.342E-3	-12.5094E-3	83.1833E-12	723.083E-3	-23.0502E-3
2.40370E-3	83.2000E-12	722.294E-3	-6.43254E-3	82.8076E-12	730.462E-3	-12.2292E-3
2.39870E-3	82.8620E-12	719.452E-3	-6.84065E-3	82.9109E-12	753.995E-3	-37.5898E-3
2.39370E-3	81.5868E-12	736.019E-3	-11.3372E-3	82.4772E-12	762.853E-3	-48.5555E-3
2.38869E-3	81.7473E-12	725.484E-3	3.31777E-3	81.7563E-12	764.930E-3	-23.1375E-3
2.38369E-3	82.9430E-12	698.839E-3	7.19116E-3	81.6936E-12	754.194E-3	-16.9243E-3
2.37869E-3	83.8120E-12	708.780E-3	-20.5772E-3	81.8081E-12	721.356E-3	-15.4862E-3
2.37369E-3	82.4064E-12	719.418E-3	-28.9261E-3	82.4648E-12	710.290E-3	7.93386E-3
2.36868E-3	82.2768E-12	716.714E-3	-9.44206E-3	82.1626E-12	738.034E-3	15.6365E-3
2.36368E-3	82.5435E-12	728.072E-3	-3.65607E-3	81.5757E-12	752.075E-3	3.82933E-3
2.35868E-3	82.9632E-12	745.998E-3	-14.0392E-3	81.7129E-12	747.377E-3	-2.85678E-3
2.35368E-3	83.1845E-12	746.251E-3	-18.6074E-3	81.4615E-12	749.971E-3	-19.8201E-3
2.34867E-3	81.6438E-12	728.594E-3	-21.7337E-3	81.2039E-12	748.988E-3	-33.6457E-3
2.34367E-3	81.1749E-12	718.636E-3	-27.5209E-3	80.8193E-12	744.384E-3	-19.0226E-3
2.33867E-3	81.4616E-12	720.884E-3	-19.6639E-3	80.9339E-12	745.251E-3	-8.21005E-3
2.33367E-3	80.8723E-12	726.213E-3	-7.22466E-3	80.1790E-12	733.591E-3	-10.1366E-3
2.32866E-3	79.9248E-12	734.607E-3	-7.63580E-3	79.5492E-12	720.149E-3	-5.24220E-3
2.32366E-3	79.9021E-12	735.033E-3	-9.89611E-3	79.0980E-12	732.046E-3	-8.35890E-3
2.31866E-3	79.8459E-12	734.036E-3	-15.8691E-3	79.2369E-12	739.707E-3	-24.8820E-3
2.31366E-3	80.0220E-12	746.819E-3	-25.8074E-3	78.0585E-12	733.533E-3	-16.5852E-3
2.30865E-3	79.5600E-12	742.103E-3	-30.8918E-3	77.7699E-12	733.063E-3	-1.13188E-3
2.30365E-3	78.5654E-12	722.712E-3	-31.8075E-3	77.7270E-12	724.313E-3	-18.2323E-3
2.29865E-3	78.5104E-12	738.376E-3	-26.7552E-3	77.2511E-12	723.357E-3	-35.2653E-3
2.29365E-3	78.7605E-12	769.968E-3	-15.2330E-3	76.8780E-12	764.264E-3	-33.0620E-3
2.28864E-3	78.1164E-12	773.907E-3	-6.10502E-3	76.6240E-12	793.067E-3	-24.6079E-3
2.28364E-3	78.2352E-12	770.113E-3	-13.0417E-3	76.7696E-12	765.502E-3	-15.3536E-3
2.27864E-3	77.7370E-12	771.712E-3	-22.8136E-3	76.4086E-12	742.344E-3	-17.3249E-3
2.27364E-3	76.8883E-12	756.865E-3	-28.3334E-3	76.6159E-12	754.364E-3	-33.9144E-3
2.26863E-3	77.1104E-12	740.383E-3	-31.1396E-3	76.0889E-12	756.107E-3	-27.3981E-3
2.26363E-3	77.0516E-12	739.082E-3	-23.3162E-3	76.2348E-12	747.264E-3	-4.93691E-3
2.25863E-3	76.7596E-12	744.606E-3	-26.3926E-3	75.7451E-12	747.981E-3	-11.0824E-3
2.25363E-3	75.3417E-12	749.454E-3	-35.2804E-3	75.3795E-12	747.661E-3	-28.1044E-3
2.24862E-3	74.7909E-12	754.794E-3	-24.6437E-3	74.9465E-12	754.206E-3	-34.8305E-3
2.24362E-3	75.1354E-12	760.816E-3	-14.3864E-3	75.0737E-12	772.630E-3	-37.7197E-3
2.23862E-3	75.5258E-12	764.912E-3	-14.0784E-3	74.3710E-12	781.492E-3	-31.6516E-3
2.23362E-3	74.2262E-12	765.815E-3	-11.1791E-3	73.6875E-12	765.670E-3	-13.0174E-3
2.22861E-3	73.6756E-12	761.046E-3	-5.39900E-3	73.6738E-12	746.302E-3	-1.86820E-3
2.22361E-3	74.0424E-12	741.648E-3	-8.85090E-3	74.2322E-12	746.537E-3	-11.5035E-3
2.21861E-3	75.1955E-12	724.719E-3	-18.9549E-3	73.3837E-12	754.373E-3	-18.0501E-3
2.21361E-3	74.1040E-12	738.810E-3	-16.5214E-3	73.0893E-12	758.269E-3	-9.09242E-3
2.20860E-3	73.5549E-12	771.064E-3	-10.9931E-3	73.3628E-12	757.264E-3	-291.103E-6
2.20360E-3	73.4767E-12	803.346E-3	-24.2646E-3	73.8172E-12	757.912E-3	-1.15590E-3
2.19860E-3	73.4627E-12	808.333E-3	-39.2582E-3	72.6270E-12	764.980E-3	-17.4589E-3
2.19360E-3	72.7978E-12	791.578E-3	-32.8177E-3	72.0842E-12	761.578E-3	-31.3125E-3
2.18859E-3	72.7983E-12	784.601E-3	-16.3917E-3	72.3267E-12	754.552E-3	-24.1834E-3
2.18359E-3	71.8720E-12	778.896E-3	-14.6682E-3	72.2751E-12	754.611E-3	-8.04753E-3
2.17859E-3	71.3630E-12	768.885E-3	-25.9050E-3	71.8421E-12	757.474E-3	-1.26249E-3
2.17359E-3	71.1417E-12	762.670E-3	-21.1852E-3	70.4657E-12	773.515E-3	-3.57285E-3
2.16858E-3	71.2115E-12	760.912E-3	-14.4703E-3	71.0073E-12	787.789E-3	-8.12726E-3
2.16358E-3	70.2753E-12	767.391E-3	-27.5901E-3	70.8544E-12	780.945E-3	-5.79595E-3
2.15858E-3	70.1231E-12	778.444E-3	-27.5991E-3	69.7789E-12	764.596E-3	561.498E-6
2.15358E-3	69.6500E-12	782.289E-3	-18.7212E-3	69.2551E-12	761.752E-3	-6.61573E-3
2.14857E-3	69.9212E-12	770.046E-3	-27.7069E-3	69.0076E-12	771.771E-3	-17.3732E-3
2.14357E-3	70.1096E-12	756.867E-3	-34.0955E-3	69.6784E-12	775.177E-3	-12.5415E-3
2.13857E-3	69.6068E-12	758.504E-3	-21.9042E-3	69.2568E-12	776.157E-3	-8.22671E-3
2.13357E-3	69.8192E-12	759.646E-3	-15.7539E-3	69.5931E-12	788.108E-3	-17.3674E-3
2.12856E-3	69.8175E-12	761.216E-3	-17.9495E-3	68.9295E-12	800.043E-3	-20.9612E-3
2.12356E-3	70.6361E-12	778.856E-3	-10.3650E-3	69.3384E-12	802.020E-3	-19.0631E-3
2.11856E-3	70.2210E-12	793.236E-3	-11.5542E-3	69.3383E-12	799.695E-3	-19.9992E-3
2.11356E-3	69.6657E-12	809.882E-3	-35.7807E-3	69.4552E-12	792.857E-3	-31.9595E-3
2.10855E-3	69.2721E-12	833.380E-3	-50.6149E-3	69.2226E-12	785.968E-3	-40.2527E-3
2.10355E-3	69.0319E-12	814.855E-3	-35.3448E-3	68.6999E-12	785.856E-3	-32.7210E-3
2.09855E-3	68.9453E-12	776.401E-3	-16.3409E-3	68.0307E-12	778.478E-3	-33.0460E-3
2.09355E-3	68.1197E-12	771.628E-3	-13.1254E-3	67.8943E-12	770.107E-3	-26.8550E-3
2.08854E-3	67.6482E-12	779.381E-3	-12.0440E-3	67.5245E-12	770.859E-3	-15.0325E-3
2.08354E-3	67.0932E-12	780.898E-3	-16.9533E-3	66.4466E-12	760.046E-3	-20.3330E-3
2.07854E-3	67.2761E-12	789.226E-3	-24.2425E-3	65.5687E-12	756.524E-3	-24.7495E-3
2.07354E-3	66.1062E-12	799.635E-3	-22.1384E-3	65.0512E-12	771.071E-3	-25.2173E-3
2.06853E-3	65.8701E-12	803.690E-3	-17.0715E-3	64.6472E-12	777.436E-3	-29.2697E-3
2.06353E-3	65.5659E-12	816.034E-3	-15.2596E-3	64.5437E-12	783.194E-3	-27.4885E-3
2.05853E-3	65.3865E-12	820.058E-3	-30.1344E-3	63.4318E-12	788.215E-3	-26.8535E-3
2.05353E-3	65.3451E-12	801.552E-3	-47.7517E-3	63.6194E-12	780.802E-3	-31.6913E-3
2.04852E-3	65.0749E-12	790.575E-3	-46.2882E-3	63.6173E-12	787.564E-3	-26.3197E-3
2.04352E-3	64.4134E-12	797.169E-3	-23.8932E-3	63.8958E-12	805.087E-3	-11.0261E-3
2.03852E-3	64.4286E-12	814.953E-3	2.05972E-3	63.4982E-12	806.881E-3	-11.5407E-3
2.03352E-3	64.6591E-12	825.989E-3	6.16478E-3	63.6465E-12	807.662E-3	-17.7501E-3
2.02851E-3	64.6271E-12	822.506E-3	-3.72194E-3	64.2541E-12	812.971E-3	-21.2381E-3
2.02351E-3	64.3768E-12	815.328E-3	-6.87257E-3	64.2849E-12	823.435E-3	-37.6233E-3
2.01851E-3	63.4695E-12	804.119E-3	-3.88146E-3	64.7628E-12	841.353E-3	-42.5542E-3
2.01351E-3	63.0593E-12	803.572E-3	-8.26988E-3	64.2480E-12	849.862E-3	-22.6939E-3
2.00850E-3	62.9850E-12	811.838E-3	-26.3395E-3	64.2176E-12	843.686E-3	-5.96382E-3
2.00350E-3	62.5004E-12	809.012E-3	-36.8545E-3	63.6237E-12	829.913E-3	-6.47998E-3
1.99850E-3	61.9419E-12	809.560E-3	-25.3716E-3	63.5301E-12	822.254E-3	-20.0829E-3
1.99350E-3	61.5244E-12	815.781E-3	-4.43080E-3	63.3024E-12	815.415E-3	-33.9767E-3
1.98849E-3	61.8688E-12	821.983E-3	1.58446E-3	62.4441E-12	804.799E-3	-33.0382E-3
1.98349E-3	61.1668E-12	822.630E-3	-17.8074E-3	61.4096E-12	805.065E-3	-28.4253E-3
1.97849E-3	60.6718E-12	815.259E-3	-29.9519E-3	60.8513E-12	810.529E-3	-24.8797E-3
1.97349E-3	60.1083E-12	821.026E-3	-21.5137E-3	60.7090E-12	812.129E-3	-18.7344E-3
1.96848E-3	60.4602E-12	836.037E-3	-18.3494E-3	60.5338E-12	823.821E-3	-23.4614E-3
1.96348E-3	60.4106E-12	836.770E-3	-23.6257E-3	59.4312E-12	833.100E-3	-31.0499E-3
1.95848E-3	59.4487E-12	831.183E-3	-22.1042E-3	58.5975E-12	818.340E-3	-18.5229E-3
1.95348E-3	58.9511E-12	831.458E-3	-21.3101E-3	58.4685E-12	811.957E-3	6.30099E-3
1.94847E-3	59.3669E-12	821.969E-3	-24.3683E-3	59.1097E-12	830.719E-3	14.4712E-3
1.94347E-3	59.4369E-12	824.544E-3	-32.0373E-3	58.7845E-12	849.340E-3	9.39475E-3
1.93847E-3	58.7607E-12	846.168E-3	-43.2090E-3	58.3615E-12	858.429E-3	15.7841E-3
1.93347E-3	58.7515E-12	848.138E-3	-37.0722E-3	58.4667E-12	857.065E-3	14.7603E-3
1.92846E-3	58.6311E-12	836.898E-3	-28.0304E-3	59.5750E-12	846.873E-3	-5.77071E-3
1.92346E-3	58.3943E-12	833.665E-3	-19.8541E-3	59.3018E-12	845.845E-3	-14.1540E-3
1.91846E-3	58.1173E-12	839.590E-3	3.40754E-3	58.2881E-12	861.045E-3	-10.1581E-3
1.91346E-3	58.1245E-12	862.276E-3	5.41858E-3	57.6475E-12	871.293E-3	-15.1851E-3
1.90845E-3	57.3194E-12	878.985E-3	-18.8181E-3	57.9590E-12	857.252E-3	-20.4244E-3
1.90345E-3	57.3153E-12	865.011E-3	-32.9448E-3	58.1280E-12	844.932E-3	-19.4988E-3
1.89845E-3	56.7003E-12	846.380E-3	-28.9165E-3	56.8669E-12	856.286E-3	-22.5460E-3
1.89345E-3	56.2022E-12	847.019E-3	-13.7180E-3	55.9355E-12	870.578E-3	-25.6991E-3
1.88844E-3	55.9826E-12	864.417E-3	-9.89189E-3	55.9571E-12	870.596E-3	-18.6017E-3
1.88344E-3	55.7363E-12	867.330E-3	-19.2377E-3	55.9224E-12	856.409E-3	-15.1427E-3
1.87844E-3	55.6094E-12	847.982E-3	-20.5972E-3	55.1608E-12	849.029E-3	-20.4622E-3
1.87344E-3	54.8442E-12	844.644E-3	-11.3424E-3	54.7729E-12	863.630E-3	-17.8037E-3
1.86843E-3	54.8688E-12	859.352E-3	2.58737E-3	54.2974E-12	882.989E-3	-15.6871E-3
1.86343E-3	54.8323E-12	865.328E-3	-4.10325E-3	53.9919E-12	886.436E-3	-10.4649E-3
1.85843E-3	54.7265E-12	866.049E-3	-31.3594E-3	54.3115E-12	875.027E-3	811.367E-6
1.85343E-3	54.1925E-12	866.597E-3	-39.4470E-3	54.3495E-12	875.349E-3	-9.34875E-3
1.84842E-3	54.2899E-12	866.455E-3	-28.9713E-3	53.7547E-12	886.228E-3	-19.9850E-3
1.84342E-3	53.9342E-12	880.844E-3	-20.5609E-3	53.6189E-12	890.168E-3	-310.974E-6
1.83842E-3	53.2889E-12	902.636E-3	-20.9588E-3	53.5746E-12	890.741E-3	14.0051E-3
1.83342E-3	53.3149E-12	906.884E-3	-31.3962E-3	53.7721E-12	882.900E-3	-205.715E-6
1.82841E-3	53.6279E-12	897.380E-3	-32.7984E-3	53.3562E-12	875.571E-3	-16.9050E-3
1.82341E-3	53.0772E-12	889.240E-3	-22.2105E-3	52.7963E-12	899.189E-3	-20.2050E-3
1.81841E-3	51.9089E-12	886.685E-3	-21.6883E-3	52.1599E-12	932.203E-3	-12.5600E-3
1.81341E-3	51.8529E-12	893.484E-3	-28.0294E-3	52.2595E-12	934.571E-3	-381.418E-6
1.80840E-3	51.6618E-12	899.418E-3	-32.6349E-3	51.9079E-12	918.295E-3	3.84896E-3
1.80340E-3	51.7987E-12	901.423E-3	-41.0280E-3	51.8569E-12	905.681E-3	5.59748E-3
1.79840E-3	51.1030E-12	907.681E-3	-47.8129E-3	50.6529E-12	915.209E-3	8.62445E-3
1.79340E-3	50.4599E-12	915.397E-3	-40.7348E-3	50.6008E-12	937.238E-3	-2.80802E-3
1.78839E-3	50.3721E-12	923.316E-3	-34.2098E-3	50.4866E-12	940.442E-3	-18.0172E-3
1.78339E-3	50.2502E-12	930.215E-3	-28.7846E-3	50.3196E-12	932.470E-3	-13.7527E-3
1.77839E-3	50.1223E-12	932.638E-3	-15.0222E-3	49.4869E-12	928.212E-3	-4.90083E-3
1.77339E-3	49.5498E-12	927.208E-3	-1.25799E-3	49.6703E-12	933.101E-3	-5.50173E-3
1.76838E-3	48.9810E-12	925.599E-3	-2.49608E-3	49.1363E-12	943.766E-3	-4.39543E-3
1.76338E-3	48.7818E-12	935.147E-3	-10.4660E-3	48.7189E-12	946.960E-3	-4.43261E-3
1.75838E-3	49.1370E-12	941.529E-3	-11.7325E-3	48.4912E-12	939.604E-3	-17.2262E-3
1.75338E-3	48.9001E-12	944.589E-3	-19.8307E-3	48.4498E-12	933.477E-3	-32.9130E-3
1.74837E-3	47.8860E-12	956.153E-3	-23.8951E-3	48.0106E-12	949.406E-3	-35.2105E-3
1.74337E-3	47.0977E-12	964.191E-3	-8.30373E-3	47.2284E-12	970.826E-3	-32.5655E-3
1.73837E-3	47.9887E-12	959.834E-3	-602.129E-6	46.9615E-12	964.515E-3	-24.0915E-3
1.73337E-3	47.7964E-12	960.070E-3	-13.1350E-3	47.0382E-12	953.280E-3	-8.00105E-3
1.72836E-3	46.7145E-12	976.750E-3	-18.6850E-3	46.3371E-12	960.018E-3	-3.28292E-3
1.72336E-3	46.1686E-12	987.214E-3	-17.1629E-3	45.7150E-12	969.572E-3	-7.42692E-3
1.71836E-3	46.3938E-12	983.585E-3	-18.9068E-3	45.2933E-12	974.852E-3	-14.5296E-3
1.71336E-3	46.4029E-12	990.752E-3	-19.8843E-3	45.1824E-12	986.716E-3	-22.5284E-3
1.70835E-3	45.9495E-12	993.770E-3	-21.0654E-3	44.7984E-12	997.155E-3	-23.3509E-3
1.70335E-3	45.2649E-12	991.266E-3	-27.6972E-3	44.5638E-12	999.672E-3	-25.7190E-3
1.69835E-3	44.9633E-12	999.008E-3	-26.5630E-3	44.4761E-12	1.01807E+0	-33.7357E-3
1.69335E-3	45.4071E-12	1.00392E+0	-18.0058E-3	44.5806E-12	1.04525E+0	-36.3231E-3
1.68834E-3	44.1107E-12	1.01020E+0	-24.0888E-3	44.0715E-12	1.06382E+0	-26.1233E-3
1.68334E-3	43.4542E-12	1.01497E+0	-31.2875E-3	44.2370E-12	1.06646E+0	-15.5282E-3
1.67834E-3	43.1316E-12	1.00485E+0	-31.0135E-3	43.9365E-12	1.05839E+0	-17.7025E-3
1.67334E-3	43.1979E-12	992.236E-3	-23.2147E-3	43.6573E-12	1.06098E+0	-20.1183E-3
1.66833E-3	42.7912E-12	994.495E-3	-5.61907E-3	43.3803E-12	1.06666E+0	-18.6782E-3
1.66333E-3	41.9142E-12	1.00599E+0	-2.68613E-3	42.9920E-12	1.06072E+0	-20.6582E-3
1.65833E-3	41.7349E-12	1.01889E+0	-17.6954E-3	42.5272E-12	1.04815E+0	-29.4642E-3
1.65333E-3	41.2542E-12	1.03375E+0	-25.2987E-3	41.6600E-12	1.04029E+0	-26.7652E-3
1.64832E-3	41.3958E-12	1.03642E+0	-18.7238E-3	41.2103E-12	1.03921E+0	-11.0129E-3
1.64332E-3	40.2134E-12	1.04022E+0	-15.6995E-3	40.1880E-12	1.05073E+0	-4.18577E-3
1.63832E-3	40.2610E-12	1.05718E+0	-16.4347E-3	39.8175E-12	1.05976E+0	1.69933E-3
1.63332E-3	39.6670E-12	1.05781E+0	-15.0761E-3	39.3032E-12	1.04598E+0	5.13665E-3
1.62831E-3	39.8560E-12	1.04919E+0	-18.4399E-3	38.8538E-12	1.04336E+0	-1.75715E-3
1.62331E-3	39.4254E-12	1.04879E+0	-15.5532E-3	38.4954E-12	1.06212E+0	-5.60226E-3
1.61831E-3	39.1012E-12	1.04379E+0	-5.76238E-3	38.0887E-12	1.07001E+0	-5.18625E-3
1.61331E-3	38.6206E-12	1.05113E+0	-11.6215E-3	37.9558E-12	1.07182E+0	-5.39991E-3
1.60830E-3	38.1459E-12	1.07301E+0	-20.7069E-3	37.5270E-12	1.07388E+0	-2.41089E-3
1.60330E-3	37.8373E-12	1.07862E+0	-16.8894E-3	37.5505E-12	1.08379E+0	-11.1654E-3
1.59830E-3	37.5868E-12	1.07151E+0	-20.6971E-3	37.4753E-12	1.11122E+0	-23.1519E-3
1.59330E-3	36.9638E-12	1.07974E+0	-26.4910E-3	37.3714E-12	1.13468E+0	-17.3015E-3
1.58829E-3	36.1244E-12	1.09725E+0	-22.2006E-3	37.3931E-12	1.14176E+0	-8.78156E-3
1.58329E-3	36.1948E-12	1.09126E+0	-23.6931E-3	37.3016E-12	1.14265E+0	-12.2170E-3
1.57829E-3	35.7885E-12	1.07855E+0	-33.0095E-3	36.9541E-12	1.14741E+0	-18.7707E-3
1.57329E-3	35.3894E-12	1.07814E+0	-31.4006E-3	36.7632E-12	1.15667E+0	-22.0467E-3
1.56828E-3	34.4601E-12	1.08421E+0	-22.5888E-3	36.5874E-12	1.16412E+0	-19.5252E-3
1.56328E-3	34.4124E-12	1.09243E+0	-17.4325E-3	35.8321E-12	1.15645E+0	-14.0036E-3
1.55828E-3	34.4302E-12	1.09121E+0	-12.1295E-3	35.2698E-12	1.14238E+0	-20.2635E-3
1.55328E-3	33.9834E-12	1.09745E+0	-13.6197E-3	34.5860E-12	1.13429E+0	-26.5371E-3
1.54827E-3	33.3559E-12	1.12110E+0	-18.8677E-3	33.9342E-12	1.12980E+0	-20.8835E-3
1.54327E-3	33.0509E-12	1.13657E+0	-6.44350E-3	33.5747E-12	1.14089E+0	-12.0961E-3
1.53827E-3	33.1535E-12	1.13984E+0	-5.55881E-3	32.8512E-12	1.15040E+0	-11.0223E-3
1.53327E-3	32.8302E-12	1.14239E+0	-29.9776E-3	32.4947E-12	1.15024E+0	-19.5347E-3
1.52826E-3	32.3394E-12	1.14767E+0	-35.2495E-3	32.3039E-12	1.15802E+0	-24.3623E-3
1.52326E-3	31.9045E-12	1.15035E+0	-20.1676E-3	32.1949E-12	1.16575E+0	-13.8517E-3
1.51826E-3	31.8291E-12	1.15822E+0	-12.3071E-3	31.4985E-12	1.17425E+0	602.897E-6
1.51326E-3	31.3460E-12	1.17192E+0	-16.1794E-3	31.0484E-12	1.18932E+0	3.25424E-3
1.50825E-3	30.8657E-12	1.16460E+0	-15.5743E-3	31.0139E-12	1.19418E+0	-4.01747E-3
1.50325E-3	30.7669E-12	1.14381E+0	-12.7637E-3	31.0670E-12	1.19294E+0	-16.7347E-3
1.49825E-3	30.2870E-12	1.14478E+0	-12.0373E-3	30.5389E-12	1.21638E+0	-24.2043E-3
1.49325E-3	29.9186E-12	1.16132E+0	-12.4740E-3	29.9042E-12	1.22926E+0	-26.9561E-3
1.48824E-3	29.4387E-12	1.17036E+0	-7.54724E-3	29.8407E-12	1.19151E+0	-26.5213E-3
1.48324E-3	29.2114E-12	1.18465E+0	3.37091E-3	29.6553E-12	1.16843E+0	-18.0800E-3
1.47824E-3	28.4828E-12	1.19125E+0	3.60359E-3	28.9560E-12	1.18602E+0	-15.3431E-3
1.47324E-3	28.2711E-12	1.17737E+0	-7.25034E-3	28.1899E-12	1.19415E+0	-15.8184E-3
1.46823E-3	28.0114E-12	1.17303E+0	-20.2918E-3	27.7811E-12	1.18961E+0	-9.51465E-3
1.46323E-3	27.4189E-12	1.18099E+0	-20.2346E-3	27.5214E-12	1.17298E+0	-6.45127E-3
1.45823E-3	26.8673E-12	1.18016E+0	-20.3235E-3	26.9769E-12	1.15315E+0	-16.8399E-3
1.45323E-3	26.3160E-12	1.17516E+0	-28.7864E-3	26.1023E-12	1.15435E+0	-21.2268E-3
1.44822E-3	26.0591E-12	1.17025E+0	-20.6284E-3	25.7048E-12	1.16958E+0	-16.5596E-3
1.44322E-3	25.9546E-12	1.16332E+0	-6.34242E-3	25.4551E-12	1.18024E+0	-18.0365E-3
1.43822E-3	25.2332E-12	1.16863E+0	-12.7552E-3	25.1662E-12	1.17175E+0	-6.11946E-3
1.43322E-3	24.7377E-12	1.18297E+0	-31.0676E-3	24.9173E-12	1.16375E+0	3.53381E-3
1.42821E-3	24.5283E-12	1.18213E+0	-42.3348E-3	24.4461E-12	1.17128E+0	-16.9099E-3
1.42321E-3	24.5860E-12	1.16547E+0	-31.4776E-3	24.1481E-12	1.17434E+0	-38.3569E-3
1.41821E-3	23.7067E-12	1.16391E+0	-8.28891E-3	23.9457E-12	1.15965E+0	-34.4456E-3
1.41321E-3	23.1161E-12	1.17578E+0	-13.4578E-3	23.6814E-12	1.13995E+0	-19.3327E-3
1.40820E-3	22.9709E-12	1.16795E+0	-38.0162E-3	23.3037E-12	1.13400E+0	-11.5080E-3
1.40320E-3	22.9082E-12	1.15127E+0	-38.9382E-3	22.8519E-12	1.13123E+0	-16.9828E-3
1.39820E-3	22.4622E-12	1.15022E+0	-23.3311E-3	22.5280E-12	1.12179E+0	-24.3931E-3
1.39320E-3	21.6143E-12	1.16414E+0	-11.6213E-3	21.7031E-12	1.11242E+0	-8.30315E-3
1.38819E-3	21.4333E-12	1.17076E+0	-9.41974E-3	21.4148E-12	1.10295E+0	571.429E-6
1.38319E-3	21.2466E-12	1.15092E+0	-20.7486E-3	21.0584E-12	1.08003E+0	-18.1530E-3
1.37819E-3	21.0974E-12	1.11976E+0	-27.9568E-3	20.7500E-12	1.05731E+0	-25.2817E-3
1.37319E-3	20.2089E-12	1.10689E+0	-21.4805E-3	20.0911E-12	1.05884E+0	-22.0183E-3
1.36818E-3	19.8612E-12	1.11335E+0	-7.48575E-3	19.5028E-12	1.06741E+0	-24.7341E-3
1.36318E-3	19.7850E-12	1.11234E+0	-3.42859E-3	19.3096E-12	1.06070E+0	-17.5707E-3
1.35818E-3	19.3699E-12	1.10452E+0	-14.5139E-3	18.8565E-12	1.05022E+0	-11.3836E-3
1.35318E-3	18.8109E-12	1.09771E+0	-15.6305E-3	18.5650E-12	1.04606E+0	-27.8278E-3
1.34817E-3	18.4735E-12	1.08692E+0	-14.3201E-3	18.1460E-12	1.03911E+0	-38.1697E-3
1.34317E-3	18.2123E-12	1.07835E+0	-17.8600E-3	18.1477E-12	1.03683E+0	-26.1870E-3
1.33817E-3	17.8875E-12	1.06627E+0	-12.2623E-3	17.8791E-12	1.03476E+0	-11.0105E-3
1.33317E-3	17.5684E-12	1.04794E+0	-12.6910E-3	17.5974E-12	1.02861E+0	-5.26032E-3
1.32816E-3	17.1318E-12	1.03817E+0	-17.5392E-3	17.2481E-12	1.01826E+0	-6.57766E-3
1.32316E-3	16.6906E-12	1.02248E+0	-7.81948E-3	17.0438E-12	995.756E-3	-9.97443E-3
1.31816E-3	16.3314E-12	997.078E-3	-3.34671E-3	16.6628E-12	979.203E-3	-7.44333E-3
1.31316E-3	16.1931E-12	995.926E-3	-15.4783E-3	16.3175E-12	972.689E-3	-4.66085E-3
1.30815E-3	15.9116E-12	1.00516E+0	-19.2631E-3	16.0540E-12	956.375E-3	-11.1555E-3
1.30315E-3	15.3844E-12	987.388E-3	-17.4206E-3	15.6747E-12	932.643E-3	-22.5622E-3
1.29815E-3	15.1248E-12	957.484E-3	-27.8807E-3	15.3580E-12	921.973E-3	-27.0115E-3
1.29315E-3	14.9059E-12	938.171E-3	-25.4585E-3	14.8868E-12	917.013E-3	-20.4411E-3
1.28814E-3	14.8875E-12	933.911E-3	-17.0986E-3	14.5187E-12	894.188E-3	-20.1686E-3
1.28314E-3	14.1675E-12	942.372E-3	-24.4098E-3	14.1908E-12	858.655E-3	-26.4032E-3
1.27814E-3	13.9383E-12	933.631E-3	-22.3037E-3	13.8708E-12	838.938E-3	-33.0036E-3
1.27314E-3	13.7193E-12	898.818E-3	-17.3107E-3	13.4839E-12	843.133E-3	-31.2818E-3
1.26813E-3	13.6148E-12	887.411E-3	-24.2329E-3	13.2685E-12	845.779E-3	-14.2595E-3
1.26313E-3	13.1352E-12	903.814E-3	-17.5864E-3	13.0607E-12	831.796E-3	2.91755E-3
1.25813E-3	12.9313E-12	898.536E-3	-6.01702E-3	12.8142E-12	807.319E-3	-4.25746E-3
1.25313E-3	12.7879E-12	868.085E-3	-14.5527E-3	12.6624E-12	788.954E-3	-18.8211E-3
1.24812E-3	12.5202E-12	844.886E-3	-23.9827E-3	12.4714E-12	790.712E-3	-16.4287E-3
1.24312E-3	12.1972E-12	832.131E-3	-18.1083E-3	12.3810E-12	791.085E-3	-13.0691E-3
1.23812E-3	11.8047E-12	818.013E-3	-23.3595E-3	12.0467E-12	762.799E-3	-10.9368E-3
1.23312E-3	11.7139E-12	803.328E-3	-42.7247E-3	11.8317E-12	718.062E-3	-6.05920E-3
1.22811E-3	11.4752E-12	776.893E-3	-35.6672E-3	11.5480E-12	698.054E-3	-9.54148E-3
1.22311E-3	11.1773E-12	754.192E-3	-7.19969E-3	11.2905E-12	698.210E-3	-16.9776E-3
1.21811E-3	10.7535E-12	763.989E-3	5.90293E-3	10.9031E-12	678.576E-3	-17.0384E-3
1.21311E-3	10.6604E-12	773.045E-3	-3.35894E-3	10.6193E-12	654.411E-3	-12.2915E-3
1.20810E-3	10.5563E-12	735.684E-3	-16.2624E-3	10.4017E-12	642.096E-3	-6.91260E-3
1.20310E-3	10.2528E-12	693.258E-3	-19.7758E-3	10.0210E-12	629.199E-3	-10.4290E-3
1.19810E-3	9.95730E-12	684.413E-3	-8.47694E-3	9.72080E-12	609.706E-3	-22.8490E-3
1.19310E-3	9.77774E-12	670.366E-3	-822.624E-6	9.57485E-12	583.334E-3	-25.0809E-3
1.18809E-3	9.64258E-12	656.687E-3	-14.1955E-3	9.39937E-12	569.853E-3	-17.6892E-3
1.18309E-3	9.29870E-12	655.885E-3	-22.0112E-3	9.15078E-12	563.592E-3	-15.2405E-3
1.17809E-3	9.13461E-12	632.566E-3	-15.8096E-3	8.94040E-12	556.920E-3	-15.6230E-3
1.17309E-3	8.92109E-12	608.722E-3	-14.9088E-3	8.86045E-12	552.028E-3	-13.2708E-3
1.16808E-3	8.75178E-12	598.688E-3	-20.7319E-3	8.78399E-12	533.365E-3	-6.21436E-3
1.16308E-3	8.55784E-12	571.531E-3	-29.5053E-3	8.55155E-12	510.249E-3	4.19470E-3
1.15808E-3	8.34608E-12	535.725E-3	-38.8569E-3	8.40144E-12	489.177E-3	-2.48640E-3
1.15308E-3	8.18824E-12	514.488E-3	-35.5038E-3	8.39190E-12	470.226E-3	-26.0544E-3
1.14807E-3	7.89034E-12	508.533E-3	-15.7647E-3	8.24389E-12	456.425E-3	-33.9126E-3
1.14307E-3	7.81723E-12	500.538E-3	-7.41389E-3	7.88914E-12	443.764E-3	-25.6386E-3
1.13807E-3	7.68631E-12	490.932E-3	-10.4280E-3	7.70800E-12	432.779E-3	-23.0203E-3
1.13307E-3	7.50743E-12	480.519E-3	-10.3511E-3	7.62669E-12	424.982E-3	-23.4296E-3
1.12806E-3	7.21897E-12	453.721E-3	-15.3132E-3	7.62105E-12	413.186E-3	-19.4073E-3
1.12306E-3	7.16567E-12	430.210E-3	-20.2122E-3	7.20647E-12	395.291E-3	-22.2151E-3
1.11806E-3	7.13923E-12	424.442E-3	-25.0149E-3	6.97925E-12	379.341E-3	-32.2107E-3
1.11306E-3	6.97192E-12	422.720E-3	-40.2838E-3	6.86815E-12	363.076E-3	-27.4567E-3
1.10805E-3	6.73676E-12	413.191E-3	-48.4759E-3	6.86241E-12	350.084E-3	-16.0173E-3
1.10305E-3	6.61015E-12	398.026E-3	-34.8828E-3	6.63176E-12	339.768E-3	-22.4656E-3
1.09805E-3	6.59981E-12	381.265E-3	-15.8535E-3	6.40292E-12	322.505E-3	-29.2473E-3
1.09305E-3	6.50627E-12	366.118E-3	-6.00617E-3	6.32383E-12	308.772E-3	-19.0949E-3
1.08804E-3	6.32727E-12	363.291E-3	-4.23627E-3	6.40238E-12	301.433E-3	-10.9069E-3
1.08304E-3	6.11579E-12	352.762E-3	-5.91959E-3	6.34105E-12	290.454E-3	-19.3162E-3
1.07804E-3	6.16065E-12	335.151E-3	-12.2672E-3	6.12346E-12	285.139E-3	-30.2386E-3
1.07304E-3	6.00526E-12	327.723E-3	-11.1966E-3	6.06835E-12	283.075E-3	-23.9459E-3
1.06803E-3	5.79985E-12	310.837E-3	-6.30247E-3	5.97543E-12	273.409E-3	-5.29539E-3
1.06303E-3	5.74914E-12	290.449E-3	-15.0280E-3	6.03664E-12	264.351E-3	-9.66565E-3
1.05803E-3	5.73210E-12	282.898E-3	-26.3513E-3	5.92083E-12	253.455E-3	-29.3710E-3
1.05303E-3	5.61017E-12	268.017E-3	-23.9305E-3	5.70605E-12	239.871E-3	-25.9341E-3
1.04802E-3	5.48009E-12	256.020E-3	-13.8875E-3	5.71176E-12	224.179E-3	-11.8112E-3
1.04302E-3	5.47342E-12	267.729E-3	-8.24227E-3	5.65179E-12	199.611E-3	-1.49890E-3
1.03802E-3	5.37135E-12	272.818E-3	-11.2856E-3	5.50477E-12	183.531E-3	-1.15656E-3
1.03302E-3	5.31894E-12	256.438E-3	-22.5840E-3	5.27126E-12	186.125E-3	-16.3981E-3
1.02801E-3	5.12116E-12	233.219E-3	-22.8237E-3	5.03651E-12	185.756E-3	-29.0356E-3
1.02301E-3	4.91829E-12	208.422E-3	-10.6886E-3	4.83848E-12	176.374E-3	-29.0414E-3
1.01801E-3	4.89505E-12	189.408E-3	-11.4686E-3	4.79649E-12	170.402E-3	-17.9502E-3
1.01301E-3	4.85963E-12	181.489E-3	-23.2629E-3	4.81463E-12	164.513E-3	-5.64446E-3
1.00800E-3	4.81912E-12	177.958E-3	-27.5410E-3	4.69210E-12	152.663E-3	-9.66839E-3
1.00300E-3	4.72309E-12	174.439E-3	-18.8688E-3	4.53927E-12	138.443E-3	-21.1145E-3
997.999E-6	4.59970E-12	173.518E-3	-7.71416E-3	4.56316E-12	130.181E-3	-21.2103E-3
992.997E-6	4.54442E-12	165.740E-3	-8.16343E-3	4.63331E-12	129.283E-3	-15.6778E-3
987.994E-6	4.58384E-12	155.700E-3	-20.5635E-3	4.62686E-12	129.556E-3	-16.3887E-3
982.991E-6	4.50849E-12	159.379E-3	-25.2063E-3	4.57052E-12	121.972E-3	-15.0822E-3
977.989E-6	4.37138E-12	153.696E-3	-16.8689E-3	4.44467E-12	110.280E-3	-15.2568E-3
972.986E-6	4.33196E-12	134.910E-3	-15.9761E-3	4.51567E-12	114.194E-3	-25.1356E-3
967.984E-6	4.37619E-12	130.157E-3	-23.3441E-3	4.52136E-12	120.125E-3	-29.8727E-3
962.981E-6	4.37279E-12	139.056E-3	-24.7401E-3	4.37890E-12	105.532E-3	-23.6364E-3
957.979E-6	4.24066E-12	138.884E-3	-26.1836E-3	4.28332E-12	87.2833E-3	-18.1295E-3
952.976E-6	4.19796E-12	123.380E-3	-24.4316E-3	4.27399E-12	89.1015E-3	-14.8800E-3
947.974E-6	4.25193E-12	107.569E-3	-1.21266E-3	4.26770E-12	100.778E-3	-5.43478E-3
942.971E-6	4.21816E-12	96.3674E-3	2.67201E-3	4.14244E-12	100.355E-3	2.86937E-3
937.969E-6	4.13015E-12	98.9026E-3	-30.5622E-3	4.07731E-12	97.9185E-3	806.388E-6
932.966E-6	4.10541E-12	111.146E-3	-46.2493E-3	4.04267E-12	94.4864E-3	-7.51590E-3
927.964E-6	4.12870E-12	97.6238E-3	-39.3599E-3	4.03187E-12	82.5574E-3	-9.15182E-3
922.961E-6	4.14105E-12	71.4282E-3	-32.1642E-3	4.04502E-12	80.3716E-3	-7.35746E-3
917.959E-6	4.03475E-12	72.3780E-3	-22.4189E-3	3.99850E-12	85.0123E-3	-12.6035E-3
912.956E-6	4.00588E-12	78.3779E-3	-15.5240E-3	3.97504E-12	86.3748E-3	-17.0870E-3
907.954E-6	4.00505E-12	70.1635E-3	-10.7274E-3	3.91758E-12	89.1912E-3	-20.4638E-3
902.951E-6	3.93077E-12	67.5145E-3	-6.64919E-3	3.93869E-12	78.3967E-3	-21.3871E-3
897.949E-6	3.89823E-12	73.0709E-3	-5.94140E-3	3.98661E-12	59.7632E-3	-15.4695E-3
892.946E-6	3.90623E-12	73.1803E-3	-12.8624E-3	3.98967E-12	51.7537E-3	-13.7863E-3
887.944E-6	3.91656E-12	70.1746E-3	-26.1647E-3	3.87995E-12	54.2714E-3	-19.0574E-3
882.941E-6	3.82911E-12	69.4982E-3	-29.2730E-3	3.86216E-12	64.9391E-3	-22.4844E-3
877.939E-6	3.76576E-12	65.4233E-3	-21.9616E-3	3.84244E-12	69.9828E-3	-23.3004E-3
872.936E-6	3.78945E-12	57.4130E-3	-19.2860E-3	3.85791E-12	67.0526E-3	-19.5007E-3
867.934E-6	3.83076E-12	51.1473E-3	-21.4496E-3	3.73724E-12	64.6593E-3	-5.68706E-3
862.931E-6	3.78585E-12	48.6343E-3	-24.3586E-3	3.64890E-12	64.6972E-3	1.98651E-3
857.929E-6	3.76655E-12	46.8758E-3	-30.1160E-3	3.69807E-12	61.9520E-3	-2.69995E-3
852.926E-6	3.71742E-12	47.7839E-3	-30.0466E-3	3.64857E-12	52.9602E-3	-4.83503E-3
847.924E-6	3.73331E-12	53.9715E-3	-25.7747E-3	3.58551E-12	48.5817E-3	-5.20282E-3
842.921E-6	3.74584E-12	66.7874E-3	-31.7376E-3	3.61020E-12	46.3696E-3	-9.12145E-3
837.919E-6	3.70163E-12	73.4523E-3	-40.5279E-3	3.55241E-12	36.0171E-3	-11.3028E-3
832.916E-6	3.69184E-12	63.7428E-3	-32.5882E-3	3.62617E-12	31.2311E-3	-9.43642E-3
827.914E-6	3.66784E-12	48.7323E-3	-18.3225E-3	3.56699E-12	39.9033E-3	-7.81320E-3
822.911E-6	3.62866E-12	36.7470E-3	-7.69555E-3	3.50139E-12	43.8625E-3	-1.05273E-3
817.909E-6	3.55882E-12	39.9779E-3	-1.31902E-3	3.64497E-12	49.0857E-3	6.21700E-3
812.906E-6	3.61884E-12	52.0762E-3	-12.2895E-3	3.58784E-12	59.6505E-3	-5.31091E-3
807.904E-6	3.59544E-12	49.5289E-3	-25.1326E-3	3.55348E-12	48.0515E-3	-24.8854E-3
802.901E-6	3.51799E-12	35.5331E-3	-21.8014E-3	3.59730E-12	34.9098E-3	-26.1631E-3
797.899E-6	3.51156E-12	26.7716E-3	-19.3304E-3	3.58026E-12	37.8224E-3	-18.8175E-3
792.896E-6	3.50220E-12	32.4761E-3	-16.8517E-3	3.51876E-12	30.6968E-3	-20.9423E-3
787.894E-6	3.54136E-12	43.6815E-3	-13.9415E-3	3.49126E-12	19.6594E-3	-22.3898E-3
782.891E-6	3.49707E-12	45.6754E-3	-26.5078E-3	3.44682E-12	22.9731E-3	-20.7182E-3
777.889E-6	3.47374E-12	42.9326E-3	-32.4440E-3	3.46972E-12	33.1013E-3	-21.7292E-3
772.886E-6	3.50329E-12	38.8717E-3	-14.9780E-3	3.35356E-12	37.1550E-3	-19.0657E-3
767.884E-6	3.50432E-12	38.2581E-3	-3.96760E-3	3.32736E-12	32.7371E-3	-5.71696E-3
762.881E-6	3.41536E-12	49.2623E-3	-6.33026E-3	3.32042E-12	31.8861E-3	8.73774E-3
757.879E-6	3.49881E-12	54.3304E-3	-1.32752E-3	3.36401E-12	42.3847E-3	10.2202E-3
752.876E-6	3.46822E-12	44.3113E-3	44.7736E-6	3.32922E-12	50.2320E-3	3.56685E-3
747.874E-6	3.39191E-12	42.0137E-3	-10.8521E-3	3.28784E-12	50.7048E-3	-13.5771E-3
742.871E-6	3.36380E-12	45.1030E-3	-15.8468E-3	3.31984E-12	42.0749E-3	-27.2152E-3
737.869E-6	3.36235E-12	36.8185E-3	-14.9204E-3	3.36610E-12	30.2876E-3	-25.8943E-3
732.866E-6	3.35634E-12	25.6682E-3	-18.8557E-3	3.31640E-12	30.0768E-3	-25.3500E-3
727.864E-6	3.32491E-12	25.6123E-3	-17.9952E-3	3.28247E-12	32.0278E-3	-27.3136E-3
722.861E-6	3.30130E-12	32.4439E-3	-13.0351E-3	3.36058E-12	31.7905E-3	-24.8929E-3
717.859E-6	3.33048E-12	37.2362E-3	-22.0561E-3	3.33232E-12	38.2176E-3	-13.8461E-3
712.856E-6	3.28687E-12	35.2520E-3	-32.7672E-3	3.30256E-12	44.4229E-3	-3.35900E-3
707.854E-6	3.34475E-12	28.0912E-3	-26.3900E-3	3.28419E-12	40.4060E-3	-4.85422E-3
702.851E-6	3.25208E-12	24.2485E-3	-18.8656E-3	3.29876E-12	31.6631E-3	-10.9140E-3
697.849E-6	3.24587E-12	24.8799E-3	-9.93487E-3	3.24341E-12	23.5277E-3	-15.3304E-3
692.846E-6	3.26879E-12	26.7366E-3	-4.20005E-3	3.14036E-12	28.2932E-3	-17.3570E-3
687.844E-6	3.31708E-12	27.0682E-3	-20.0140E-3	3.14201E-12	36.3946E-3	-23.2680E-3
682.841E-6	3.35075E-12	21.2531E-3	-26.1690E-3	3.15472E-12	23.5393E-3	-30.4503E-3
677.839E-6	3.29149E-12	11.9482E-3	-10.4887E-3	3.10506E-12	13.7670E-3	-26.8229E-3
672.836E-6	3.23928E-12	17.2805E-3	-317.331E-6	3.05802E-12	27.9338E-3	-18.2145E-3
667.834E-6	3.29029E-12	37.0201E-3	1.19831E-3	3.06637E-12	31.7690E-3	-12.1721E-3
662.831E-6	3.28328E-12	47.1478E-3	-4.32294E-3	3.10997E-12	23.1209E-3	-11.2416E-3
657.829E-6	3.25114E-12	48.6152E-3	-24.5112E-3	3.06095E-12	27.9785E-3	-16.2958E-3
652.826E-6	3.18786E-12	50.0064E-3	-33.6398E-3	3.06422E-12	33.8074E-3	-25.3597E-3
647.824E-6	3.12323E-12	45.8384E-3	-13.6945E-3	3.10732E-12	28.2309E-3	-25.7320E-3
642.821E-6	3.16164E-12	42.0822E-3	-3.34032E-3	3.14762E-12	26.0024E-3	-12.8106E-3
637.819E-6	3.12952E-12	43.9295E-3	-13.8355E-3	3.13816E-12	39.7860E-3	-5.86567E-3
632.816E-6	3.08284E-12	38.7748E-3	-20.5106E-3	3.10430E-12	50.6457E-3	-8.19719E-3
627.814E-6	3.04010E-12	23.2827E-3	-25.3832E-3	3.10228E-12	44.0918E-3	-6.92016E-3
622.811E-6	3.05544E-12	26.7462E-3	-23.8871E-3	3.13937E-12	33.0336E-3	-10.7769E-3
617.809E-6	3.06938E-12	45.0776E-3	-11.7860E-3	3.08522E-12	26.3421E-3	-15.1017E-3
612.806E-6	3.03784E-12	43.2022E-3	-6.31914E-3	2.99512E-12	33.3717E-3	-13.2954E-3
607.804E-6	3.01648E-12	37.2173E-3	-14.0498E-3	3.02875E-12	39.4559E-3	-18.9897E-3
602.801E-6	3.01042E-12	38.3805E-3	-15.4246E-3	3.00876E-12	36.2435E-3	-24.0438E-3
597.799E-6	3.01474E-12	40.3085E-3	-6.43917E-3	2.88094E-12	46.4699E-3	-16.6952E-3
592.796E-6	3.03964E-12	47.6306E-3	-12.2468E-3	2.77545E-12	56.7987E-3	-12.6532E-3
587.794E-6	2.92896E-12	51.9801E-3	-22.0967E-3	2.80635E-12	42.6667E-3	-10.5374E-3
582.791E-6	2.95740E-12	50.5270E-3	-12.9737E-3	2.85618E-12	24.8965E-3	2.74919E-3
577.789E-6	2.93585E-12	47.9396E-3	-1.33452E-3	2.75541E-12	34.4544E-3	-954.031E-6
572.786E-6	2.93789E-12	48.1818E-3	-9.38218E-3	2.69312E-12	54.1853E-3	-13.4899E-3
567.784E-6	2.83242E-12	51.3278E-3	-27.6271E-3	2.77842E-12	59.4708E-3	-5.01743E-3
562.781E-6	2.84953E-12	60.5177E-3	-39.9360E-3	2.76968E-12	60.4158E-3	-7.33296E-3
557.779E-6	2.85570E-12	72.5131E-3	-35.7500E-3	2.75099E-12	57.8324E-3	-24.0041E-3
552.776E-6	2.79276E-12	65.3294E-3	-15.7525E-3	2.79553E-12	54.3257E-3	-19.5930E-3
547.774E-6	2.77847E-12	53.1423E-3	-7.13450E-3	2.84150E-12	55.4344E-3	-8.78497E-3
542.771E-6	2.77394E-12	58.4825E-3	-16.2633E-3	2.80228E-12	59.0101E-3	-15.7605E-3
537.769E-6	2.72191E-12	60.2288E-3	-27.5935E-3	2.76440E-12	71.8776E-3	-25.6715E-3
532.766E-6	2.70045E-12	54.2568E-3	-35.7127E-3	2.75300E-12	73.8314E-3	-27.0323E-3
527.764E-6	2.68404E-12	49.2152E-3	-29.3689E-3	2.72487E-12	56.8078E-3	-26.0749E-3
522.761E-6	2.67988E-12	46.9799E-3	-7.59380E-3	2.68376E-12	54.5931E-3	-20.4924E-3
517.759E-6	2.65959E-12	62.3128E-3	1.00340E-3	2.65830E-12	63.4162E-3	-19.1011E-3
512.756E-6	2.58463E-12	75.1351E-3	-9.83962E-3	2.65388E-12	56.5390E-3	-29.0544E-3
507.754E-6	2.66858E-12	65.0361E-3	-22.7524E-3	2.60548E-12	51.0157E-3	-33.4687E-3
502.751E-6	2.65535E-12	60.5965E-3	-28.8264E-3	2.50809E-12	65.7969E-3	-23.2556E-3
497.749E-6	2.55887E-12	70.1166E-3	-24.9023E-3	2.47981E-12	69.4148E-3	-13.6052E-3
492.746E-6	2.44085E-12	75.3293E-3	-19.0116E-3	2.53783E-12	54.5023E-3	-16.8021E-3
487.744E-6	2.50279E-12	76.5389E-3	-26.8552E-3	2.51259E-12	60.3213E-3	-15.9321E-3
482.741E-6	2.46644E-12	70.9838E-3	-38.0624E-3	2.40775E-12	77.2016E-3	-12.9085E-3
477.739E-6	2.46897E-12	60.0905E-3	-25.1323E-3	2.37296E-12	78.9647E-3	-17.5590E-3
472.736E-6	2.36540E-12	58.1249E-3	-998.029E-6	2.45455E-12	76.2384E-3	-21.9817E-3
467.734E-6	2.34526E-12	65.1107E-3	-1.89545E-3	2.43356E-12	67.2014E-3	-24.6342E-3
462.731E-6	2.36794E-12	68.3621E-3	-26.2235E-3	2.30944E-12	60.1080E-3	-31.8467E-3
457.729E-6	2.29390E-12	59.7256E-3	-43.4770E-3	2.29614E-12	68.7224E-3	-36.7795E-3
452.726E-6	2.24734E-12	54.2375E-3	-41.7784E-3	2.29649E-12	75.0158E-3	-28.8881E-3
447.724E-6	2.33786E-12	65.5275E-3	-27.7964E-3	2.28837E-12	76.4356E-3	-16.7188E-3
442.721E-6	2.30285E-12	78.9240E-3	-30.6981E-3	2.21260E-12	83.0993E-3	-3.19149E-3
437.719E-6	2.24057E-12	81.1793E-3	-49.5481E-3	2.19351E-12	87.6109E-3	-742.667E-6
432.716E-6	2.17306E-12	72.8541E-3	-41.8607E-3	2.23626E-12	88.3999E-3	-15.6804E-3
427.714E-6	2.22741E-12	59.3695E-3	-22.0233E-3	2.20613E-12	95.8518E-3	-21.7902E-3
422.711E-6	2.15518E-12	60.5736E-3	-17.8138E-3	2.10136E-12	94.4986E-3	-14.3188E-3
417.709E-6	2.07851E-12	84.8006E-3	-18.7907E-3	2.09143E-12	80.2972E-3	-15.7705E-3
412.706E-6	2.10599E-12	103.106E-3	-24.4685E-3	2.05984E-12	73.2382E-3	-18.5865E-3
407.704E-6	2.07598E-12	95.0999E-3	-29.7298E-3	1.99242E-12	78.0966E-3	-17.0364E-3
402.701E-6	2.00590E-12	82.7842E-3	-14.3087E-3	1.97032E-12	84.5291E-3	-22.5575E-3
397.699E-6	1.93895E-12	83.1536E-3	7.38029E-3	1.98338E-12	87.2157E-3	-18.4821E-3
392.696E-6	1.96017E-12	96.1182E-3	7.96509E-3	1.98652E-12	93.8435E-3	-4.09142E-3
387.694E-6	1.92708E-12	108.084E-3	-2.25003E-3	1.96574E-12	99.1631E-3	-3.23836E-3
382.691E-6	1.85822E-12	99.5329E-3	-11.2958E-3	1.85915E-12	102.940E-3	-10.7750E-3
377.689E-6	1.83471E-12	78.3639E-3	-13.1545E-3	1.91221E-12	107.458E-3	-6.83444E-3
372.686E-6	1.77724E-12	67.5244E-3	-4.60153E-3	1.92115E-12	103.500E-3	3.61350E-3
367.684E-6	1.79536E-12	75.6251E-3	-366.586E-6	1.81316E-12	92.8928E-3	9.87585E-3
362.681E-6	1.70229E-12	82.4014E-3	-9.59446E-3	1.66504E-12	86.1311E-3	2.04980E-3
357.679E-6	1.67851E-12	83.4905E-3	-18.8244E-3	1.74674E-12	93.0710E-3	-13.7382E-3
352.676E-6	1.66355E-12	89.8683E-3	-14.5869E-3	1.75587E-12	105.653E-3	-10.0316E-3
347.674E-6	1.68194E-12	89.7350E-3	-3.80540E-3	1.63343E-12	104.096E-3	-118.757E-6
342.671E-6	1.61153E-12	90.0921E-3	-2.51457E-3	1.56011E-12	92.8745E-3	-15.9239E-3
337.669E-6	1.57222E-12	101.232E-3	-14.7586E-3	1.57921E-12	92.7799E-3	-31.7378E-3
332.666E-6	1.56584E-12	98.5945E-3	-25.3629E-3	1.54438E-12	100.563E-3	-20.6753E-3
327.664E-6	1.53508E-12	80.5789E-3	-28.7719E-3	1.50929E-12	96.1994E-3	-12.7430E-3
322.661E-6	1.46870E-12	79.2133E-3	-23.6085E-3	1.43734E-12	84.9653E-3	-18.2127E-3
317.659E-6	1.40708E-12	87.0906E-3	-22.7108E-3	1.46833E-12	88.8374E-3	-14.6210E-3
312.656E-6	1.43166E-12	90.8863E-3	-34.9926E-3	1.42547E-12	97.2907E-3	-7.54088E-3
307.654E-6	1.33262E-12	95.2510E-3	-35.6690E-3	1.39059E-12	98.3362E-3	-13.2538E-3
302.651E-6	1.27211E-12	86.3214E-3	-26.5245E-3	1.34826E-12	99.0953E-3	-22.8698E-3
297.649E-6	1.28091E-12	77.4823E-3	-19.9522E-3	1.35212E-12	95.9794E-3	-23.1418E-3
292.646E-6	1.29101E-12	85.0154E-3	-15.6309E-3	1.31728E-12	90.6346E-3	-18.8131E-3
287.644E-6	1.27554E-12	92.4994E-3	-13.9241E-3	1.26990E-12	76.8209E-3	-18.7431E-3
282.641E-6	1.21719E-12	87.5655E-3	-16.5725E-3	1.29329E-12	67.7062E-3	-18.5517E-3
277.639E-6	1.17468E-12	78.4913E-3	-23.7491E-3	1.23982E-12	80.9351E-3	-17.6690E-3
272.636E-6	1.15829E-12	84.5397E-3	-23.8116E-3	1.13570E-12	89.9700E-3	-22.0924E-3
267.634E-6	1.11641E-12	94.5907E-3	-16.1505E-3	1.11649E-12	79.8434E-3	-20.2731E-3
262.631E-6	1.12551E-12	100.037E-3	-10.6243E-3	1.13543E-12	68.0856E-3	-8.92306E-3
257.629E-6	1.11926E-12	107.747E-3	-14.4858E-3	1.16862E-12	71.9017E-3	-5.17499E-3
252.626E-6	1.14930E-12	104.359E-3	-13.1715E-3	980.676E-15	86.5063E-3	-3.96534E-3
247.624E-6	1.05614E-12	89.0813E-3	-5.59002E-3	939.695E-15	88.9284E-3	-3.78687E-3
242.621E-6	994.322E-15	82.8130E-3	-13.0268E-3	1.00749E-12	73.3803E-3	-18.9727E-3
237.619E-6	995.691E-15	90.8114E-3	-23.9016E-3	975.000E-15	68.8703E-3	-32.5119E-3
232.616E-6	950.664E-15	97.8002E-3	-26.4474E-3	877.962E-15	83.8132E-3	-23.0322E-3
227.614E-6	933.757E-15	102.938E-3	-19.4205E-3	814.111E-15	86.4540E-3	-8.03854E-3
222.611E-6	809.533E-15	103.928E-3	-7.43142E-3	908.192E-15	81.0815E-3	-10.5015E-3
217.609E-6	852.650E-15	92.6493E-3	-11.9438E-3	882.017E-15	81.1944E-3	-21.0166E-3
212.606E-6	815.253E-15	79.8726E-3	-24.4225E-3	774.299E-15	76.3425E-3	-19.7727E-3
207.604E-6	767.777E-15	77.5341E-3	-26.9125E-3	771.064E-15	76.4973E-3	-10.3303E-3
202.601E-6	697.760E-15	80.8540E-3	-23.1091E-3	801.642E-15	80.7207E-3	-15.9808E-3
197.599E-6	732.402E-15	84.7026E-3	-16.8956E-3	789.924E-15	74.2777E-3	-29.4891E-3
192.596E-6	679.947E-15	89.8059E-3	-19.0546E-3	714.345E-15	69.9866E-3	-25.1917E-3
187.594E-6	680.958E-15	86.3971E-3	-28.7670E-3	678.186E-15	81.5401E-3	-12.1951E-3
182.591E-6	668.246E-15	74.6349E-3	-26.1319E-3	696.880E-15	84.8909E-3	-4.34490E-3
177.589E-6	645.357E-15	73.6348E-3	-9.54123E-3	637.170E-15	70.2389E-3	1.43192E-3
172.586E-6	633.813E-15	84.8651E-3	-1.01526E-3	569.979E-15	67.8012E-3	-8.41221E-3
167.584E-6	534.587E-15	88.5316E-3	-5.72567E-3	550.901E-15	72.5449E-3	-28.5447E-3
162.581E-6	560.989E-15	75.8153E-3	-10.8893E-3	507.776E-15	72.8404E-3	-36.8504E-3
157.579E-6	535.826E-15	56.3695E-3	-13.0603E-3	489.343E-15	78.3349E-3	-37.2901E-3
152.576E-6	496.632E-15	44.4055E-3	-9.61765E-3	455.154E-15	75.8588E-3	-30.2475E-3
147.574E-6	495.080E-15	52.4985E-3	-5.54944E-3	495.525E-15	61.4315E-3	-14.7980E-3
142.571E-6	478.095E-15	76.1588E-3	-8.58174E-3	424.454E-15	53.5217E-3	1.31604E-3
137.569E-6	411.314E-15	82.6329E-3	-9.34604E-3	385.034E-15	54.0102E-3	7.59790E-3
132.566E-6	345.195E-15	63.6007E-3	-2.66267E-3	367.996E-15	61.1021E-3	-6.49909E-3
127.564E-6	332.683E-15	57.5193E-3	4.58413E-3	373.899E-15	68.7213E-3	-23.6286E-3
122.561E-6	317.232E-15	68.7771E-3	5.57600E-3	387.449E-15	66.5052E-3	-27.6832E-3
117.559E-6	335.683E-15	64.2988E-3	-8.06386E-3	309.289E-15	58.4075E-3	-25.3085E-3
112.556E-6	319.125E-15	45.8372E-3	-25.3412E-3	283.541E-15	54.7922E-3	-22.8151E-3
107.554E-6	254.654E-15	38.8696E-3	-26.0041E-3	293.211E-15	52.7563E-3	-22.3794E-3
102.551E-6	229.298E-15	48.1121E-3	-30.1418E-3	302.776E-15	48.0557E-3	-24.2752E-3
97.5488E-6	325.812E-15	54.9139E-3	-37.6068E-3	235.123E-15	48.5783E-3	-23.6896E-3
92.5463E-6	194.613E-15	55.0988E-3	-26.8439E-3	181.194E-15	50.5464E-3	-21.5238E-3
87.5438E-6	174.184E-15	57.9481E-3	-20.1095E-3	226.682E-15	59.5973E-3	-26.6690E-3
82.5413E-6	218.199E-15	58.7271E-3	-22.1117E-3	210.342E-15	73.4045E-3	-26.1713E-3
77.5388E-6	161.052E-15	55.7049E-3	-15.7289E-3	152.411E-15	63.2070E-3	-14.0947E-3
72.5363E-6	119.147E-15	55.4156E-3	-9.45216E-3	145.689E-15	41.9295E-3	-3.66722E-3
67.5338E-6	120.551E-15	63.0417E-3	-4.63202E-3	178.962E-15	44.7293E-3	-3.79750E-3
62.5313E-6	148.427E-15	69.0519E-3	-3.81166E-3	133.499E-15	57.3178E-3	-15.7586E-3
57.5288E-6	58.2778E-15	57.0164E-3	-8.52234E-3	91.1321E-15	58.8578E-3	-20.9135E-3
52.5263E-6	5.50850E-15	50.5930E-3	-9.24086E-3	30.2626E-15	55.1606E-3	-12.3102E-3
47.5238E-6	38.1013E-15	60.3260E-3	-12.5040E-3	28.3182E-15	51.2303E-3	-6.27527E-3
42.5213E-6	81.6281E-15	60.2562E-3	-24.0362E-3	27.8822E-15	49.5769E-3	-10.7760E-3
37.5188E-6	-12.4097E-15	50.0113E-3	-27.7748E-3	8.90031E-15	61.2947E-3	-17.5353E-3
32.5163E-6	-36.2831E-15	41.5107E-3	-19.6368E-3	-24.3377E-15	74.8784E-3	-17.2220E-3
27.5138E-6	-11.8865E-15	46.2794E-3	-15.0678E-3	-8.66038E-15	64.2401E-3	-15.2906E-3
22.5113E-6	-44.6537E-15	66.1943E-3	-16.7280E-3	-96.0191E-15	50.7482E-3	-17.4113E-3
17.5088E-6	-65.2923E-15	75.5072E-3	-22.5791E-3	-106.090E-15	55.7704E-3	-19.7466E-3
12.5063E-6	-172.348E-15	70.8979E-3	-36.5477E-3	-77.8830E-15	54.1189E-3	-19.6337E-3
7.50375E-6	-127.173E-15	68.5494E-3	-41.1280E-3	-129.806E-15	55.3709E-3	-14.8871E-3
2.50125E-6	-124.427E-15	73.3053E-3	-15.6961E-3	-190.737E-15	73.9041E-3	-14.6214E-3
-2.50125E-6	-187.764E-15	77.5438E-3	5.35602E-3	-182.558E-15	72.5096E-3	-27.3463E-3
-7.50375E-6	-205.385E-15	72.6099E-3	10.4107E-6	-179.088E-15	52.6655E-3	-30.1856E-3
-12.5063E-6	-231.064E-15	67.8291E-3	-12.7392E-3	-187.084E-15	43.9631E-3	-16.6770E-3
-17.5088E-6	-222.423E-15	61.7179E-3	-23.1040E-3	-298.359E-15	45.6693E-3	-9.60804E-3
-22.5113E-6	-283.292E-15	51.9284E-3	-24.5921E-3	-293.599E-15	46.8189E-3	-11.2434E-3
-27.5138E-6	-335.207E-15	50.3831E-3	-23.7293E-3	-271.861E-15	50.0678E-3	-14.5415E-3
-32.5163E-6	-300.478E-15	59.4254E-3	-21.2004E-3	-274.085E-15	59.5299E-3	-16.0633E-3
-37.5188E-6	-353.675E-15	67.2209E-3	-17.9372E-3	-307.366E-15	66.7230E-3	-18.0859E-3
-42.5213E-6	-348.975E-15	63.1230E-3	-17.1408E-3	-410.777E-15	72.3417E-3	-33.6417E-3
-47.5238E-6	-416.323E-15	56.4671E-3	-12.2646E-3	-356.290E-15	74.2285E-3	-36.0179E-3
-52.5263E-6	-396.277E-15	68.6973E-3	-15.1741E-3	-417.081E-15	71.2327E-3	-9.85862E-3
-57.5288E-6	-388.055E-15	89.4177E-3	-25.4930E-3	-436.883E-15	71.2301E-3	5.59725E-3
-62.5313E-6	-491.239E-15	92.6430E-3	-23.9037E-3	-516.351E-15	74.4888E-3	2.42759E-3
-67.5338E-6	-505.190E-15	85.9961E-3	-18.4306E-3	-484.011E-15	75.3425E-3	-7.35297E-3
-72.5363E-6	-500.517E-15	80.6697E-3	-15.2980E-3	-519.777E-15	64.8023E-3	-15.2490E-3
-77.5388E-6	-515.880E-15	75.8292E-3	-10.6536E-3	-552.013E-15	54.1335E-3	-14.9246E-3
-82.5413E-6	-635.047E-15	75.8385E-3	-18.2073E-3	-612.394E-15	68.1732E-3	-17.4253E-3
-87.5438E-6	-627.435E-15	77.0137E-3	-26.9485E-3	-592.287E-15	101.724E-3	-26.4912E-3
-92.5463E-6	-630.809E-15	72.0907E-3	-13.5963E-3	-621.323E-15	116.503E-3	-32.5521E-3
-97.5488E-6	-662.504E-15	74.6877E-3	-2.27905E-3	-687.668E-15	110.969E-3	-36.2712E-3
-102.551E-6	-745.381E-15	84.1509E-3	-10.1216E-3	-698.462E-15	115.152E-3	-38.8856E-3
-107.554E-6	-716.502E-15	86.6621E-3	-16.5536E-3	-728.308E-15	117.571E-3	-30.3123E-3
-112.556E-6	-735.859E-15	96.5285E-3	-15.0578E-3	-743.314E-15	101.121E-3	-15.6490E-3
-117.559E-6	-795.988E-15	103.512E-3	-21.3617E-3	-845.435E-15	90.2848E-3	-10.7653E-3
-122.561E-6	-847.623E-15	94.2079E-3	-30.0511E-3	-799.536E-15	101.375E-3	-16.3302E-3
-127.564E-6	-854.773E-15	88.6500E-3	-29.0601E-3	-878.045E-15	113.205E-3	-19.2253E-3
-132.566E-6	-868.201E-15	96.1180E-3	-23.4224E-3	-956.807E-15	114.388E-3	-14.2164E-3
-137.569E-6	-938.296E-15	106.443E-3	-19.3777E-3	-1.03281E-12	118.917E-3	-17.1710E-3
-142.571E-6	-969.920E-15	97.5779E-3	-25.7513E-3	-973.853E-15	125.687E-3	-28.2306E-3
-147.574E-6	-998.895E-15	85.2807E-3	-31.2523E-3	-1.00566E-12	119.452E-3	-26.4706E-3
-152.576E-6	-1.00799E-12	102.499E-3	-24.8056E-3	-1.09430E-12	109.373E-3	-14.5528E-3
-157.579E-6	-1.12403E-12	125.927E-3	-20.1148E-3	-1.16052E-12	104.116E-3	-11.5241E-3
-162.581E-6	-1.17022E-12	124.690E-3	-14.3190E-3	-1.12976E-12	106.259E-3	-6.77351E-3
-167.584E-6	-1.16484E-12	118.510E-3	-4.33872E-3	-1.18466E-12	113.893E-3	6.53755E-3
-172.586E-6	-1.20654E-12	121.354E-3	-3.22429E-3	-1.27374E-12	115.243E-3	8.80940E-3
-177.589E-6	-1.29108E-12	122.541E-3	-14.8584E-3	-1.30744E-12	109.654E-3	-9.24805E-3
-182.591E-6	-1.38625E-12	121.834E-3	-22.7487E-3	-1.32887E-12	115.530E-3	-27.3540E-3
-187.594E-6	-1.34830E-12	116.264E-3	-19.4617E-3	-1.35299E-12	142.746E-3	-30.6707E-3
-192.596E-6	-1.42417E-12	114.323E-3	-16.0844E-3	-1.39724E-12	161.724E-3	-21.0227E-3
-197.599E-6	-1.47829E-12	123.576E-3	-11.6193E-3	-1.49678E-12	152.438E-3	-13.6201E-3
-202.601E-6	-1.54266E-12	128.633E-3	-5.21164E-3	-1.51391E-12	141.322E-3	-19.3058E-3
-207.604E-6	-1.54045E-12	130.422E-3	-3.96449E-3	-1.55060E-12	144.474E-3	-22.7075E-3
-212.606E-6	-1.60620E-12	135.459E-3	-11.0490E-3	-1.62879E-12	159.260E-3	-20.0536E-3
-217.609E-6	-1.68809E-12	137.304E-3	-20.2861E-3	-1.68641E-12	165.127E-3	-15.8470E-3
-222.611E-6	-1.75738E-12	138.276E-3	-26.8823E-3	-1.72162E-12	154.953E-3	-12.2008E-3
-227.614E-6	-1.77054E-12	148.744E-3	-28.7754E-3	-1.78430E-12	152.576E-3	-12.2230E-3
-232.616E-6	-1.82761E-12	154.384E-3	-21.3069E-3	-1.86229E-12	160.007E-3	-15.8602E-3
-237.619E-6	-1.90283E-12	143.837E-3	-17.3166E-3	-1.86959E-12	167.384E-3	-15.2227E-3
-242.621E-6	-1.91667E-12	143.185E-3	-24.3277E-3	-1.89529E-12	169.503E-3	-4.44973E-3
-247.624E-6	-1.93374E-12	150.633E-3	-19.5868E-3	-2.01469E-12	163.706E-3	-1.04331E-3
-252.626E-6	-2.07489E-12	154.911E-3	-10.2898E-3	-2.01058E-12	153.322E-3	-13.1774E-3
-257.629E-6	-2.08535E-12	164.211E-3	-17.3508E-3	-1.99481E-12	146.219E-3	-22.6669E-3
-262.631E-6	-2.13907E-12	167.382E-3	-18.5680E-3	-2.05503E-12	151.886E-3	-21.3075E-3
-267.634E-6	-2.17575E-12	163.636E-3	-6.66113E-3	-2.18182E-12	160.460E-3	-22.1870E-3
-272.636E-6	-2.27926E-12	162.077E-3	-899.144E-6	-2.20791E-12	171.724E-3	-29.0372E-3
-277.639E-6	-2.31525E-12	156.306E-3	-3.61635E-3	-2.21050E-12	185.032E-3	-30.1062E-3
-282.641E-6	-2.32277E-12	151.315E-3	-7.35595E-3	-2.30683E-12	190.379E-3	-28.8424E-3
-287.644E-6	-2.36477E-12	159.023E-3	-9.81968E-3	-2.43946E-12	183.899E-3	-19.3595E-3
-292.646E-6	-2.46945E-12	168.719E-3	-11.7836E-3	-2.46572E-12	174.742E-3	-5.69804E-3
-297.649E-6	-2.50025E-12	165.060E-3	-12.0057E-3	-2.45501E-12	180.490E-3	-10.0916E-3
-302.651E-6	-2.50381E-12	158.810E-3	-15.7977E-3	-2.54345E-12	183.828E-3	-22.9518E-3
-307.654E-6	-2.61294E-12	161.353E-3	-26.4301E-3	-2.59666E-12	177.127E-3	-32.1322E-3
-312.656E-6	-2.71398E-12	161.586E-3	-29.1276E-3	-2.72806E-12	175.778E-3	-30.3776E-3
-317.659E-6	-2.77061E-12	157.144E-3	-17.6040E-3	-2.74609E-12	176.340E-3	-15.0698E-3
-322.661E-6	-2.76651E-12	155.906E-3	-9.35454E-3	-2.77232E-12	168.962E-3	-8.36801E-3
-327.664E-6	-2.82739E-12	162.032E-3	-10.6373E-3	-2.85551E-12	155.529E-3	-16.6230E-3
-332.666E-6	-2.95050E-12	169.872E-3	-8.44583E-3	-2.93029E-12	148.778E-3	-18.7179E-3
-337.669E-6	-2.94080E-12	168.812E-3	-5.81728E-3	-2.97059E-12	161.142E-3	-12.7888E-3
-342.671E-6	-2.98107E-12	162.481E-3	-7.61490E-3	-3.01662E-12	183.313E-3	-9.62939E-3
-347.674E-6	-3.00796E-12	168.736E-3	-10.4817E-3	-3.08842E-12	189.264E-3	-18.3091E-3
-352.676E-6	-3.13264E-12	176.499E-3	-18.9774E-3	-3.11309E-12	173.504E-3	-30.3778E-3
-357.679E-6	-3.20096E-12	169.527E-3	-25.5226E-3	-3.15996E-12	163.242E-3	-33.3320E-3
-362.681E-6	-3.18808E-12	162.590E-3	-24.0959E-3	-3.24107E-12	166.461E-3	-33.0288E-3
-367.684E-6	-3.27346E-12	168.933E-3	-19.5795E-3	-3.31166E-12	167.936E-3	-29.6592E-3
-372.686E-6	-3.35333E-12	176.823E-3	-16.4606E-3	-3.27961E-12	167.755E-3	-17.2222E-3
-377.689E-6	-3.40057E-12	172.304E-3	-22.2480E-3	-3.37598E-12	163.813E-3	-7.01403E-3
-382.691E-6	-3.46119E-12	164.296E-3	-29.8418E-3	-3.49927E-12	157.661E-3	-5.56604E-3
-387.694E-6	-3.51995E-12	162.429E-3	-25.0822E-3	-3.52694E-12	160.643E-3	-874.572E-6
-392.696E-6	-3.58616E-12	160.068E-3	-11.3560E-3	-3.54819E-12	163.299E-3	8.02250E-3
-397.699E-6	-3.60006E-12	150.920E-3	-5.95893E-3	-3.66149E-12	151.390E-3	10.4208E-3
-402.701E-6	-3.69900E-12	141.953E-3	-7.64275E-3	-3.65760E-12	148.997E-3	2.46541E-3
-407.704E-6	-3.81283E-12	137.872E-3	-4.46129E-3	-3.77037E-12	156.415E-3	-10.0496E-3
-412.706E-6	-3.82408E-12	143.875E-3	-4.83289E-3	-3.80331E-12	154.377E-3	-13.3819E-3
-417.709E-6	-3.87425E-12	152.524E-3	-15.3526E-3	-3.92047E-12	156.083E-3	-8.56116E-3
-422.711E-6	-3.96071E-12	159.638E-3	-25.5024E-3	-3.97697E-12	159.270E-3	-11.0607E-3
-427.714E-6	-4.03082E-12	168.960E-3	-25.3387E-3	-4.00623E-12	149.066E-3	-19.8288E-3
-432.716E-6	-4.11471E-12	165.564E-3	-11.1884E-3	-3.97958E-12	137.428E-3	-28.9504E-3
-437.719E-6	-4.03222E-12	150.305E-3	2.73506E-3	-4.10802E-12	140.059E-3	-33.4574E-3
-442.721E-6	-4.17036E-12	153.569E-3	7.71388E-3	-4.17965E-12	146.493E-3	-24.4953E-3
-447.724E-6	-4.28584E-12	170.995E-3	10.7573E-3	-4.15836E-12	146.879E-3	-12.6214E-3
-452.726E-6	-4.39050E-12	168.564E-3	4.93743E-3	-4.15269E-12	140.049E-3	-17.1974E-3
-457.729E-6	-4.33882E-12	151.194E-3	-18.9967E-3	-4.25460E-12	132.752E-3	-26.7666E-3
-462.731E-6	-4.40582E-12	142.684E-3	-36.1892E-3	-4.32399E-12	132.935E-3	-27.4032E-3
-467.734E-6	-4.42122E-12	142.034E-3	-30.7700E-3	-4.27749E-12	132.753E-3	-24.0791E-3
-472.736E-6	-4.56243E-12	134.990E-3	-27.8052E-3	-4.31609E-12	127.982E-3	-18.3965E-3
-477.739E-6	-4.60340E-12	130.858E-3	-24.3491E-3	-4.38901E-12	125.387E-3	-18.2017E-3
-482.741E-6	-4.54366E-12	136.457E-3	-15.6960E-3	-4.55660E-12	130.052E-3	-18.6850E-3
-487.744E-6	-4.62801E-12	134.882E-3	-20.9447E-3	-4.57807E-12	138.786E-3	-15.5905E-3
-492.746E-6	-4.65279E-12	132.497E-3	-38.4170E-3	-4.63114E-12	134.451E-3	-18.4510E-3
-497.749E-6	-4.66142E-12	133.844E-3	-36.6856E-3	-4.66182E-12	116.691E-3	-28.6146E-3
-502.751E-6	-4.73337E-12	126.401E-3	-17.0697E-3	-4.85769E-12	104.867E-3	-33.6504E-3
-507.754E-6	-4.76197E-12	121.389E-3	-12.0193E-3	-4.88812E-12	108.518E-3	-20.1026E-3
-512.756E-6	-4.72500E-12	125.482E-3	-12.2445E-3	-4.83436E-12	121.339E-3	-7.20449E-3
-517.759E-6	-4.75300E-12	116.566E-3	-15.6556E-3	-4.83301E-12	124.367E-3	-10.2116E-3
-522.761E-6	-4.93740E-12	99.0487E-3	-30.9820E-3	-4.89116E-12	113.291E-3	-16.0613E-3
-527.764E-6	-4.90521E-12	92.4899E-3	-34.1964E-3	-4.97839E-12	97.5293E-3	-11.0138E-3
-532.766E-6	-4.85299E-12	93.5630E-3	-15.1030E-3	-4.98310E-12	86.1941E-3	-2.10082E-3
-537.769E-6	-4.96622E-12	107.208E-3	-4.33415E-3	-4.95485E-12	89.5148E-3	-1.30386E-3
-542.771E-6	-5.07162E-12	114.580E-3	-9.54182E-3	-4.94865E-12	97.8805E-3	-10.6606E-3
-547.774E-6	-5.07512E-12	100.566E-3	-13.2512E-3	-4.99708E-12	88.0738E-3	-21.6788E-3
-552.776E-6	-5.02600E-12	87.8213E-3	-21.2828E-3	-5.08037E-12	70.2859E-3	-20.2521E-3
-557.779E-6	-5.07262E-12	87.0506E-3	-25.0676E-3	-5.03650E-12	69.8676E-3	-14.7194E-3
-562.781E-6	-5.11825E-12	98.7628E-3	-18.9297E-3	-5.04415E-12	92.0241E-3	-22.4321E-3
-567.784E-6	-5.19549E-12	103.519E-3	-12.8740E-3	-5.07026E-12	104.401E-3	-29.3037E-3
-572.786E-6	-5.10764E-12	97.1077E-3	-5.85355E-3	-5.21474E-12	89.8753E-3	-26.1505E-3
-577.789E-6	-5.16600E-12	101.940E-3	-1.56045E-3	-5.24124E-12	77.0215E-3	-22.0163E-3
-582.791E-6	-5.22336E-12	113.505E-3	-6.77531E-3	-5.13119E-12	75.2935E-3	-15.0118E-3
-587.794E-6	-5.24680E-12	106.101E-3	-13.2672E-3	-5.16247E-12	73.5397E-3	-13.1877E-3
-592.796E-6	-5.30447E-12	86.7966E-3	-8.40969E-3	-5.27711E-12	70.6252E-3	-15.4707E-3
-597.799E-6	-5.32014E-12	83.4216E-3	-5.79083E-3	-5.36618E-12	71.0773E-3	-10.0844E-3
-602.801E-6	-5.45586E-12	98.0860E-3	-18.5456E-3	-5.30324E-12	67.5772E-3	-8.60308E-3
-607.804E-6	-5.39211E-12	104.694E-3	-27.2171E-3	-5.30563E-12	56.3361E-3	-19.1759E-3
-612.806E-6	-5.36201E-12	91.4005E-3	-17.9430E-3	-5.48777E-12	60.0564E-3	-25.6085E-3
-617.809E-6	-5.43563E-12	82.3047E-3	-12.1562E-3	-5.57377E-12	73.1743E-3	-18.8015E-3
-622.811E-6	-5.55848E-12	77.7891E-3	-15.1025E-3	-5.46371E-12	71.8529E-3	-11.5467E-3
-627.814E-6	-5.57641E-12	60.0911E-3	-19.3036E-3	-5.43603E-12	59.5344E-3	-11.2704E-3
-632.816E-6	-5.48410E-12	42.8587E-3	-26.2997E-3	-5.54945E-12	52.7280E-3	-13.2601E-3
-637.819E-6	-5.48404E-12	40.2628E-3	-23.5216E-3	-5.71427E-12	59.6900E-3	-25.0279E-3
-642.821E-6	-5.66827E-12	46.9814E-3	-21.4880E-3	-5.67248E-12	64.9767E-3	-32.0394E-3
-647.824E-6	-5.65593E-12	54.7292E-3	-33.5158E-3	-5.58600E-12	60.4145E-3	-17.3910E-3
-652.826E-6	-5.50940E-12	58.3727E-3	-27.4028E-3	-5.65839E-12	53.5627E-3	-11.4555E-3
-657.829E-6	-5.55333E-12	60.7863E-3	-1.38837E-3	-5.76765E-12	48.0265E-3	-24.3451E-3
-662.831E-6	-5.61008E-12	63.5286E-3	6.30400E-3	-5.77805E-12	50.2229E-3	-31.2183E-3
-667.834E-6	-5.64989E-12	59.2842E-3	-4.63048E-3	-5.74919E-12	54.2458E-3	-24.6976E-3
-672.836E-6	-5.66044E-12	50.2618E-3	-16.7298E-3	-5.62387E-12	48.7237E-3	-15.4603E-3
-677.839E-6	-5.70409E-12	47.3152E-3	-16.8333E-3	-5.70908E-12	45.9390E-3	-11.8613E-3
-682.841E-6	-5.67709E-12	50.4879E-3	-8.25529E-3	-5.76656E-12	49.2445E-3	-18.3592E-3
-687.844E-6	-5.72313E-12	47.2220E-3	-8.35638E-3	-5.78195E-12	49.5287E-3	-25.7001E-3
-692.846E-6	-5.86497E-12	46.4668E-3	-17.6332E-3	-5.76575E-12	51.9993E-3	-18.9721E-3
-697.849E-6	-5.91726E-12	60.1283E-3	-16.0656E-3	-5.75605E-12	45.6352E-3	-7.51193E-3
-702.851E-6	-5.83059E-12	69.1144E-3	-13.9590E-3	-5.83435E-12	34.0767E-3	-10.5829E-3
-707.854E-6	-5.78641E-12	64.9287E-3	-29.7896E-3	-5.90073E-12	39.6780E-3	-21.3711E-3
-712.856E-6	-5.90875E-12	59.9605E-3	-32.1786E-3	-5.87020E-12	48.8204E-3	-22.5045E-3
-717.859E-6	-6.00539E-12	53.0160E-3	-14.6386E-3	-5.77663E-12	53.3678E-3	-10.9154E-3
-722.861E-6	-5.87204E-12	39.4372E-3	-17.6193E-3	-5.85695E-12	54.2080E-3	3.76399E-3
-727.864E-6	-5.79962E-12	33.5828E-3	-33.5009E-3	-6.01734E-12	42.0658E-3	267.316E-6
-732.866E-6	-5.85519E-12	39.1677E-3	-31.1860E-3	-6.13445E-12	34.0342E-3	-14.1630E-3
-737.869E-6	-5.95895E-12	47.2104E-3	-26.8865E-3	-5.94781E-12	37.0310E-3	-17.6417E-3
-742.871E-6	-5.90909E-12	45.5021E-3	-31.6253E-3	-5.96453E-12	37.2041E-3	-13.7987E-3
-747.874E-6	-5.83649E-12	39.3199E-3	-29.5263E-3	-6.13982E-12	39.4052E-3	-9.04914E-3
-752.876E-6	-5.83361E-12	40.7567E-3	-17.3362E-3	-6.20300E-12	43.0645E-3	-10.2651E-3
-757.879E-6	-6.02753E-12	55.5129E-3	-11.3204E-3	-6.15359E-12	39.9765E-3	-15.1818E-3
-762.881E-6	-6.05531E-12	83.2906E-3	-17.4444E-3	-6.11650E-12	44.7113E-3	-14.1689E-3
-767.884E-6	-5.95730E-12	90.7488E-3	-24.9044E-3	-6.14115E-12	61.8576E-3	-194.344E-6
-772.886E-6	-6.02346E-12	74.4893E-3	-35.0045E-3	-6.28677E-12	69.4059E-3	11.1729E-3
-777.889E-6	-6.10150E-12	60.7098E-3	-46.3295E-3	-6.33086E-12	66.4690E-3	-403.721E-6
-782.891E-6	-6.13368E-12	46.6869E-3	-47.8475E-3	-6.17768E-12	64.6785E-3	-19.8608E-3
-787.894E-6	-6.05115E-12	33.0744E-3	-33.9280E-3	-6.11825E-12	63.7001E-3	-23.8300E-3
-792.896E-6	-6.06102E-12	29.2629E-3	-17.0728E-3	-6.23295E-12	62.7500E-3	-12.8375E-3
-797.899E-6	-6.17502E-12	33.3914E-3	-16.0590E-3	-6.28348E-12	53.6128E-3	-10.6009E-3
-802.901E-6	-6.19604E-12	43.1979E-3	-23.7552E-3	-6.24828E-12	41.0716E-3	-17.8532E-3
-807.904E-6	-6.19208E-12	47.2070E-3	-27.6522E-3	-6.14837E-12	48.7591E-3	-25.1924E-3
-812.906E-6	-6.13926E-12	40.0147E-3	-30.7734E-3	-6.19131E-12	63.6633E-3	-32.2833E-3
-817.909E-6	-6.17707E-12	36.2624E-3	-31.2024E-3	-6.19684E-12	65.0653E-3	-30.5931E-3
-822.911E-6	-6.33082E-12	47.3114E-3	-25.9511E-3	-6.33020E-12	65.4307E-3	-26.0282E-3
-827.914E-6	-6.30377E-12	57.6083E-3	-27.0950E-3	-6.28862E-12	67.0704E-3	-27.1953E-3
-832.916E-6	-6.23725E-12	54.3178E-3	-35.1548E-3	-6.30876E-12	66.4615E-3	-18.8321E-3
-837.919E-6	-6.24972E-12	57.2125E-3	-34.2922E-3	-6.40755E-12	68.5808E-3	-1.84770E-3
-842.921E-6	-6.27544E-12	64.9258E-3	-29.1019E-3	-6.47003E-12	63.5726E-3	3.27085E-3
-847.924E-6	-6.39679E-12	61.0351E-3	-29.4921E-3	-6.48640E-12	61.2526E-3	-3.26247E-3
-852.926E-6	-6.42702E-12	54.1836E-3	-21.5736E-3	-6.41448E-12	72.2132E-3	-9.40214E-3
-857.929E-6	-6.28568E-12	47.5074E-3	-3.63211E-3	-6.53046E-12	76.0772E-3	-19.2525E-3
-862.931E-6	-6.27764E-12	44.6264E-3	1.52344E-3	-6.56936E-12	77.1829E-3	-26.8669E-3
-867.934E-6	-6.38461E-12	56.7143E-3	-2.83485E-3	-6.58169E-12	76.0517E-3	-10.4446E-3
-872.936E-6	-6.51319E-12	73.8231E-3	-492.292E-6	-6.49164E-12	64.6701E-3	8.33737E-3
-877.939E-6	-6.44698E-12	73.4756E-3	-10.8383E-3	-6.55315E-12	67.1614E-3	4.13547E-3
-882.941E-6	-6.36088E-12	65.3304E-3	-22.6231E-3	-6.64071E-12	85.4762E-3	-14.5723E-3
-887.944E-6	-6.52489E-12	69.9569E-3	-12.5048E-3	-6.62844E-12	97.9743E-3	-23.0259E-3
-892.946E-6	-6.59258E-12	78.4600E-3	-8.12765E-3	-6.50550E-12	102.835E-3	-15.1021E-3
-897.949E-6	-6.58277E-12	82.5811E-3	-18.6634E-3	-6.57846E-12	97.2933E-3	-10.3185E-3
-902.951E-6	-6.49898E-12	78.8655E-3	-24.2421E-3	-6.69669E-12	91.9714E-3	-12.9958E-3
-907.954E-6	-6.57794E-12	73.8409E-3	-21.1881E-3	-6.66310E-12	96.3599E-3	-17.0536E-3
-912.956E-6	-6.70722E-12	80.1901E-3	-19.2401E-3	-6.63514E-12	105.140E-3	-13.9865E-3
-917.959E-6	-6.74408E-12	91.4630E-3	-16.2726E-3	-6.64302E-12	119.907E-3	-9.43860E-3
-922.961E-6	-6.74895E-12	100.236E-3	-15.0025E-3	-6.81385E-12	124.644E-3	-8.77200E-3
-927.964E-6	-6.70928E-12	102.192E-3	-20.7652E-3	-6.85111E-12	114.827E-3	-7.77433E-3
-932.966E-6	-6.82589E-12	101.292E-3	-24.2843E-3	-6.76526E-12	112.784E-3	-16.9843E-3
-937.969E-6	-6.88624E-12	100.779E-3	-20.4929E-3	-6.82613E-12	115.216E-3	-24.6810E-3
-942.971E-6	-7.00076E-12	105.360E-3	-24.1074E-3	-6.97202E-12	118.689E-3	-12.1885E-3
-947.974E-6	-6.95574E-12	118.958E-3	-38.5477E-3	-7.06030E-12	119.342E-3	2.36296E-3
-952.976E-6	-6.94232E-12	122.108E-3	-40.3875E-3	-7.10099E-12	113.779E-3	-1.85566E-3
-957.979E-6	-7.02334E-12	107.592E-3	-33.4127E-3	-7.11069E-12	128.203E-3	-16.2558E-3
-962.981E-6	-7.10656E-12	108.418E-3	-27.1580E-3	-7.12723E-12	153.960E-3	-22.2399E-3
-967.984E-6	-7.14078E-12	126.511E-3	-23.2071E-3	-7.26152E-12	162.862E-3	-17.6353E-3
-972.986E-6	-7.16828E-12	137.678E-3	-33.0882E-3	-7.28028E-12	157.267E-3	-10.9719E-3
-977.989E-6	-7.09912E-12	141.683E-3	-37.6396E-3	-7.32396E-12	150.811E-3	-19.2332E-3
-982.991E-6	-7.20851E-12	138.806E-3	-17.8017E-3	-7.22359E-12	156.085E-3	-38.1222E-3
-987.994E-6	-7.28618E-12	145.609E-3	-1.97297E-3	-7.25380E-12	162.956E-3	-39.3647E-3
-992.997E-6	-7.34173E-12	162.566E-3	-3.52169E-3	-7.35955E-12	168.623E-3	-25.5696E-3
-997.999E-6	-7.29207E-12	167.403E-3	-14.3248E-3	-7.36049E-12	186.784E-3	-19.0358E-3
-1.00300E-3	-7.43952E-12	158.244E-3	-38.5971E-3	-7.40317E-12	202.124E-3	-16.9155E-3
-1.00800E-3	-7.53612E-12	151.952E-3	-46.7935E-3	-7.35891E-12	205.583E-3	-11.4869E-3
-1.01301E-3	-7.52879E-12	159.328E-3	-22.2162E-3	-7.51000E-12	209.116E-3	-18.8228E-3
-1.01801E-3	-7.63207E-12	169.883E-3	-4.36101E-3	-7.60652E-12	213.685E-3	-34.0625E-3
-1.02301E-3	-7.71090E-12	185.149E-3	-12.8682E-3	-7.63493E-12	208.508E-3	-26.5683E-3
-1.02801E-3	-7.96895E-12	204.221E-3	-24.9086E-3	-7.64887E-12	202.900E-3	-5.70266E-3
-1.03302E-3	-7.99685E-12	201.714E-3	-25.9212E-3	-7.83856E-12	214.887E-3	2.20012E-3
-1.03802E-3	-8.05248E-12	190.568E-3	-25.0882E-3	-7.96818E-12	222.907E-3	9.18172E-3
-1.04302E-3	-8.05500E-12	197.679E-3	-22.6865E-3	-7.97468E-12	231.237E-3	15.0937E-3
-1.04802E-3	-8.19957E-12	208.374E-3	-20.8132E-3	-7.98700E-12	247.371E-3	5.02308E-3
-1.05303E-3	-8.36066E-12	206.188E-3	-31.8050E-3	-8.06518E-12	246.834E-3	-7.95092E-3
-1.05803E-3	-8.36123E-12	208.674E-3	-35.5622E-3	-8.34754E-12	251.802E-3	-20.2109E-3
-1.06303E-3	-8.40421E-12	229.057E-3	-20.6457E-3	-8.37225E-12	277.281E-3	-26.3953E-3
-1.06803E-3	-8.54090E-12	244.916E-3	-11.2830E-3	-8.47875E-12	296.317E-3	-22.6579E-3
-1.07304E-3	-8.66281E-12	255.827E-3	-11.4210E-3	-8.56126E-12	302.020E-3	-21.2118E-3
-1.07804E-3	-8.61076E-12	263.982E-3	-14.1650E-3	-8.69092E-12	301.025E-3	-23.0176E-3
-1.08304E-3	-8.67705E-12	262.178E-3	-22.8795E-3	-8.71629E-12	300.043E-3	-25.2967E-3
-1.08804E-3	-8.82065E-12	267.574E-3	-21.3701E-3	-8.81025E-12	310.335E-3	-25.0515E-3
-1.09305E-3	-8.92594E-12	278.553E-3	-5.31536E-3	-9.00509E-12	325.966E-3	-13.5570E-3
-1.09805E-3	-8.93999E-12	292.374E-3	-2.26112E-3	-9.03386E-12	333.750E-3	992.920E-6
-1.10305E-3	-9.06876E-12	306.655E-3	-7.01693E-3	-9.16730E-12	341.023E-3	-9.31539E-3
-1.10805E-3	-9.19527E-12	315.862E-3	-3.70172E-3	-9.21712E-12	360.754E-3	-29.6742E-3
-1.11306E-3	-9.45677E-12	333.808E-3	-5.66499E-3	-9.45798E-12	387.609E-3	-31.2076E-3
-1.11806E-3	-9.43531E-12	354.167E-3	-15.7029E-3	-9.48214E-12	401.309E-3	-22.2143E-3
-1.12306E-3	-9.49526E-12	365.011E-3	-25.7460E-3	-9.59891E-12	401.557E-3	-13.6262E-3
-1.12806E-3	-9.76313E-12	365.018E-3	-34.2341E-3	-9.73439E-12	412.343E-3	-5.84211E-3
-1.13307E-3	-9.95206E-12	366.946E-3	-32.5745E-3	-9.87233E-12	431.789E-3	-7.77093E-3
-1.13807E-3	-10.1077E-12	384.469E-3	-16.5523E-3	-10.0068E-12	447.672E-3	-18.1068E-3
-1.14307E-3	-10.2039E-12	403.458E-3	-7.35267E-3	-10.1344E-12	462.036E-3	-21.1553E-3
-1.14807E-3	-10.3683E-12	416.478E-3	-14.6543E-3	-10.4030E-12	474.941E-3	-22.8710E-3
-1.15308E-3	-10.5017E-12	423.413E-3	-17.7931E-3	-10.4177E-12	482.673E-3	-27.9372E-3
-1.15808E-3	-10.7037E-12	427.521E-3	-12.6397E-3	-10.5571E-12	493.508E-3	-27.4499E-3
-1.16308E-3	-10.7929E-12	443.819E-3	-14.9722E-3	-10.6802E-12	518.705E-3	-19.9081E-3
-1.16808E-3	-10.9557E-12	472.455E-3	-20.8128E-3	-11.0213E-12	544.998E-3	-7.04609E-3
-1.17309E-3	-11.0713E-12	490.660E-3	-22.1975E-3	-11.1419E-12	552.737E-3	-910.008E-6
-1.17809E-3	-11.2716E-12	483.998E-3	-29.7208E-3	-11.2020E-12	557.265E-3	-11.3295E-3
-1.18309E-3	-11.3999E-12	480.103E-3	-34.0969E-3	-11.4466E-12	567.211E-3	-24.7253E-3
-1.18809E-3	-11.5206E-12	495.246E-3	-26.7268E-3	-11.6659E-12	574.254E-3	-28.4261E-3
-1.19310E-3	-11.7288E-12	512.711E-3	-32.9526E-3	-11.9986E-12	588.134E-3	-15.9765E-3
-1.19810E-3	-11.8556E-12	530.097E-3	-51.6136E-3	-11.9815E-12	613.766E-3	1.19992E-3
-1.20310E-3	-12.1124E-12	545.333E-3	-44.3155E-3	-12.2334E-12	640.610E-3	-4.76420E-3
-1.20810E-3	-12.2371E-12	562.040E-3	-13.8001E-3	-12.4801E-12	660.577E-3	-23.1122E-3
-1.21311E-3	-12.5211E-12	585.644E-3	630.894E-6	-12.8209E-12	678.722E-3	-22.8943E-3
-1.21811E-3	-12.7447E-12	609.844E-3	-77.9158E-6	-12.8181E-12	692.116E-3	-10.7071E-3
-1.22311E-3	-12.9540E-12	628.409E-3	-9.26811E-3	-13.0309E-12	697.941E-3	-12.2498E-3
-1.22811E-3	-13.1870E-12	644.121E-3	-18.0523E-3	-13.3639E-12	710.428E-3	-28.6148E-3
-1.23312E-3	-13.4244E-12	656.212E-3	-986.607E-6	-13.5271E-12	728.250E-3	-39.1688E-3
-1.23812E-3	-13.8581E-12	660.891E-3	6.26884E-3	-13.6883E-12	741.088E-3	-35.6626E-3
-1.24312E-3	-13.9963E-12	685.119E-3	-21.4379E-3	-13.9276E-12	750.319E-3	-28.8155E-3
-1.24812E-3	-14.3153E-12	725.986E-3	-37.3042E-3	-14.2853E-12	766.730E-3	-24.8140E-3
-1.25313E-3	-14.5515E-12	746.026E-3	-26.3480E-3	-14.3556E-12	791.599E-3	-16.0360E-3
-1.25813E-3	-14.9920E-12	765.323E-3	-20.6746E-3	-14.5078E-12	811.178E-3	-883.641E-6
-1.26313E-3	-15.3113E-12	794.044E-3	-19.4820E-3	-14.7961E-12	833.881E-3	-937.396E-6
-1.26813E-3	-15.4019E-12	812.006E-3	-15.4772E-3	-15.1982E-12	865.403E-3	-15.1325E-3
-1.27314E-3	-15.7464E-12	822.708E-3	-22.3292E-3	-15.4502E-12	884.961E-3	-21.3752E-3
-1.27814E-3	-15.9199E-12	834.341E-3	-21.3886E-3	-15.6664E-12	886.428E-3	-26.3071E-3
-1.28314E-3	-16.5355E-12	842.848E-3	-14.5246E-3	-16.1621E-12	896.857E-3	-23.7560E-3
-1.28814E-3	-16.5789E-12	856.918E-3	-18.0691E-3	-16.3813E-12	932.134E-3	-7.11339E-3
-1.29315E-3	-16.6779E-12	886.167E-3	-17.1216E-3	-16.7190E-12	962.384E-3	-1.94398E-3
-1.29815E-3	-17.1303E-12	896.152E-3	-12.4438E-3	-17.0560E-12	960.630E-3	-11.7165E-3
-1.30315E-3	-17.4951E-12	890.436E-3	-13.2093E-3	-17.5966E-12	956.889E-3	-18.8582E-3
-1.30815E-3	-17.9646E-12	915.674E-3	-8.16894E-3	-17.9064E-12	972.026E-3	-24.6146E-3
-1.31316E-3	-18.0513E-12	954.350E-3	8.64122E-3	-18.0337E-12	992.663E-3	-23.3078E-3
-1.31816E-3	-18.4149E-12	976.772E-3	14.5460E-3	-18.3280E-12	1.01144E+0	-11.5172E-3
-1.32316E-3	-18.7375E-12	991.900E-3	3.33864E-3	-18.7915E-12	1.02184E+0	-11.0779E-3
-1.32816E-3	-19.1794E-12	1.00899E+0	-4.89913E-3	-19.0393E-12	1.03047E+0	-19.7558E-3
-1.33317E-3	-19.5698E-12	1.02345E+0	-9.17130E-3	-19.0673E-12	1.04473E+0	-20.9487E-3
-1.33817E-3	-19.8447E-12	1.03795E+0	-10.5731E-3	-19.3617E-12	1.06035E+0	-15.6100E-3
-1.34317E-3	-20.1368E-12	1.05172E+0	-10.8994E-3	-19.8145E-12	1.07976E+0	-10.2219E-3
-1.34817E-3	-20.3646E-12	1.05541E+0	-15.0724E-3	-20.1556E-12	1.09716E+0	-12.6071E-3
-1.35318E-3	-20.7645E-12	1.05515E+0	-12.9841E-3	-20.2703E-12	1.10494E+0	-20.8762E-3
-1.35818E-3	-21.0667E-12	1.06104E+0	-11.3236E-3	-20.7049E-12	1.11409E+0	-27.5665E-3
-1.36318E-3	-21.4947E-12	1.06928E+0	-23.5355E-3	-21.4234E-12	1.12915E+0	-27.8889E-3
-1.36818E-3	-21.8413E-12	1.08300E+0	-32.3693E-3	-21.8949E-12	1.14514E+0	-26.7777E-3
-1.37319E-3	-22.4369E-12	1.10739E+0	-26.5894E-3	-22.2333E-12	1.15746E+0	-29.6421E-3
-1.37819E-3	-22.6294E-12	1.12091E+0	-19.7042E-3	-22.7688E-12	1.16250E+0	-27.0777E-3
-1.38319E-3	-22.7932E-12	1.11495E+0	-20.3434E-3	-23.2912E-12	1.16991E+0	-16.3083E-3
-1.38819E-3	-23.1357E-12	1.11470E+0	-14.4673E-3	-23.5099E-12	1.18186E+0	-16.0349E-3
-1.39320E-3	-23.6882E-12	1.12961E+0	-4.61204E-3	-23.8306E-12	1.18839E+0	-21.5828E-3
-1.39820E-3	-24.1440E-12	1.15130E+0	-21.4004E-3	-24.1013E-12	1.18121E+0	-16.5116E-3
-1.40320E-3	-24.2669E-12	1.17254E+0	-37.1253E-3	-24.7054E-12	1.17506E+0	-7.76817E-3
-1.40820E-3	-24.4684E-12	1.18010E+0	-28.5129E-3	-25.1012E-12	1.18031E+0	-5.89906E-3
-1.41321E-3	-24.9079E-12	1.17819E+0	-23.4466E-3	-25.1973E-12	1.18602E+0	-9.25639E-3
-1.41821E-3	-25.5183E-12	1.18124E+0	-22.9899E-3	-25.5727E-12	1.19495E+0	-10.6536E-3
-1.42321E-3	-26.0184E-12	1.18839E+0	-23.9724E-3	-26.0656E-12	1.20677E+0	-12.4049E-3
-1.42821E-3	-25.9308E-12	1.19931E+0	-32.3242E-3	-26.3617E-12	1.21901E+0	-16.4544E-3
-1.43322E-3	-26.4377E-12	1.20514E+0	-28.9998E-3	-26.4436E-12	1.22347E+0	-22.6188E-3
-1.43822E-3	-27.0203E-12	1.19760E+0	-17.2601E-3	-27.0314E-12	1.21422E+0	-24.9251E-3
-1.44322E-3	-27.4849E-12	1.19793E+0	-20.4651E-3	-27.5336E-12	1.20160E+0	-18.7504E-3
-1.44822E-3	-27.6022E-12	1.21066E+0	-26.3974E-3	-27.6384E-12	1.20559E+0	-17.6572E-3
-1.45323E-3	-28.1895E-12	1.21083E+0	-20.1402E-3	-27.8779E-12	1.22958E+0	-23.7339E-3
-1.45823E-3	-28.7060E-12	1.20471E+0	-12.0387E-3	-28.5990E-12	1.24715E+0	-15.5301E-3
-1.46323E-3	-29.2612E-12	1.22217E+0	-14.9516E-3	-29.4156E-12	1.24989E+0	6.35843E-3
-1.46823E-3	-29.6462E-12	1.23953E+0	-11.9893E-3	-29.6819E-12	1.24756E+0	10.7508E-3
-1.47324E-3	-29.7431E-12	1.23462E+0	-4.85566E-3	-30.0434E-12	1.25097E+0	-7.98832E-3
-1.47824E-3	-30.3530E-12	1.22284E+0	-14.5654E-3	-30.4340E-12	1.25801E+0	-15.2944E-3
-1.48324E-3	-30.7389E-12	1.21166E+0	-20.2232E-3	-31.0293E-12	1.24299E+0	-12.4149E-3
-1.48824E-3	-31.2239E-12	1.21389E+0	-9.18572E-3	-31.4315E-12	1.22925E+0	-8.39410E-3
-1.49325E-3	-31.6125E-12	1.23353E+0	-10.1561E-3	-31.6476E-12	1.24194E+0	-3.63093E-3
-1.49825E-3	-32.1270E-12	1.24763E+0	-14.5031E-3	-31.9337E-12	1.24311E+0	-1.28868E-3
-1.50325E-3	-32.8445E-12	1.24510E+0	-8.09342E-3	-32.1925E-12	1.22010E+0	-1.39137E-3
-1.50825E-3	-33.0701E-12	1.24781E+0	-11.8986E-3	-32.5951E-12	1.21291E+0	-13.3235E-3
-1.51326E-3	-33.5181E-12	1.26072E+0	-15.2006E-3	-33.1357E-12	1.21622E+0	-29.9154E-3
-1.51826E-3	-34.0228E-12	1.26947E+0	-13.9168E-3	-33.7169E-12	1.20301E+0	-31.2667E-3
-1.52326E-3	-34.4687E-12	1.27041E+0	-21.5368E-3	-33.9695E-12	1.20829E+0	-18.9926E-3
-1.52826E-3	-34.8530E-12	1.26143E+0	-18.9935E-3	-34.0850E-12	1.23907E+0	-20.1890E-3
-1.53327E-3	-35.0493E-12	1.24260E+0	-2.69627E-3	-34.6566E-12	1.24612E+0	-29.4820E-3
-1.53827E-3	-35.6851E-12	1.22797E+0	-1.33329E-3	-35.3207E-12	1.21927E+0	-26.4366E-3
-1.54327E-3	-36.0393E-12	1.22946E+0	-9.60646E-3	-35.8342E-12	1.19541E+0	-18.7601E-3
-1.54827E-3	-36.5176E-12	1.22743E+0	-13.1017E-3	-36.2296E-12	1.19143E+0	-11.9959E-3
-1.55328E-3	-36.3136E-12	1.21251E+0	-14.6736E-3	-36.5419E-12	1.20320E+0	-9.69859E-3
-1.55828E-3	-37.0422E-12	1.20110E+0	-8.21813E-3	-37.0161E-12	1.20476E+0	-9.59397E-3
-1.56328E-3	-37.4626E-12	1.20295E+0	-3.90363E-3	-37.4019E-12	1.18959E+0	-5.27352E-3
-1.56828E-3	-37.8571E-12	1.21339E+0	-15.9000E-3	-38.1429E-12	1.18226E+0	1.53700E-3
-1.57329E-3	-38.0148E-12	1.22498E+0	-26.5176E-3	-38.3264E-12	1.17590E+0	12.5202E-3
-1.57829E-3	-38.5249E-12	1.21794E+0	-17.1789E-3	-38.6230E-12	1.15880E+0	19.1458E-3
-1.58329E-3	-38.9690E-12	1.19904E+0	-13.0712E-3	-38.6280E-12	1.14453E+0	10.1399E-3
-1.58829E-3	-39.3732E-12	1.20464E+0	-23.2699E-3	-39.1495E-12	1.14277E+0	-8.28713E-3
-1.59330E-3	-39.8705E-12	1.20770E+0	-20.4028E-3	-39.6117E-12	1.14702E+0	-23.1964E-3
-1.59830E-3	-40.2173E-12	1.18388E+0	-15.4574E-3	-39.9383E-12	1.14722E+0	-27.5137E-3
-1.60330E-3	-40.6125E-12	1.16761E+0	-18.4155E-3	-40.0104E-12	1.14047E+0	-28.0035E-3
-1.60830E-3	-41.1060E-12	1.17181E+0	-16.2756E-3	-40.6420E-12	1.13498E+0	-28.0909E-3
-1.61331E-3	-41.8188E-12	1.17452E+0	-12.3487E-3	-41.3397E-12	1.13319E+0	-18.1203E-3
-1.61831E-3	-41.5615E-12	1.17520E+0	-4.38453E-3	-41.5682E-12	1.14235E+0	-8.68782E-3
-1.62331E-3	-41.7549E-12	1.18058E+0	2.90783E-3	-41.5355E-12	1.14209E+0	-2.84323E-3
-1.62831E-3	-42.2183E-12	1.16367E+0	-9.61183E-3	-42.3397E-12	1.11683E+0	-5.31156E-3
-1.63332E-3	-43.0275E-12	1.13981E+0	-22.7726E-3	-43.3620E-12	1.10062E+0	-16.5325E-3
-1.63832E-3	-43.5548E-12	1.13898E+0	-8.45922E-3	-43.2038E-12	1.10189E+0	-17.6643E-3
-1.64332E-3	-43.2605E-12	1.13831E+0	7.25160E-3	-43.1078E-12	1.10030E+0	-8.62032E-3
-1.64832E-3	-43.5590E-12	1.13514E+0	-1.86654E-3	-43.9399E-12	1.08868E+0	-2.91967E-3
-1.65333E-3	-44.0181E-12	1.13315E+0	-11.4712E-3	-45.1036E-12	1.07225E+0	-8.31047E-3
-1.65833E-3	-44.6670E-12	1.11614E+0	-7.05804E-3	-45.3029E-12	1.07077E+0	-18.1369E-3
-1.66333E-3	-44.8132E-12	1.10354E+0	-6.75446E-3	-44.7737E-12	1.08126E+0	-25.2401E-3
-1.66833E-3	-45.1751E-12	1.10162E+0	-5.71444E-3	-45.1303E-12	1.08218E+0	-24.4724E-3
-1.67334E-3	-45.4518E-12	1.09328E+0	-2.84244E-3	-45.9625E-12	1.07454E+0	-10.9178E-3
-1.67834E-3	-45.9414E-12	1.08058E+0	-19.1683E-3	-46.4249E-12	1.06373E+0	1.86795E-3
-1.68334E-3	-46.5170E-12	1.06579E+0	-24.4641E-3	-45.9069E-12	1.05035E+0	-4.63397E-3
-1.68834E-3	-46.6483E-12	1.05566E+0	2.81423E-3	-46.1157E-12	1.03535E+0	-21.0179E-3
-1.69335E-3	-46.9552E-12	1.06155E+0	8.72993E-3	-46.7582E-12	1.03006E+0	-20.7846E-3
-1.69835E-3	-46.6943E-12	1.06237E+0	-11.9944E-3	-47.2696E-12	1.03615E+0	-4.03571E-3
-1.70335E-3	-47.5769E-12	1.03980E+0	-17.6526E-3	-47.5496E-12	1.04081E+0	-4.78824E-3
-1.70835E-3	-47.9454E-12	1.02508E+0	-14.1325E-3	-47.6760E-12	1.03654E+0	-16.7363E-3
-1.71336E-3	-48.2909E-12	1.03093E+0	-6.74119E-3	-48.4147E-12	1.02711E+0	-25.6058E-3
-1.71836E-3	-48.3387E-12	1.03049E+0	319.153E-6	-48.7743E-12	1.01604E+0	-24.9576E-3
-1.72336E-3	-48.7401E-12	1.01597E+0	-13.9589E-3	-49.5747E-12	1.00571E+0	-11.3494E-3
-1.72836E-3	-49.3806E-12	995.117E-3	-30.1203E-3	-49.8755E-12	1.00310E+0	-5.48373E-3
-1.73337E-3	-49.9135E-12	977.711E-3	-23.5125E-3	-50.3548E-12	1.00551E+0	-5.54765E-3
-1.73837E-3	-50.0645E-12	981.089E-3	-16.9765E-3	-50.3983E-12	1.00430E+0	-3.86155E-3
-1.74337E-3	-50.2062E-12	1.00417E+0	-28.3789E-3	-50.8197E-12	996.441E-3	-8.14392E-3
-1.74837E-3	-50.5951E-12	1.02037E+0	-34.5405E-3	-51.3769E-12	989.343E-3	-22.7909E-3
-1.75338E-3	-51.7056E-12	1.01024E+0	-34.5392E-3	-51.1763E-12	990.324E-3	-26.5392E-3
-1.75838E-3	-52.2735E-12	998.383E-3	-35.0926E-3	-51.7209E-12	989.925E-3	-19.4894E-3
-1.76338E-3	-52.1464E-12	998.788E-3	-16.4484E-3	-51.7525E-12	980.963E-3	-22.7777E-3
-1.76838E-3	-52.4091E-12	994.979E-3	3.33282E-3	-52.6304E-12	978.453E-3	-20.1105E-3
-1.77339E-3	-52.7326E-12	984.519E-3	1.81061E-3	-52.6921E-12	980.182E-3	-6.55401E-3
-1.77839E-3	-52.9604E-12	983.804E-3	-12.1014E-3	-53.0576E-12	974.277E-3	-3.24377E-3
-1.78339E-3	-53.4055E-12	981.737E-3	-24.0694E-3	-53.4051E-12	968.299E-3	-12.9387E-3
-1.78839E-3	-53.3799E-12	970.524E-3	-25.1232E-3	-54.0643E-12	973.028E-3	-20.3327E-3
-1.79340E-3	-53.2985E-12	976.626E-3	-25.0063E-3	-54.2312E-12	972.776E-3	-17.4238E-3
-1.79840E-3	-53.5758E-12	974.437E-3	-26.1906E-3	-54.3330E-12	960.225E-3	-15.0831E-3
-1.80340E-3	-54.0196E-12	949.977E-3	-23.6189E-3	-54.9634E-12	948.241E-3	-16.2057E-3
-1.80840E-3	-54.5381E-12	944.696E-3	-19.5189E-3	-55.1717E-12	941.693E-3	-18.2109E-3
-1.81341E-3	-54.6202E-12	949.699E-3	-7.52610E-3	-55.7060E-12	950.141E-3	-25.3339E-3
-1.81841E-3	-54.6741E-12	941.220E-3	8.44128E-3	-55.9884E-12	954.627E-3	-19.9448E-3
-1.82341E-3	-55.3751E-12	932.474E-3	5.66641E-3	-56.1381E-12	942.979E-3	-4.82526E-3
-1.82841E-3	-55.9001E-12	917.777E-3	-5.33142E-3	-56.8699E-12	926.790E-3	-6.05267E-3
-1.83342E-3	-56.1545E-12	905.153E-3	-7.60797E-3	-56.6405E-12	912.956E-3	-15.5114E-3
-1.83842E-3	-55.9628E-12	918.098E-3	-14.0012E-3	-56.5366E-12	904.692E-3	-27.4136E-3
-1.84342E-3	-56.9045E-12	928.027E-3	-17.5693E-3	-56.7359E-12	894.427E-3	-34.0961E-3
-1.84842E-3	-57.6618E-12	916.910E-3	-22.3139E-3	-57.4232E-12	891.583E-3	-21.0767E-3
-1.85343E-3	-58.0982E-12	917.322E-3	-29.2028E-3	-56.6863E-12	899.527E-3	-9.05389E-3
-1.85843E-3	-58.0266E-12	924.858E-3	-9.88470E-3	-57.0122E-12	903.487E-3	-22.1567E-3
-1.86343E-3	-58.4729E-12	921.867E-3	10.1242E-3	-57.5226E-12	900.621E-3	-37.7594E-3
-1.86843E-3	-58.7813E-12	916.581E-3	-1.34053E-3	-58.1314E-12	893.521E-3	-26.5557E-3
-1.87344E-3	-59.3926E-12	911.506E-3	-18.1399E-3	-58.8242E-12	885.127E-3	-10.7935E-3
-1.87844E-3	-59.8449E-12	915.507E-3	-16.1322E-3	-58.6344E-12	872.592E-3	-16.3114E-3
-1.88344E-3	-59.3220E-12	920.632E-3	-7.60822E-3	-59.2803E-12	868.210E-3	-25.7561E-3
-1.88844E-3	-59.5738E-12	921.782E-3	-18.9417E-3	-59.9543E-12	883.504E-3	-27.0034E-3
-1.89345E-3	-60.1150E-12	913.831E-3	-33.0398E-3	-60.7573E-12	895.808E-3	-25.5249E-3
-1.89845E-3	-60.6767E-12	893.444E-3	-32.1827E-3	-61.1184E-12	892.025E-3	-24.6843E-3
-1.90345E-3	-60.5380E-12	884.538E-3	-26.1165E-3	-61.6153E-12	880.976E-3	-15.6578E-3
-1.90845E-3	-60.5670E-12	882.517E-3	-10.9268E-3	-62.3327E-12	870.775E-3	-1.59669E-3
-1.91346E-3	-61.0375E-12	875.304E-3	-6.31954E-3	-62.6826E-12	871.381E-3	-13.1101E-3
-1.91846E-3	-61.5254E-12	865.726E-3	-23.6223E-3	-63.0926E-12	880.222E-3	-39.2042E-3
-1.92346E-3	-62.5077E-12	853.971E-3	-40.5354E-3	-62.7496E-12	879.550E-3	-40.6947E-3
-1.92846E-3	-62.7750E-12	862.980E-3	-49.6259E-3	-63.0171E-12	866.367E-3	-23.4532E-3
-1.93347E-3	-62.2529E-12	894.476E-3	-44.4938E-3	-63.4341E-12	851.145E-3	-20.8662E-3
-1.93847E-3	-62.4564E-12	898.707E-3	-14.2493E-3	-63.7320E-12	850.354E-3	-25.6093E-3
-1.94347E-3	-63.2521E-12	875.816E-3	4.42682E-3	-62.8640E-12	860.281E-3	-25.4843E-3
-1.94847E-3	-64.0049E-12	860.977E-3	-3.88491E-3	-62.3874E-12	854.639E-3	-30.1051E-3
-1.95348E-3	-64.2467E-12	854.122E-3	-1.66445E-3	-63.0225E-12	834.340E-3	-26.4020E-3
-1.95848E-3	-64.3606E-12	854.622E-3	7.77284E-3	-63.8349E-12	828.780E-3	-8.42645E-3
-1.96348E-3	-65.0557E-12	863.092E-3	1.36823E-3	-63.7912E-12	849.116E-3	-6.04717E-3
-1.96848E-3	-65.6342E-12	860.650E-3	-19.6011E-3	-63.3800E-12	858.899E-3	-18.6858E-3
-1.97349E-3	-65.5834E-12	845.730E-3	-27.9833E-3	-63.8856E-12	844.668E-3	-15.5253E-3
-1.97849E-3	-65.3137E-12	849.489E-3	-20.2992E-3	-65.6080E-12	842.735E-3	-9.91249E-3
-1.98349E-3	-66.0146E-12	861.812E-3	-20.3164E-3	-66.2014E-12	845.759E-3	-18.2914E-3
-1.98849E-3	-66.0134E-12	856.297E-3	-21.3428E-3	-65.7776E-12	839.084E-3	-26.6709E-3
-1.99350E-3	-65.9961E-12	857.385E-3	-19.8106E-3	-66.0208E-12	837.481E-3	-38.8255E-3
-1.99850E-3	-66.0678E-12	864.709E-3	-25.8362E-3	-67.4255E-12	838.809E-3	-48.3017E-3
-2.00350E-3	-66.1794E-12	853.294E-3	-32.7907E-3	-68.1205E-12	839.596E-3	-25.3958E-3
-2.00850E-3	-66.4591E-12	839.023E-3	-28.1394E-3	-67.9537E-12	844.478E-3	-408.770E-6
-2.01351E-3	-66.8646E-12	832.921E-3	-8.01034E-3	-67.1106E-12	855.265E-3	2.24894E-3
-2.01851E-3	-66.8113E-12	836.193E-3	7.38308E-3	-67.5205E-12	854.549E-3	6.51430E-3
-2.02351E-3	-66.4108E-12	841.331E-3	-9.12999E-3	-68.4152E-12	834.282E-3	9.23408E-3
-2.02851E-3	-66.6896E-12	831.297E-3	-21.4726E-3	-68.4833E-12	811.926E-3	417.734E-6
-2.03352E-3	-67.5174E-12	817.343E-3	-6.78856E-3	-67.4350E-12	798.365E-3	-11.4541E-3
-2.03852E-3	-67.3512E-12	820.733E-3	-7.13627E-3	-67.0560E-12	799.405E-3	-15.0453E-3
-2.04352E-3	-67.5805E-12	828.198E-3	-26.3692E-3	-67.6370E-12	805.448E-3	-16.8128E-3
-2.04852E-3	-66.9300E-12	814.391E-3	-31.4984E-3	-67.8975E-12	816.884E-3	-22.3920E-3
-2.05353E-3	-67.7642E-12	804.427E-3	-12.3099E-3	-68.0014E-12	833.013E-3	-20.3438E-3
-2.05853E-3	-69.4183E-12	812.153E-3	10.3771E-3	-68.0155E-12	830.424E-3	-24.7416E-3
-2.06353E-3	-69.1538E-12	809.505E-3	13.3434E-3	-68.9836E-12	817.203E-3	-34.1122E-3
-2.06853E-3	-68.6723E-12	801.470E-3	-4.03998E-3	-69.5325E-12	812.827E-3	-34.5438E-3
-2.07354E-3	-69.4117E-12	799.610E-3	-17.6732E-3	-70.3146E-12	810.982E-3	-25.5214E-3
-2.07854E-3	-70.9979E-12	782.346E-3	-11.5477E-3	-70.3140E-12	799.761E-3	-4.10071E-3
-2.08354E-3	-71.3088E-12	758.240E-3	-8.27767E-3	-71.1265E-12	796.694E-3	3.66329E-3
-2.08854E-3	-70.6985E-12	777.374E-3	-13.2966E-3	-71.7097E-12	811.448E-3	-6.31669E-3
-2.09355E-3	-71.2987E-12	816.987E-3	-9.80273E-3	-71.6214E-12	818.273E-3	-18.4265E-3
-2.09855E-3	-72.2623E-12	812.382E-3	-317.191E-6	-71.9859E-12	811.501E-3	-22.7359E-3
-2.10355E-3	-72.9376E-12	794.251E-3	3.11728E-3	-71.6901E-12	806.743E-3	-10.6085E-3
-2.10855E-3	-72.5775E-12	804.491E-3	-2.70786E-3	-73.0634E-12	795.378E-3	-7.24801E-3
-2.11356E-3	-72.5738E-12	809.104E-3	-11.9208E-3	-72.6755E-12	779.229E-3	-15.8496E-3
-2.11856E-3	-72.3142E-12	805.197E-3	-21.1447E-3	-72.5899E-12	786.631E-3	-28.1453E-3
-2.12356E-3	-73.2860E-12	814.411E-3	-27.4326E-3	-72.0697E-12	803.427E-3	-39.9008E-3
-2.12856E-3	-73.0576E-12	811.752E-3	-19.2008E-3	-72.3716E-12	796.358E-3	-31.8266E-3
-2.13357E-3	-73.0753E-12	806.188E-3	-2.84613E-3	-73.3559E-12	787.901E-3	-19.4829E-3
-2.13857E-3	-72.8533E-12	799.711E-3	11.6507E-3	-73.2613E-12	793.393E-3	-21.7723E-3
-2.14357E-3	-73.7360E-12	781.186E-3	6.97520E-3	-72.9542E-12	791.691E-3	-23.1269E-3
-2.14857E-3	-73.7059E-12	777.351E-3	-18.6072E-3	-73.2680E-12	784.617E-3	-14.8771E-3
-2.15358E-3	-73.9079E-12	789.768E-3	-25.4844E-3	-73.9666E-12	783.336E-3	-15.6286E-3
-2.15858E-3	-74.0324E-12	790.909E-3	-17.0177E-3	-74.4301E-12	793.096E-3	-21.0364E-3
-2.16358E-3	-74.3630E-12	785.154E-3	-11.7157E-3	-74.9115E-12	800.654E-3	-13.0749E-3
-2.16858E-3	-75.7403E-12	787.733E-3	-5.30319E-3	-75.4813E-12	789.216E-3	-6.38746E-3
-2.17359E-3	-75.8751E-12	784.017E-3	-9.40881E-3	-75.8915E-12	772.871E-3	-13.5640E-3
-2.17859E-3	-75.3877E-12	769.848E-3	-14.4841E-3	-76.2580E-12	768.155E-3	-20.8101E-3
-2.18359E-3	-75.9798E-12	759.250E-3	-97.7790E-6	-76.0831E-12	768.503E-3	-14.0255E-3
-2.18859E-3	-77.2082E-12	754.509E-3	12.7186E-3	-75.8591E-12	766.614E-3	-13.3177E-3
-2.19360E-3	-76.8122E-12	763.442E-3	-3.04579E-3	-76.1887E-12	762.863E-3	-26.6780E-3
-2.19860E-3	-76.9844E-12	780.962E-3	-34.0970E-3	-76.4589E-12	765.492E-3	-22.4740E-3
-2.20360E-3	-77.3312E-12	777.543E-3	-41.1382E-3	-76.1994E-12	762.254E-3	-10.3710E-3
-2.20860E-3	-78.0956E-12	764.684E-3	-25.7355E-3	-75.7624E-12	753.459E-3	-11.2506E-3
-2.21361E-3	-78.5114E-12	779.108E-3	-2.17013E-3	-76.2476E-12	743.386E-3	-10.3119E-3
-2.21861E-3	-78.3270E-12	801.144E-3	18.0497E-3	-76.9751E-12	733.252E-3	-5.99893E-3
-2.22361E-3	-77.8150E-12	800.845E-3	8.48241E-3	-77.2969E-12	746.380E-3	345.494E-6
-2.22861E-3	-77.8598E-12	783.420E-3	-3.76739E-3	-77.9538E-12	756.061E-3	-469.814E-6
-2.23362E-3	-78.2415E-12	757.565E-3	12.2995E-3	-78.1095E-12	758.430E-3	-11.1249E-3
-2.23862E-3	-78.3272E-12	747.336E-3	18.0526E-3	-79.2770E-12	770.611E-3	-22.6467E-3
-2.24362E-3	-78.2265E-12	756.091E-3	-18.4064E-6	-79.7859E-12	768.274E-3	-27.7651E-3
-2.24862E-3	-78.7315E-12	762.844E-3	-9.75657E-3	-79.8591E-12	754.248E-3	-21.4326E-3
-2.25363E-3	-78.3952E-12	757.867E-3	-5.77039E-3	-80.0460E-12	744.335E-3	-11.3208E-3
-2.25863E-3	-78.1320E-12	753.716E-3	-4.12553E-3	-80.9564E-12	736.355E-3	-13.9681E-3
-2.26363E-3	-78.8271E-12	759.516E-3	-5.53252E-3	-80.9748E-12	729.802E-3	-28.7237E-3
-2.26863E-3	-79.5617E-12	753.671E-3	-16.9634E-3	-80.2410E-12	746.541E-3	-29.7707E-3
-2.27364E-3	-79.4752E-12	738.366E-3	-34.4190E-3	-80.0011E-12	778.828E-3	-18.8425E-3
-2.27864E-3	-79.6916E-12	739.982E-3	-23.6907E-3	-80.4849E-12	776.866E-3	-25.0080E-3
-2.28364E-3	-79.8932E-12	748.071E-3	-845.590E-6	-80.8231E-12	746.288E-3	-39.6561E-3
-2.28864E-3	-80.8900E-12	752.437E-3	-6.05246E-3	-80.7849E-12	746.769E-3	-33.5176E-3
-2.29365E-3	-82.1978E-12	755.154E-3	-31.5925E-3	-80.4930E-12	770.869E-3	-22.6461E-3
-2.29865E-3	-81.7751E-12	743.610E-3	-57.1980E-3	-80.2746E-12	763.964E-3	-21.5275E-3
-2.30365E-3	-82.4263E-12	740.218E-3	-55.8383E-3	-80.7624E-12	742.335E-3	-21.4346E-3
-2.30865E-3	-82.1731E-12	763.700E-3	-27.6263E-3	-81.8898E-12	737.602E-3	-22.8351E-3
-2.31366E-3	-83.9648E-12	782.428E-3	-13.3156E-3	-82.2598E-12	747.749E-3	-28.5215E-3
-2.31866E-3	-84.3705E-12	783.940E-3	-27.3299E-3	-82.0726E-12	764.203E-3	-32.3563E-3
-2.32366E-3	-83.7381E-12	784.818E-3	-30.4121E-3	-83.3172E-12	769.157E-3	-22.0362E-3
-2.32866E-3	-83.3863E-12	786.508E-3	-11.8070E-3	-84.4922E-12	766.986E-3	-14.3195E-3
-2.33367E-3	-84.5818E-12	773.647E-3	-13.7743E-3	-85.6571E-12	768.297E-3	-16.3426E-3
-2.33867E-3	-85.1324E-12	768.772E-3	-21.9941E-3	-85.8114E-12	752.173E-3	-16.2899E-3
-2.34367E-3	-84.3584E-12	779.061E-3	-14.2974E-3	-85.8272E-12	733.877E-3	-13.0530E-3
-2.34867E-3	-83.9574E-12	757.408E-3	-12.5731E-3	-86.3971E-12	746.226E-3	-3.97211E-3
-2.35368E-3	-84.1813E-12	724.666E-3	-9.78591E-3	-86.9085E-12	763.100E-3	-1.21990E-3
-2.35868E-3	-85.5239E-12	720.841E-3	3.53927E-3	-85.8577E-12	754.203E-3	-18.3498E-3
-2.36368E-3	-85.4950E-12	730.201E-3	13.2146E-3	-85.3775E-12	733.766E-3	-37.4023E-3
-2.36868E-3	-85.1102E-12	744.423E-3	4.64505E-3	-85.9114E-12	723.420E-3	-53.0469E-3
-2.37369E-3	-84.6007E-12	756.521E-3	-17.0174E-3	-86.6303E-12	726.923E-3	-49.6951E-3
-2.37869E-3	-85.4626E-12	751.792E-3	-28.2820E-3	-85.8150E-12	739.260E-3	-21.1538E-3
-2.38369E-3	-85.9450E-12	743.871E-3	-14.4903E-3	-85.2523E-12	752.332E-3	-2.59972E-3
-2.38869E-3	-86.5112E-12	748.787E-3	4.29884E-3	-84.9677E-12	753.955E-3	-5.94192E-3
-2.39370E-3	-86.4142E-12	757.975E-3	2.49685E-3	-86.6829E-12	743.733E-3	-10.8480E-3
-2.39870E-3	-86.5101E-12	759.214E-3	-4.83211E-3	-86.6424E-12	741.336E-3	-2.44413E-3
-2.40370E-3	-87.7186E-12	745.693E-3	251.622E-6	-86.6897E-12	751.585E-3	-477.844E-6
-2.40870E-3	-87.9521E-12	728.041E-3	271.354E-6	-86.7812E-12	750.442E-3	-15.4223E-3
-2.41371E-3	-87.2677E-12	730.117E-3	-12.7683E-3	-88.7337E-12	746.043E-3	-24.8544E-3
-2.41871E-3	-87.4263E-12	744.795E-3	-20.7887E-3	-89.7940E-12	749.528E-3	-14.1304E-3
-2.42371E-3	-88.8111E-12	739.423E-3	-25.9507E-3	-90.0924E-12	756.790E-3	4.24255E-3
-2.42871E-3	-88.3567E-12	723.004E-3	-31.0359E-3	-89.4602E-12	767.015E-3	5.33469E-3
-2.43372E-3	-88.3303E-12	714.236E-3	-14.5767E-3	-89.9965E-12	745.683E-3	-23.1970E-3
-2.43872E-3	-87.8648E-12	717.291E-3	5.24079E-3	-91.4327E-12	714.085E-3	-41.0198E-3
-2.44372E-3	-88.7791E-12	741.603E-3	-3.08940E-3	-91.5405E-12	718.732E-3	-23.9445E-3
-2.44872E-3	-88.9684E-12	753.638E-3	-21.8053E-3	-90.7835E-12	726.731E-3	-10.1256E-3
-2.45373E-3	-89.3640E-12	735.930E-3	-33.1177E-3	-90.2411E-12	712.521E-3	-17.0109E-3
-2.45873E-3	-89.0830E-12	739.867E-3	-28.3681E-3	-90.3173E-12	705.841E-3	-23.3993E-3
-2.46373E-3	-88.8740E-12	758.627E-3	-5.26396E-3	-90.4698E-12	718.248E-3	-19.4539E-3
-2.46873E-3	-90.4922E-12	747.049E-3	4.92407E-3	-89.4082E-12	732.111E-3	-12.6442E-3
-2.47374E-3	-89.8084E-12	719.528E-3	-10.4041E-3	-89.2252E-12	734.307E-3	-22.7648E-3
-2.47874E-3	-90.0786E-12	709.487E-3	-20.0381E-3	-89.0996E-12	722.094E-3	-41.8189E-3
-2.48374E-3	-90.2951E-12	720.458E-3	-7.69409E-3	-89.9823E-12	706.881E-3	-37.5174E-3
-2.48874E-3	-90.9419E-12	727.628E-3	-4.28523E-3	-90.8089E-12	712.949E-3	-17.6220E-3
-2.49375E-3	-90.2322E-12	739.174E-3	-15.4129E-3	-91.1829E-12	718.705E-3	-6.19797E-3
-2.49875E-3	-90.8975E-12	744.743E-3	-9.96431E-3	-91.0924E-12	715.154E-3	-2.76585E-3
-2.50375E-3	-91.1363E-12	724.640E-3	-18.7056E-3	-91.2826E-12	720.658E-3	-2.92321E-3
-2.50875E-3	-91.4846E-12	715.362E-3	-40.1260E-3	-92.8785E-12	725.185E-3	-5.65819E-3
-2.51376E-3	-91.6833E-12	715.543E-3	-25.4556E-3	-94.2399E-12	743.376E-3	2.91785E-3
-2.51876E-3	-91.7518E-12	709.637E-3	-12.9411E-3	-94.4161E-12	765.954E-3	9.09440E-3
-2.52376E-3	-92.5707E-12	705.052E-3	-26.2235E-3	-93.5299E-12	769.447E-3	-5.50630E-3
-2.52876E-3	-92.0788E-12	706.117E-3	-13.2936E-3	-94.2809E-12	748.186E-3	-23.6978E-3
-2.53377E-3	-92.5363E-12	695.706E-3	7.59433E-3	-94.7900E-12	720.709E-3	-27.4988E-3
-2.53877E-3	-93.2531E-12	687.451E-3	-9.00279E-3	-93.7588E-12	724.906E-3	-23.3087E-3
-2.54377E-3	-93.3938E-12	706.846E-3	-26.0539E-3	-94.0827E-12	737.194E-3	-28.0782E-3
-2.54877E-3	-93.0830E-12	714.548E-3	-18.9041E-3	-94.3415E-12	728.213E-3	-21.0135E-3
-2.55378E-3	-94.0695E-12	705.699E-3	-3.81594E-3	-94.2754E-12	715.954E-3	-4.06432E-3
-2.55878E-3	-95.1803E-12	709.762E-3	4.17829E-3	-93.5801E-12	715.582E-3	-8.75376E-3
-2.56378E-3	-94.7278E-12	714.935E-3	-17.0761E-3	-93.7070E-12	726.262E-3	-12.6089E-3
-2.56878E-3	-94.8280E-12	714.518E-3	-38.8633E-3	-94.5890E-12	725.649E-3	-21.6359E-3
-2.57379E-3	-95.3411E-12	710.438E-3	-26.5688E-3	-95.2181E-12	718.483E-3	-35.4374E-3
-2.57879E-3	-95.9692E-12	692.300E-3	-9.63254E-3	-95.9213E-12	728.045E-3	-23.3783E-3
-2.58379E-3	-95.8761E-12	682.910E-3	-22.8468E-3	-95.9627E-12	741.275E-3	-4.88400E-3
-2.58879E-3	-95.6739E-12	703.101E-3	-36.5994E-3	-97.3044E-12	736.386E-3	3.69279E-3
-2.59380E-3	-95.9513E-12	716.873E-3	-27.9716E-3	-98.0161E-12	712.132E-3	9.81377E-3
-2.59880E-3	-95.5468E-12	703.270E-3	-29.0226E-3	-99.3171E-12	707.821E-3	9.63341E-3
-2.60380E-3	-96.2942E-12	691.394E-3	-26.9030E-3	-97.8972E-12	731.855E-3	-4.88674E-3
-2.60880E-3	-96.1993E-12	691.729E-3	-5.31333E-3	-98.8773E-12	739.392E-3	-8.18306E-3
-2.61381E-3	-96.2783E-12	685.500E-3	5.03236E-3	-98.8986E-12	721.419E-3	3.35660E-3
-2.61881E-3	-96.2706E-12	688.201E-3	-12.9970E-3	-98.3885E-12	714.703E-3	-1.58599E-3
-2.62381E-3	-97.7337E-12	708.182E-3	-31.1030E-3	-98.0914E-12	712.276E-3	-12.9021E-3
-2.62881E-3	-98.2419E-12	714.150E-3	-38.1442E-3	-97.2522E-12	698.222E-3	-12.4742E-3
-2.63382E-3	-97.8452E-12	710.625E-3	-42.3795E-3	-98.1604E-12	694.437E-3	-17.8869E-3
-2.63882E-3	-97.6324E-12	707.909E-3	-40.2983E-3	-97.6514E-12	685.795E-3	-28.7979E-3
-2.64382E-3	-97.6606E-12	711.943E-3	-37.9440E-3	-98.0183E-12	672.326E-3	-31.3972E-3
-2.64882E-3	-98.7804E-12	724.059E-3	-40.5574E-3	-98.1306E-12	676.768E-3	-30.8238E-3
-2.65383E-3	-99.0288E-12	722.353E-3	-44.0602E-3	-98.7495E-12	684.186E-3	-24.8831E-3
-2.65883E-3	-98.8477E-12	708.956E-3	-48.7165E-3	-99.1166E-12	693.912E-3	-17.7294E-3
-2.66383E-3	-98.7955E-12	703.757E-3	-47.5728E-3	-99.4301E-12	713.601E-3	-20.7680E-3
-2.66883E-3	-100.199E-12	711.903E-3	-27.8986E-3	-100.215E-12	715.329E-3	-28.0967E-3
-2.67384E-3	-101.129E-12	720.138E-3	-1.67733E-3	-100.393E-12	705.723E-3	-34.5148E-3
-2.67884E-3	-99.9498E-12	720.394E-3	12.4700E-3	-100.586E-12	715.860E-3	-39.2534E-3
-2.68384E-3	-100.024E-12	716.441E-3	234.950E-6	-101.757E-12	719.383E-3	-48.7233E-3
-2.68884E-3	-100.524E-12	721.236E-3	-22.4332E-3	-102.379E-12	710.987E-3	-36.2277E-3
-2.69385E-3	-102.091E-12	739.066E-3	-23.8823E-3	-101.336E-12	723.841E-3	1.32663E-3
-2.69885E-3	-101.825E-12	740.348E-3	-11.3381E-3	-101.796E-12	727.415E-3	7.96569E-3
-2.70385E-3	-101.776E-12	723.456E-3	-3.25678E-3	-102.073E-12	700.525E-3	-19.2268E-3
-2.70885E-3	-102.229E-12	718.367E-3	-5.05939E-3	-102.112E-12	686.922E-3	-37.6946E-3
-2.71386E-3	-102.488E-12	714.531E-3	-1.01682E-3	-101.136E-12	692.496E-3	-38.6646E-3
-2.71886E-3	-103.058E-12	709.900E-3	1.20152E-3	-100.785E-12	687.990E-3	-27.1321E-3
-2.72386E-3	-102.339E-12	713.741E-3	-15.8871E-3	-100.568E-12	687.764E-3	-3.79075E-3
-2.72886E-3	-103.528E-12	722.847E-3	-22.7284E-3	-100.689E-12	701.558E-3	-3.03439E-3
-2.73387E-3	-103.380E-12	729.618E-3	-15.1097E-3	-101.162E-12	711.132E-3	-16.4615E-3
-2.73887E-3	-103.693E-12	722.951E-3	-25.4089E-3	-100.843E-12	717.552E-3	769.296E-6
-2.74387E-3	-103.289E-12	714.037E-3	-45.0730E-3	-102.343E-12	721.257E-3	3.46810E-3
-2.74887E-3	-103.434E-12	709.977E-3	-41.0002E-3	-103.036E-12	716.245E-3	-25.8100E-3
-2.75388E-3	-104.055E-12	708.078E-3	-25.1235E-3	-103.206E-12	715.839E-3	-19.3005E-3
-2.75888E-3	-105.180E-12	708.968E-3	-13.1340E-3	-104.180E-12	723.451E-3	-1.34019E-3
-2.76388E-3	-105.161E-12	711.193E-3	-6.74759E-3	-105.111E-12	729.873E-3	-9.24881E-3
-2.76888E-3	-103.358E-12	724.885E-3	-19.0286E-3	-105.186E-12	734.021E-3	-8.51274E-3
-2.77389E-3	-104.666E-12	738.729E-3	-31.8460E-3	-105.299E-12	734.967E-3	-6.11411E-3
-2.77889E-3	-105.514E-12	722.699E-3	-13.5234E-3	-106.296E-12	727.225E-3	-12.1879E-3
-2.78389E-3	-106.566E-12	698.768E-3	22.0743E-3	-106.779E-12	711.811E-3	-13.3415E-3
-2.78889E-3	-105.239E-12	707.647E-3	35.0775E-3	-106.426E-12	704.296E-3	-6.68258E-3
-2.79390E-3	-105.581E-12	729.424E-3	13.5029E-3	-105.894E-12	703.391E-3	-9.89623E-3
-2.79890E-3	-106.564E-12	725.757E-3	-17.7663E-3	-105.137E-12	699.574E-3	-15.6801E-3
-2.80390E-3	-107.599E-12	715.786E-3	-32.0873E-3	-105.356E-12	687.062E-3	-15.9696E-3
-2.80890E-3	-107.126E-12	727.232E-3	-13.7112E-3	-106.156E-12	670.856E-3	-28.9576E-3
-2.81391E-3	-107.417E-12	734.171E-3	10.3634E-3	-106.213E-12	665.997E-3	-29.5828E-3
-2.81891E-3	-107.862E-12	720.760E-3	-12.7543E-3	-105.023E-12	674.953E-3	-25.2384E-3
-2.82391E-3	-107.675E-12	710.991E-3	-43.6665E-3	-105.829E-12	684.045E-3	-38.9823E-3
-2.82891E-3	-108.276E-12	704.681E-3	-34.7702E-3	-106.385E-12	693.550E-3	-40.6930E-3
-2.83392E-3	-107.890E-12	709.403E-3	-28.7344E-3	-107.704E-12	708.811E-3	-27.1546E-3
-2.83892E-3	-107.707E-12	718.574E-3	-21.0837E-3	-107.683E-12	720.217E-3	-29.2368E-3
-2.84392E-3	-107.455E-12	712.733E-3	-7.11890E-3	-108.167E-12	728.242E-3	-31.7863E-3
-2.84892E-3	-107.510E-12	711.481E-3	-38.2590E-3	-109.410E-12	734.860E-3	-14.6581E-3
-2.85393E-3	-107.439E-12	713.297E-3	-62.5288E-3	-109.124E-12	732.850E-3	-7.67313E-3
-2.85893E-3	-107.246E-12	693.093E-3	-33.7868E-3	-109.778E-12	720.524E-3	-21.9736E-3
-2.86393E-3	-107.332E-12	664.401E-3	-18.5125E-3	-109.098E-12	721.422E-3	-27.5992E-3
-2.86893E-3	-107.904E-12	667.428E-3	-23.6538E-3	-110.747E-12	723.000E-3	-18.9425E-3
-2.87394E-3	-108.217E-12	693.644E-3	-12.5038E-3	-109.853E-12	698.716E-3	-24.1417E-3
-2.87894E-3	-108.419E-12	700.885E-3	-8.73221E-3	-109.835E-12	683.668E-3	-37.8042E-3
-2.88394E-3	-109.012E-12	694.389E-3	-15.9239E-3	-108.355E-12	697.705E-3	-44.2392E-3
-2.88894E-3	-109.885E-12	683.247E-3	-3.16926E-3	-108.536E-12	706.010E-3	-34.9271E-3
-2.89395E-3	-110.185E-12	675.435E-3	572.650E-6	-108.952E-12	685.070E-3	-9.49951E-3
-2.89895E-3	-109.930E-12	684.637E-3	-21.5361E-3	-109.208E-12	676.006E-3	-1.13055E-3
-2.90395E-3	-110.418E-12	689.011E-3	-27.1319E-3	-108.646E-12	696.238E-3	-10.5765E-3
-2.90895E-3	-111.254E-12	689.206E-3	-19.5301E-3	-109.009E-12	703.108E-3	-17.5249E-3
-2.91396E-3	-113.285E-12	711.657E-3	-33.3554E-3	-109.519E-12	699.058E-3	-29.7992E-3
-2.91896E-3	-112.304E-12	715.703E-3	-42.7003E-3	-111.012E-12	703.647E-3	-44.4358E-3
-2.92396E-3	-111.440E-12	680.131E-3	-30.3167E-3	-111.629E-12	715.749E-3	-29.4569E-3
-2.92896E-3	-111.357E-12	658.025E-3	-11.5711E-3	-111.546E-12	728.550E-3	7.61588E-3
-2.93397E-3	-113.065E-12	662.153E-3	8.20885E-3	-111.631E-12	727.571E-3	21.5817E-3
-2.93897E-3	-112.728E-12	677.517E-3	7.95551E-3	-113.255E-12	712.701E-3	7.55020E-3
-2.94397E-3	-111.797E-12	705.457E-3	-10.5721E-3	-113.427E-12	701.332E-3	-5.71899E-3
-2.94897E-3	-112.261E-12	714.976E-3	-20.1370E-3	-113.163E-12	703.840E-3	-14.5928E-3
-2.95398E-3	-112.728E-12	690.864E-3	-22.6148E-3	-113.738E-12	699.662E-3	-19.6800E-3
-2.95898E-3	-113.568E-12	692.840E-3	-29.0960E-3	-114.788E-12	682.851E-3	-11.9213E-3
-2.96398E-3	-113.293E-12	725.318E-3	-29.2675E-3	-115.273E-12	680.430E-3	-13.1545E-3
-2.96898E-3	-113.534E-12	719.702E-3	-30.2563E-3	-113.186E-12	674.439E-3	-26.7653E-3
-2.97399E-3	-113.536E-12	699.216E-3	-45.8889E-3	-112.220E-12	663.357E-3	-32.0956E-3
-2.97899E-3	-114.945E-12	709.398E-3	-42.8505E-3	-112.317E-12	670.521E-3	-30.5801E-3
-2.98399E-3	-115.255E-12	707.000E-3	-16.4447E-3	-113.054E-12	669.784E-3	-28.1993E-3
-2.98899E-3	-115.450E-12	680.221E-3	-22.7513E-3	-112.839E-12	668.028E-3	-18.0294E-3
-2.99400E-3	-115.160E-12	677.330E-3	-39.5578E-3	-111.938E-12	696.605E-3	-15.1889E-3
-2.99900E-3	-115.976E-12	691.052E-3	-31.9447E-3	-112.283E-12	718.581E-3	-28.6264E-3
-3.00400E-3	-117.013E-12	698.837E-3	-24.6735E-3	-114.271E-12	707.470E-3	-32.7345E-3
-3.00900E-3	-116.858E-12	712.258E-3	-13.6644E-3	-116.329E-12	696.577E-3	-14.2047E-3
-3.01401E-3	-116.355E-12	710.102E-3	-2.39008E-3	-114.850E-12	706.322E-3	-7.03628E-3
-3.01901E-3	-116.899E-12	703.338E-3	-17.8962E-3	-115.879E-12	713.830E-3	-7.38121E-3
-3.02401E-3	-118.204E-12	714.611E-3	-36.8955E-3	-117.607E-12	708.393E-3	7.85651E-3
-3.02901E-3	-117.369E-12	724.741E-3	-25.1717E-3	-119.133E-12	710.007E-3	3.15322E-3
-3.03402E-3	-116.611E-12	722.800E-3	-13.2773E-3	-118.935E-12	704.436E-3	-11.0149E-3
-3.03902E-3	-117.260E-12	711.491E-3	-17.0875E-3	-119.278E-12	706.768E-3	-40.3360E-6
-3.04402E-3	-118.851E-12	711.109E-3	-8.37519E-3	-119.093E-12	732.351E-3	2.87361E-3
-3.04902E-3	-117.874E-12	710.099E-3	6.69897E-3	-119.500E-12	727.532E-3	-11.3575E-3
-3.05403E-3	-117.059E-12	696.783E-3	2.28241E-3	-119.556E-12	697.092E-3	-3.62857E-3
-3.05903E-3	-117.805E-12	687.761E-3	-14.3919E-3	-118.716E-12	690.445E-3	-3.04132E-3
-3.06403E-3	-117.928E-12	672.629E-3	-22.4347E-3	-117.747E-12	706.367E-3	-18.5854E-3
-3.06903E-3	-118.472E-12	674.263E-3	-20.8225E-3	-117.857E-12	710.038E-3	-9.25087E-3
-3.07404E-3	-118.790E-12	690.520E-3	-19.8450E-3	-119.412E-12	699.536E-3	15.7503E-3
-3.07904E-3	-118.335E-12	686.074E-3	-19.7491E-3	-119.057E-12	698.907E-3	15.2026E-3
-3.08404E-3	-117.732E-12	684.468E-3	-26.7030E-3	-117.823E-12	690.555E-3	-13.7752E-3
-3.08904E-3	-118.890E-12	695.809E-3	-42.9713E-3	-118.194E-12	678.343E-3	-37.0584E-3
-3.09405E-3	-119.965E-12	697.990E-3	-49.6134E-3	-120.180E-12	690.956E-3	-41.7963E-3
-3.09905E-3	-119.590E-12	689.537E-3	-41.4271E-3	-121.122E-12	700.940E-3	-26.9777E-3
-3.10405E-3	-119.133E-12	677.257E-3	-28.4773E-3	-121.116E-12	701.520E-3	-7.82482E-3
-3.10905E-3	-119.166E-12	661.616E-3	-21.5804E-3	-121.505E-12	705.179E-3	1.95820E-3
-3.11406E-3	-120.642E-12	658.125E-3	-31.9081E-3	-123.355E-12	698.658E-3	14.1052E-3
-3.11906E-3	-121.586E-12	676.222E-3	-44.7947E-3	-124.799E-12	694.598E-3	27.4929E-3
-3.12406E-3	-119.538E-12	693.924E-3	-39.1616E-3	-123.410E-12	707.340E-3	38.3656E-3
-3.12906E-3	-119.688E-12	686.026E-3	-25.3183E-3	-122.611E-12	708.186E-3	20.9119E-3
-3.13407E-3	-121.209E-12	667.821E-3	-18.5648E-3	-122.800E-12	675.830E-3	-6.41439E-3
-3.13907E-3	-122.103E-12	674.263E-3	-14.2860E-3	-124.085E-12	660.857E-3	-3.99475E-3
-3.14407E-3	-121.188E-12	692.977E-3	-16.3190E-3	-122.748E-12	675.660E-3	-4.01928E-3
-3.14907E-3	-121.515E-12	689.348E-3	-30.7799E-3	-121.808E-12	685.255E-3	-11.1449E-3
-3.15408E-3	-122.099E-12	670.820E-3	-46.2771E-3	-121.315E-12	697.083E-3	-2.98281E-3
-3.15908E-3	-122.400E-12	671.223E-3	-54.6070E-3	-122.402E-12	699.151E-3	2.78097E-3
-3.16408E-3	-123.422E-12	694.483E-3	-42.5748E-3	-122.008E-12	688.249E-3	-5.84283E-3
-3.16908E-3	-122.957E-12	704.882E-3	-26.4256E-3	-122.046E-12	693.607E-3	-11.7233E-3
-3.17409E-3	-122.123E-12	683.531E-3	-24.1629E-3	-121.876E-12	708.608E-3	-17.4489E-3
-3.17909E-3	-122.326E-12	665.506E-3	-32.9593E-3	-122.934E-12	703.013E-3	-28.4412E-3
-3.18409E-3	-123.150E-12	674.199E-3	-33.4491E-3	-123.551E-12	674.911E-3	-24.2166E-3
-3.18909E-3	-122.959E-12	684.892E-3	-21.4553E-3	-123.451E-12	664.445E-3	-17.2909E-3
-3.19410E-3	-122.193E-12	690.859E-3	-20.8732E-3	-123.510E-12	683.715E-3	-27.0603E-3
-3.19910E-3	-123.595E-12	687.162E-3	-12.0458E-3	-123.118E-12	691.474E-3	-34.3423E-3
-3.20410E-3	-124.237E-12	669.974E-3	4.05627E-3	-123.979E-12	689.823E-3	-19.5446E-3
-3.20910E-3	-124.608E-12	659.062E-3	3.46144E-3	-124.425E-12	684.817E-3	-8.54781E-3
-3.21411E-3	-124.832E-12	665.554E-3	1.62701E-3	-124.681E-12	657.679E-3	-12.4994E-3
-3.21911E-3	-124.305E-12	682.529E-3	5.33105E-3	-124.718E-12	633.534E-3	-6.53398E-3
-3.22411E-3	-124.901E-12	673.139E-3	6.55516E-3	-123.908E-12	644.871E-3	-11.2830E-3
-3.22911E-3	-125.486E-12	644.421E-3	-8.42869E-3	-124.526E-12	673.855E-3	-23.1105E-3
-3.23412E-3	-126.881E-12	659.924E-3	-35.1610E-3	-124.317E-12	675.180E-3	-22.2552E-3
-3.23912E-3	-126.049E-12	694.689E-3	-44.1629E-3	-124.289E-12	668.559E-3	-21.7923E-3
-3.24412E-3	-126.350E-12	700.149E-3	-46.0263E-3	-123.878E-12	681.253E-3	-27.3888E-3
-3.24912E-3	-127.377E-12	713.778E-3	-37.4455E-3	-124.234E-12	691.052E-3	-26.0626E-3
-3.25413E-3	-128.239E-12	721.960E-3	-5.01222E-3	-125.857E-12	683.353E-3	-24.9545E-3
-3.25913E-3	-127.303E-12	703.837E-3	12.1973E-3	-125.966E-12	671.256E-3	-37.0774E-3
-3.26413E-3	-127.732E-12	698.462E-3	3.01368E-3	-127.259E-12	678.322E-3	-37.1849E-3
-3.26913E-3	-127.808E-12	702.636E-3	-26.3903E-3	-128.043E-12	692.327E-3	-12.8906E-3
-3.27414E-3	-128.549E-12	707.331E-3	-51.3566E-3	-130.066E-12	700.209E-3	1.72434E-3
-3.27914E-3	-129.137E-12	714.748E-3	-23.6714E-3	-130.448E-12	704.720E-3	-13.4977E-3
-3.28414E-3	-128.024E-12	698.300E-3	13.1919E-3	-130.028E-12	694.654E-3	-20.9472E-3
-3.28914E-3	-127.767E-12	666.939E-3	5.04630E-3	-129.880E-12	691.024E-3	5.26951E-3
-3.29415E-3	-128.759E-12	664.043E-3	-26.6821E-3	-131.067E-12	702.452E-3	20.3718E-3
-3.29915E-3	-129.090E-12	675.280E-3	-44.7546E-3	-131.901E-12	703.887E-3	6.88923E-3
-3.30415E-3	-127.828E-12	670.989E-3	-38.9566E-3	-130.583E-12	695.496E-3	-13.8226E-3
-3.30915E-3	-128.323E-12	658.399E-3	-31.0058E-3	-129.443E-12	686.692E-3	-44.4378E-3
-3.31416E-3	-129.458E-12	650.421E-3	-29.7428E-3	-129.110E-12	672.229E-3	-44.0935E-3
-3.31916E-3	-128.916E-12	662.065E-3	-40.5330E-3	-130.601E-12	664.564E-3	-19.8926E-3
-3.32416E-3	-129.318E-12	667.768E-3	-54.1318E-3	-130.610E-12	681.409E-3	-32.7439E-3
-3.32916E-3	-129.377E-12	658.184E-3	-45.6376E-3	-129.051E-12	692.480E-3	-43.3710E-3
-3.33417E-3	-130.153E-12	661.636E-3	-30.8616E-3	-128.708E-12	681.602E-3	-21.5287E-3
-3.33917E-3	-130.029E-12	671.002E-3	-22.0367E-3	-130.267E-12	670.796E-3	-13.3639E-3
-3.34417E-3	-130.632E-12	683.081E-3	-14.7656E-3	-131.972E-12	675.656E-3	-26.0864E-3
-3.34917E-3	-129.751E-12	684.463E-3	-24.6555E-3	-131.806E-12	694.827E-3	-41.3350E-3
-3.35418E-3	-130.006E-12	683.798E-3	-34.8048E-3	-131.982E-12	711.809E-3	-52.0644E-3
-3.35918E-3	-131.118E-12	695.511E-3	-23.7365E-3	-133.323E-12	696.925E-3	-51.4558E-3
-3.36418E-3	-131.999E-12	692.709E-3	-22.8267E-3	-135.273E-12	673.978E-3	-35.8847E-3
-3.36918E-3	-131.633E-12	687.653E-3	-30.8565E-3	-135.248E-12	677.967E-3	-16.8273E-3
-3.37419E-3	-131.140E-12	684.753E-3	-23.5426E-3	-134.438E-12	697.403E-3	-3.49326E-3
-3.37919E-3	-132.459E-12	668.030E-3	-5.65005E-3	-134.624E-12	709.088E-3	4.30186E-3
-3.38419E-3	-131.346E-12	653.144E-3	994.323E-6	-135.913E-12	684.647E-3	-7.81828E-3
-3.38919E-3	-131.928E-12	661.758E-3	-11.8099E-3	-136.187E-12	653.503E-3	-21.1163E-3
-3.39420E-3	-131.729E-12	685.671E-3	-20.5246E-3	-134.413E-12	653.669E-3	-13.7762E-3
-3.39920E-3	-131.811E-12	689.557E-3	-22.8447E-3	-132.900E-12	668.035E-3	-14.1459E-3
-3.40420E-3	-132.386E-12	673.645E-3	-34.1201E-3	-132.588E-12	664.417E-3	-19.2545E-3
-3.40920E-3	-132.927E-12	668.326E-3	-39.5978E-3	-132.789E-12	661.639E-3	-1.08139E-3
-3.41421E-3	-133.554E-12	687.475E-3	-34.5989E-3	-132.059E-12	682.782E-3	13.1732E-3
-3.41921E-3	-132.566E-12	704.572E-3	-26.2786E-3	-132.098E-12	683.940E-3	-10.9839E-3
-3.42421E-3	-134.151E-12	683.127E-3	-22.7419E-3	-132.336E-12	662.233E-3	-30.3692E-3
-3.42921E-3	-134.597E-12	652.302E-3	-37.0754E-3	-131.904E-12	656.079E-3	-22.4136E-3
-3.43422E-3	-134.587E-12	668.833E-3	-48.8352E-3	-132.541E-12	661.907E-3	-31.3261E-3
-3.43922E-3	-134.656E-12	693.825E-3	-34.1321E-3	-133.717E-12	668.556E-3	-46.2304E-3
-3.44422E-3	-135.352E-12	677.238E-3	-11.4415E-3	-133.744E-12	676.448E-3	-26.3680E-3
-3.44922E-3	-135.272E-12	673.197E-3	-9.98202E-3	-134.242E-12	677.776E-3	-5.12867E-3
-3.45423E-3	-135.343E-12	696.601E-3	-16.1350E-3	-135.438E-12	682.327E-3	-10.9069E-3
-3.45923E-3	-134.777E-12	698.006E-3	-16.7886E-3	-137.083E-12	690.688E-3	-16.6785E-3
-3.46423E-3	-136.180E-12	684.993E-3	-24.2731E-3	-136.755E-12	689.359E-3	-18.3813E-3
-3.46923E-3	-137.137E-12	674.632E-3	-12.4162E-3	-136.899E-12	689.476E-3	-25.2126E-3
-3.47424E-3	-136.153E-12	671.658E-3	-1.32138E-3	-136.722E-12	698.342E-3	-21.9694E-3
-3.47924E-3	-135.683E-12	688.505E-3	-18.7620E-3	-136.487E-12	700.615E-3	-1.90175E-3
-3.48424E-3	-136.487E-12	699.511E-3	-22.5990E-3	-137.228E-12	682.580E-3	-6.79732E-3
-3.48924E-3	-136.362E-12	679.806E-3	-15.1726E-3	-136.256E-12	677.176E-3	-38.6387E-3
-3.49425E-3	-137.036E-12	669.136E-3	-20.7215E-3	-136.002E-12	692.525E-3	-43.8791E-3
-3.49925E-3	-137.285E-12	681.927E-3	-18.5791E-3	-135.752E-12	694.043E-3	-31.6690E-3
-3.50425E-3	-137.340E-12	673.968E-3	-7.31247E-3	-137.729E-12	684.156E-3	-30.1471E-3
-3.50925E-3	-138.121E-12	668.931E-3	-3.71677E-3	-136.798E-12	678.520E-3	-29.2878E-3
-3.51426E-3	-138.915E-12	691.640E-3	-10.7416E-3	-135.641E-12	675.056E-3	-20.2611E-3
-3.51926E-3	-137.877E-12	696.435E-3	-35.0784E-3	-136.563E-12	662.532E-3	-9.13017E-3
-3.52426E-3	-138.791E-12	676.483E-3	-53.0509E-3	-139.132E-12	665.171E-3	-2.24323E-3
-3.52926E-3	-138.149E-12	666.413E-3	-48.2064E-3	-140.410E-12	683.959E-3	-14.6636E-3
-3.53427E-3	-139.144E-12	672.949E-3	-36.0464E-3	-139.817E-12	684.080E-3	-27.5907E-3
-3.53927E-3	-140.365E-12	677.520E-3	-14.9977E-3	-140.170E-12	672.761E-3	-19.6449E-3
-3.54427E-3	-139.188E-12	677.773E-3	2.56153E-3	-140.308E-12	666.356E-3	-13.9060E-3
-3.54927E-3	-138.595E-12	674.647E-3	-7.53658E-3	-142.071E-12	667.600E-3	-3.22539E-3
-3.55428E-3	-139.277E-12	664.120E-3	-26.3209E-3	-142.630E-12	675.482E-3	12.3958E-3
-3.55928E-3	-141.158E-12	656.327E-3	-17.0213E-3	-141.664E-12	677.714E-3	3.22599E-3
-3.56428E-3	-140.309E-12	655.507E-3	10.8204E-3	-140.716E-12	677.210E-3	-10.9455E-3
-3.56928E-3	-139.996E-12	653.530E-3	13.8220E-3	-141.094E-12	675.966E-3	-14.1116E-3
-3.57429E-3	-139.796E-12	656.237E-3	-3.41243E-3	-142.510E-12	657.051E-3	-4.19661E-3
-3.57929E-3	-142.075E-12	670.058E-3	-22.9370E-3	-141.044E-12	646.482E-3	2.71150E-3
-3.58429E-3	-140.566E-12	701.856E-3	-42.0074E-3	-140.850E-12	667.365E-3	-21.7762E-3
-3.58929E-3	-141.876E-12	723.733E-3	-41.3124E-3	-140.588E-12	688.692E-3	-40.4454E-3
-3.59430E-3	-143.862E-12	708.093E-3	-30.1157E-3	-141.970E-12	697.149E-3	-37.6516E-3
-3.59930E-3	-142.757E-12	694.251E-3	-24.8622E-3	-141.360E-12	691.315E-3	-36.0433E-3
-3.60430E-3	-143.037E-12	700.412E-3	-17.2628E-3	-141.152E-12	669.869E-3	-34.1510E-3
-3.60930E-3	-144.664E-12	685.815E-3	-16.8075E-3	-141.433E-12	653.848E-3	-21.1679E-3
-3.61431E-3	-144.376E-12	662.085E-3	-26.0447E-3	-143.834E-12	658.141E-3	-10.2619E-3
-3.61931E-3	-144.272E-12	671.010E-3	-33.1993E-3	-144.401E-12	687.532E-3	-20.1328E-3
-3.62431E-3	-144.584E-12	678.782E-3	-33.6615E-3	-143.729E-12	718.506E-3	-23.3507E-3
-3.62931E-3	-144.273E-12	661.919E-3	-27.2535E-3	-144.119E-12	719.209E-3	-8.77988E-3
-3.63432E-3	-144.872E-12	663.197E-3	-19.1505E-3	-145.755E-12	688.841E-3	-7.58491E-3
-3.63932E-3	-143.958E-12	686.509E-3	-15.3335E-3	-145.870E-12	656.224E-3	-2.72735E-3
-3.64432E-3	-143.143E-12	691.145E-3	-8.56366E-3	-145.091E-12	659.626E-3	11.7938E-3
-3.64932E-3	-143.090E-12	674.864E-3	6.07877E-3	-144.415E-12	664.504E-3	2.35577E-3
-3.65433E-3	-143.652E-12	662.188E-3	1.72302E-3	-145.256E-12	645.796E-3	-12.1851E-3
-3.65933E-3	-144.805E-12	652.832E-3	-13.4183E-3	-144.760E-12	646.442E-3	-22.7904E-3
-3.66433E-3	-143.778E-12	650.207E-3	-19.2783E-3	-144.548E-12	655.319E-3	-36.9081E-3
-3.66933E-3	-143.938E-12	663.242E-3	-22.8202E-3	-143.776E-12	656.703E-3	-28.4728E-3
-3.67434E-3	-145.296E-12	666.012E-3	-23.8429E-3	-144.375E-12	655.978E-3	-16.6434E-3
-3.67934E-3	-146.675E-12	663.373E-3	-20.3672E-3	-144.213E-12	666.956E-3	-26.9323E-3
-3.68434E-3	-146.029E-12	673.415E-3	-444.196E-6	-144.478E-12	686.621E-3	-26.9854E-3
-3.68934E-3	-146.143E-12	674.516E-3	12.5092E-3	-145.459E-12	687.842E-3	-5.33350E-3
-3.69435E-3	-146.196E-12	671.622E-3	7.97108E-3	-146.723E-12	684.513E-3	-601.327E-6
-3.69935E-3	-147.347E-12	680.835E-3	3.72849E-3	-147.802E-12	688.240E-3	-24.1900E-3
-3.70435E-3	-148.629E-12	673.734E-3	-2.51053E-3	-149.185E-12	691.380E-3	-34.6408E-3
-3.70935E-3	-147.559E-12	651.613E-3	5.37542E-3	-148.879E-12	700.530E-3	-20.8960E-3
-3.71436E-3	-147.042E-12	657.216E-3	4.64345E-3	-150.233E-12	707.159E-3	-25.3804E-3
-3.71936E-3	-146.972E-12	678.450E-3	-20.7896E-3	-149.892E-12	697.176E-3	-51.1694E-3
-3.72436E-3	-148.402E-12	684.909E-3	-23.8929E-3	-151.258E-12	680.693E-3	-40.2709E-3
-3.72936E-3	-148.834E-12	683.323E-3	-8.06900E-3	-150.779E-12	666.316E-3	13.0638E-3
-3.73437E-3	-148.025E-12	682.304E-3	-1.55676E-3	-151.841E-12	656.309E-3	44.9617E-3
-3.73937E-3	-147.327E-12	686.813E-3	-12.2939E-3	-152.185E-12	657.082E-3	26.1968E-3
-3.74437E-3	-149.010E-12	694.769E-3	-26.7527E-3	-149.434E-12	657.579E-3	-1.61705E-3
-3.74937E-3	-149.444E-12	694.432E-3	-20.1769E-3	-149.798E-12	659.397E-3	-898.917E-6
-3.75438E-3	-148.826E-12	678.995E-3	-21.0470E-3	-149.914E-12	672.597E-3	-8.37167E-3
-3.75938E-3	-148.597E-12	666.438E-3	-46.3737E-3	-150.527E-12	664.224E-3	-29.2213E-3
-3.76438E-3	-148.896E-12	676.780E-3	-45.6581E-3	-148.832E-12	652.576E-3	-23.0858E-3
-3.76938E-3	-149.577E-12	677.187E-3	-1.26178E-3	-148.516E-12	676.299E-3	-13.6813E-3
-3.77439E-3	-150.469E-12	662.870E-3	8.08328E-3	-147.586E-12	680.703E-3	-31.7321E-3
-3.77939E-3	-149.531E-12	678.248E-3	-15.6261E-3	-150.017E-12	660.537E-3	-28.3634E-3
-3.78439E-3	-150.195E-12	689.314E-3	-2.96263E-3	-151.839E-12	663.891E-3	1.57100E-3
-3.78939E-3	-151.139E-12	661.979E-3	5.92348E-3	-151.589E-12	683.087E-3	6.60134E-3
-3.79440E-3	-149.238E-12	654.071E-3	1.84232E-3	-150.106E-12	686.630E-3	392.326E-6
-3.79940E-3	-149.713E-12	663.767E-3	16.6012E-3	-151.455E-12	677.689E-3	-3.22652E-3
-3.80440E-3	-151.762E-12	665.990E-3	30.1524E-3	-152.985E-12	687.668E-3	-23.5606E-3
-3.80940E-3	-152.325E-12	671.623E-3	21.3080E-3	-153.482E-12	710.466E-3	-45.5931E-3
-3.81441E-3	-151.290E-12	668.434E-3	10.8566E-3	-152.176E-12	708.446E-3	-33.2050E-3
-3.81941E-3	-151.412E-12	654.153E-3	9.04433E-3	-152.262E-12	686.229E-3	-14.9558E-3
-3.82441E-3	-153.512E-12	641.072E-3	-26.2227E-3	-152.891E-12	673.970E-3	-14.7230E-3
-3.82941E-3	-152.864E-12	648.982E-3	-54.1770E-3	-154.282E-12	677.218E-3	-13.6601E-3
-3.83442E-3	-152.481E-12	667.020E-3	-24.7182E-3	-151.610E-12	676.978E-3	-23.7954E-3
-3.83942E-3	-152.768E-12	659.048E-3	-984.252E-6	-150.123E-12	657.176E-3	-36.9651E-3
-3.84442E-3	-154.350E-12	636.155E-3	5.42465E-3	-151.917E-12	644.647E-3	-40.4362E-3
-3.84942E-3	-155.148E-12	638.709E-3	21.0416E-3	-154.025E-12	649.759E-3	-30.6355E-3
-3.85443E-3	-156.095E-12	663.318E-3	17.4173E-3	-152.961E-12	653.718E-3	-1.01225E-3
-3.85943E-3	-156.335E-12	683.351E-3	-15.3525E-3	-151.558E-12	673.593E-3	583.304E-6
-3.86443E-3	-156.052E-12	685.334E-3	-37.6543E-3	-151.667E-12	692.558E-3	-32.9218E-3
-3.86943E-3	-156.274E-12	670.564E-3	-38.2597E-3	-152.671E-12	683.920E-3	-32.9171E-3
-3.87444E-3	-155.325E-12	663.887E-3	-53.0611E-3	-155.703E-12	678.542E-3	-19.7089E-3
-3.87944E-3	-155.602E-12	674.437E-3	-63.5234E-3	-155.017E-12	684.106E-3	-34.0943E-3
-3.88444E-3	-155.260E-12	688.716E-3	-50.2672E-3	-154.379E-12	684.586E-3	-35.4659E-3
-3.88944E-3	-155.550E-12	692.511E-3	-28.2855E-3	-155.235E-12	686.898E-3	-15.0765E-3
-3.89445E-3	-155.764E-12	692.149E-3	-11.8607E-3	-156.924E-12	681.943E-3	-3.71245E-3
-3.89945E-3	-156.975E-12	687.844E-3	-16.6408E-3	-156.948E-12	676.629E-3	-7.56488E-3
-3.90445E-3	-156.684E-12	677.100E-3	-30.9908E-3	-156.074E-12	688.360E-3	-16.4089E-3
-3.90945E-3	-155.753E-12	669.573E-3	-24.2691E-3	-155.854E-12	694.058E-3	-13.5656E-3
-3.91446E-3	-155.390E-12	665.078E-3	-18.1715E-3	-155.860E-12	688.451E-3	3.42234E-3
-3.91946E-3	-157.819E-12	668.021E-3	-13.3915E-3	-156.617E-12	688.100E-3	3.10391E-3
-3.92446E-3	-158.353E-12	669.520E-3	12.2966E-3	-157.821E-12	701.862E-3	-9.59374E-3
-3.92946E-3	-157.606E-12	669.174E-3	5.21003E-3	-157.594E-12	711.773E-3	-8.72011E-3
-3.93447E-3	-157.197E-12	679.056E-3	-29.7902E-3	-156.585E-12	698.452E-3	-14.3654E-3
-3.93947E-3	-159.622E-12	676.831E-3	-32.6206E-3	-158.448E-12	678.269E-3	-35.1226E-3
-3.94447E-3	-160.962E-12	662.957E-3	-23.4589E-3	-158.692E-12	675.282E-3	-35.2742E-3
-3.94947E-3	-159.554E-12	664.620E-3	-33.6323E-3	-158.869E-12	689.058E-3	-29.6552E-3
-3.95448E-3	-158.706E-12	670.650E-3	-39.4304E-3	-160.083E-12	698.417E-3	-27.4488E-3
-3.95948E-3	-159.569E-12	656.603E-3	-34.6576E-3	-161.547E-12	691.775E-3	-8.25160E-3
-3.96448E-3	-161.054E-12	653.055E-3	-20.4218E-3	-162.049E-12	684.609E-3	-6.05652E-3
-3.96948E-3	-159.740E-12	652.674E-3	760.010E-6	-162.846E-12	695.823E-3	-20.3531E-3
-3.97449E-3	-158.747E-12	642.001E-3	7.11525E-3	-162.602E-12	713.263E-3	-23.3727E-3
-3.97949E-3	-157.951E-12	665.739E-3	16.0848E-3	-163.219E-12	696.473E-3	-16.2091E-3
-3.98449E-3	-159.595E-12	680.949E-3	21.5558E-3	-162.867E-12	655.202E-3	-4.77733E-3
-3.98949E-3	-158.844E-12	669.876E-3	-3.45811E-3	-162.147E-12	656.256E-3	-3.08362E-3
-3.99450E-3	-158.761E-12	670.786E-3	-25.7903E-3	-162.642E-12	688.777E-3	-14.5771E-3
-3.99950E-3	-158.097E-12	665.081E-3	-31.3495E-3	-161.461E-12	697.517E-3	-20.7804E-3
-4.00450E-3	-158.484E-12	663.074E-3	-36.0103E-3	-161.952E-12	690.560E-3	-15.1795E-3
-4.00950E-3	-159.313E-12	667.433E-3	-22.3196E-3	-160.442E-12	685.241E-3	-6.19029E-3
-4.01451E-3	-159.069E-12	651.595E-3	464.269E-6	-160.833E-12	672.457E-3	-16.4322E-3
-4.01951E-3	-160.772E-12	654.517E-3	15.4471E-3	-160.892E-12	667.099E-3	-31.5203E-3
-4.02451E-3	-159.796E-12	690.164E-3	26.7051E-3	-162.220E-12	684.274E-3	-27.4866E-3
-4.02951E-3	-161.522E-12	703.210E-3	28.2943E-3	-162.993E-12	691.151E-3	-16.9989E-3
-4.03452E-3	-162.938E-12	677.461E-3	18.9656E-3	-161.385E-12	682.387E-3	-15.0324E-3
-4.03952E-3	-164.302E-12	645.769E-3	-16.5851E-3	-161.094E-12	671.976E-3	-22.2272E-3
-4.04452E-3	-162.338E-12	643.056E-3	-44.0521E-3	-162.735E-12	653.208E-3	-19.6275E-3
-4.04952E-3	-163.450E-12	677.980E-3	-39.5736E-3	-164.333E-12	650.523E-3	-3.22591E-3
-4.05453E-3	-166.041E-12	704.303E-3	-31.8542E-3	-164.565E-12	666.166E-3	2.43066E-3
-4.05953E-3	-167.309E-12	714.221E-3	-33.0095E-3	-164.193E-12	678.430E-3	-8.24640E-3
-4.06453E-3	-165.944E-12	741.958E-3	-38.4793E-3	-164.217E-12	677.950E-3	-23.3736E-3
-4.06953E-3	-165.625E-12	750.118E-3	-31.1137E-3	-165.309E-12	665.177E-3	-40.6389E-3
-4.07454E-3	-167.923E-12	704.577E-3	-21.7156E-3	-166.748E-12	650.272E-3	-37.0727E-3
-4.07954E-3	-168.056E-12	662.039E-3	-6.02634E-3	-164.934E-12	643.979E-3	-7.31687E-3
-4.08454E-3	-165.927E-12	657.764E-3	16.8318E-3	-163.766E-12	634.487E-3	-2.48088E-3
-4.08954E-3	-165.941E-12	668.076E-3	25.7708E-3	-164.796E-12	622.073E-3	-30.3012E-3
-4.09455E-3	-166.520E-12	682.227E-3	22.1106E-3	-166.440E-12	638.357E-3	-33.4055E-3
-4.09955E-3	-167.953E-12	696.078E-3	20.3047E-3	-164.391E-12	669.417E-3	-26.2056E-3
-4.10455E-3	-167.257E-12	713.547E-3	13.6051E-3	-162.635E-12	672.768E-3	-39.5197E-3
-4.10955E-3	-166.547E-12	727.750E-3	-5.48484E-3	-165.307E-12	653.794E-3	-40.7648E-3
-4.11456E-3	-166.494E-12	717.416E-3	-15.1602E-3	-167.288E-12	656.010E-3	-18.6790E-3
-4.11956E-3	-167.465E-12	694.718E-3	-3.62897E-3	-166.436E-12	662.145E-3	-15.9848E-3
-4.12456E-3	-167.299E-12	689.291E-3	8.00378E-3	-165.143E-12	654.067E-3	-38.6408E-3
-4.12956E-3	-166.789E-12	695.638E-3	1.77416E-3	-165.403E-12	660.705E-3	-41.5581E-3
-4.13457E-3	-167.187E-12	691.790E-3	-14.1209E-3	-168.281E-12	678.460E-3	-23.9770E-3
-4.13957E-3	-167.756E-12	684.032E-3	-23.2832E-3	-168.608E-12	690.536E-3	-4.26225E-3
-4.14457E-3	-167.628E-12	673.792E-3	-8.05858E-3	-167.827E-12	689.514E-3	676.122E-6
-4.14957E-3	-167.362E-12	655.621E-3	9.25262E-3	-167.223E-12	676.542E-3	-19.5441E-3
-4.15458E-3	-167.800E-12	652.462E-3	12.6541E-3	-169.516E-12	661.399E-3	-44.6270E-3
-4.15958E-3	-169.214E-12	654.322E-3	3.30646E-3	-172.274E-12	658.954E-3	-43.7709E-3
-4.16458E-3	-167.936E-12	649.118E-3	-11.8824E-3	-171.653E-12	679.146E-3	-24.8687E-3
-4.16958E-3	-167.178E-12	658.796E-3	-11.3945E-3	-170.298E-12	694.911E-3	-14.9534E-3
-4.17459E-3	-167.661E-12	665.166E-3	-20.5074E-3	-170.309E-12	690.866E-3	-6.19215E-3
-4.17959E-3	-167.967E-12	649.862E-3	-33.0246E-3	-174.787E-12	695.638E-3	-17.5425E-3
-4.18459E-3	-169.849E-12	636.973E-3	-17.9065E-3	-171.142E-12	706.065E-3	-36.3335E-3
-4.18959E-3	-168.684E-12	658.482E-3	-4.78441E-3	-169.294E-12	689.340E-3	-33.4825E-3
-4.19460E-3	-168.541E-12	697.510E-3	2.12225E-3	-169.026E-12	655.738E-3	-24.7350E-3
-4.19960E-3	-169.834E-12	696.790E-3	2.56065E-3	-172.186E-12	654.302E-3	-15.7937E-3
-4.20460E-3	-170.893E-12	677.751E-3	-17.0913E-3	-171.924E-12	683.938E-3	-9.25031E-3
-4.20960E-3	-169.211E-12	680.238E-3	-18.8992E-3	-170.705E-12	704.993E-3	-17.9311E-3
-4.21461E-3	-170.012E-12	669.247E-3	4.70347E-3	-171.920E-12	708.422E-3	-29.7805E-3
-4.21961E-3	-170.502E-12	657.703E-3	19.9639E-3	-171.788E-12	713.723E-3	-28.8405E-3
-4.22461E-3	-170.550E-12	672.902E-3	18.1197E-3	-173.187E-12	696.447E-3	-27.4983E-3
-4.22961E-3	-170.594E-12	684.027E-3	524.710E-6	-173.169E-12	662.398E-3	-33.0150E-3
-4.23462E-3	-168.961E-12	671.791E-3	-9.74793E-3	-174.373E-12	666.180E-3	-23.3383E-3
-4.23962E-3	-170.171E-12	654.471E-3	-7.09065E-3	-170.697E-12	680.369E-3	5.95999E-3
-4.24462E-3	-169.884E-12	655.473E-3	-13.6652E-3	-170.888E-12	697.239E-3	17.7119E-3
-4.24962E-3	-169.973E-12	672.187E-3	-21.5238E-3	-171.536E-12	703.653E-3	6.03586E-3
-4.25463E-3	-169.676E-12	686.468E-3	-22.6430E-3	-173.316E-12	678.311E-3	720.721E-6
-4.25963E-3	-170.323E-12	676.028E-3	-29.5630E-3	-172.605E-12	670.372E-3	-3.46851E-3
-4.26463E-3	-171.834E-12	641.851E-3	-30.9442E-3	-171.569E-12	674.311E-3	-17.8063E-3
-4.26963E-3	-172.748E-12	609.852E-3	-10.0943E-3	-170.303E-12	685.044E-3	-17.5112E-3
-4.27464E-3	-173.221E-12	610.182E-3	22.3633E-3	-171.934E-12	716.830E-3	-27.5024E-3
-4.27964E-3	-172.866E-12	627.034E-3	10.6319E-3	-173.213E-12	715.019E-3	-46.1287E-3
-4.28464E-3	-174.104E-12	635.326E-3	-28.4986E-3	-171.660E-12	687.299E-3	-36.5815E-3
-4.28964E-3	-175.487E-12	645.300E-3	-27.8381E-3	-172.264E-12	657.785E-3	-54.2171E-3
-4.29465E-3	-175.918E-12	656.171E-3	-426.775E-6	-173.104E-12	631.841E-3	-88.4831E-3
-4.29965E-3	-176.745E-12	686.132E-3	15.0437E-3	-175.409E-12	659.622E-3	-53.0696E-3
-4.30465E-3	-177.591E-12	709.622E-3	7.82905E-3	-175.240E-12	690.058E-3	29.7238E-6
-4.30965E-3	-177.284E-12	708.610E-3	7.59521E-3	-174.892E-12	669.590E-3	-2.64929E-3
-4.31466E-3	-175.438E-12	701.175E-3	9.39684E-3	-176.721E-12	663.119E-3	-20.0641E-3
-4.31966E-3	-176.529E-12	687.712E-3	5.73347E-3	-178.121E-12	673.855E-3	-13.5823E-3
-4.32466E-3	-176.782E-12	689.605E-3	6.85249E-3	-178.513E-12	674.633E-3	990.723E-6
-4.32966E-3	-176.594E-12	684.454E-3	-3.39073E-3	-177.737E-12	680.724E-3	-1.89540E-3
-4.33467E-3	-175.741E-12	666.665E-3	-7.27404E-3	-177.639E-12	691.136E-3	4.75438E-3
-4.33967E-3	-175.460E-12	667.074E-3	-17.2360E-3	-177.413E-12	700.787E-3	-2.17865E-3
-4.34467E-3	-176.627E-12	672.973E-3	-37.2551E-3	-177.935E-12	683.528E-3	-27.7679E-3
-4.34967E-3	-177.236E-12	684.237E-3	-32.2892E-3	-177.549E-12	658.206E-3	-19.3100E-3
-4.35468E-3	-177.292E-12	694.773E-3	-19.4446E-3	-176.389E-12	668.690E-3	-3.70569E-3
-4.35968E-3	-176.882E-12	679.595E-3	-11.4407E-3	-175.493E-12	684.201E-3	16.0913E-3
-4.36468E-3	-179.119E-12	665.466E-3	-5.23029E-3	-176.333E-12	672.906E-3	25.5273E-3
-4.36968E-3	-179.050E-12	684.066E-3	-969.395E-6	-177.120E-12	661.281E-3	-34.7822E-6
-4.37469E-3	-178.592E-12	697.206E-3	10.9575E-3	-178.589E-12	661.785E-3	-11.1809E-3
-4.37969E-3	-179.177E-12	676.702E-3	16.6475E-3	-179.231E-12	668.205E-3	-2.30407E-3
-4.38469E-3	-180.123E-12	670.298E-3	3.24903E-3	-178.997E-12	681.186E-3	-5.13421E-3
-4.38969E-3	-180.074E-12	675.136E-3	-2.06400E-3	-178.991E-12	688.049E-3	-13.5476E-3
-4.39470E-3	-180.815E-12	671.875E-3	9.01254E-3	-181.050E-12	694.838E-3	-15.5342E-3
-4.39970E-3	-179.395E-12	681.301E-3	12.3868E-3	-180.506E-12	699.011E-3	-27.2126E-3
-4.40470E-3	-178.407E-12	686.229E-3	17.8441E-3	-182.337E-12	668.770E-3	-45.4689E-3
-4.40970E-3	-179.250E-12	680.295E-3	24.8403E-3	-184.060E-12	645.695E-3	-31.3156E-3
-4.41471E-3	-179.952E-12	666.567E-3	4.20984E-3	-182.874E-12	671.091E-3	-6.54701E-3
-4.41971E-3	-178.087E-12	663.155E-3	-30.8996E-3	-181.879E-12	687.749E-3	-7.70213E-3
-4.42471E-3	-178.251E-12	664.621E-3	-30.3629E-3	-184.999E-12	683.561E-3	-4.84428E-3
-4.42971E-3	-179.263E-12	633.203E-3	-28.5566E-3	-186.141E-12	684.529E-3	8.79783E-3
-4.43472E-3	-180.315E-12	631.591E-3	-36.7906E-3	-182.396E-12	678.788E-3	8.75172E-3
-4.43972E-3	-179.190E-12	677.016E-3	-11.7913E-3	-181.159E-12	671.609E-3	-12.7669E-3
-4.44472E-3	-178.145E-12	691.047E-3	-2.52459E-3	-180.895E-12	675.133E-3	-45.3153E-3
-4.44972E-3	-178.288E-12	675.301E-3	-3.15710E-3	-183.302E-12	669.480E-3	-43.2980E-3
-4.45473E-3	-180.357E-12	658.182E-3	7.66786E-3	-182.898E-12	649.841E-3	-8.87252E-3
-4.45973E-3	-182.034E-12	652.697E-3	-9.84405E-3	-179.695E-12	643.744E-3	-3.90521E-3
-4.46473E-3	-180.846E-12	670.952E-3	-26.4977E-3	-179.394E-12	649.293E-3	-4.91897E-3
-4.46973E-3	-179.771E-12	695.948E-3	-19.3004E-3	-184.050E-12	658.912E-3	22.8853E-3
-4.47474E-3	-180.882E-12	711.953E-3	-41.1895E-3	-183.512E-12	665.206E-3	19.7296E-3
-4.47974E-3	-182.890E-12	706.718E-3	-60.4169E-3	-180.316E-12	652.508E-3	-10.3542E-3
-4.48474E-3	-183.596E-12	680.449E-3	-40.6223E-3	-181.992E-12	644.553E-3	-20.0180E-3
-4.48974E-3	-182.547E-12	664.179E-3	-29.2475E-3	-183.342E-12	665.788E-3	-17.4093E-3
-4.49475E-3	-182.565E-12	663.875E-3	-24.5715E-3	-183.917E-12	681.272E-3	-17.0198E-3
-4.49975E-3	-182.206E-12	653.618E-3	4.02019E-3	-183.973E-12	669.572E-3	-11.3030E-3
-4.50475E-3	-183.098E-12	658.075E-3	11.3427E-3	-185.184E-12	663.080E-3	467.014E-6
-4.50975E-3	-183.274E-12	688.644E-3	-24.8866E-3	-184.034E-12	671.970E-3	-9.69860E-3
-4.51476E-3	-183.208E-12	700.714E-3	-39.1320E-3	-186.482E-12	673.683E-3	-17.8614E-3
-4.51976E-3	-184.708E-12	696.509E-3	-31.5355E-3	-186.799E-12	673.101E-3	-3.55069E-3
-4.52476E-3	-186.232E-12	700.975E-3	-47.1192E-3	-184.767E-12	680.775E-3	-9.54606E-3
-4.52976E-3	-186.322E-12	698.824E-3	-71.7512E-3	-184.257E-12	683.121E-3	-29.7131E-3
-4.53477E-3	-185.193E-12	687.744E-3	-69.3141E-3	-186.733E-12	680.009E-3	-31.8045E-3
-4.53977E-3	-186.113E-12	691.075E-3	-31.2061E-3	-186.882E-12	686.614E-3	-45.1619E-3
-4.54477E-3	-187.901E-12	706.300E-3	-3.56631E-3	-185.507E-12	701.651E-3	-64.7139E-3
-4.54977E-3	-187.326E-12	710.473E-3	3.62456E-3	-185.827E-12	707.047E-3	-43.2093E-3
-4.55478E-3	-185.989E-12	688.326E-3	2.10063E-3	-187.118E-12	702.220E-3	-8.76308E-3
-4.55978E-3	-187.335E-12	664.142E-3	-23.3425E-3	-188.473E-12	699.755E-3	8.49646E-3
-4.56478E-3	-189.108E-12	677.478E-3	-45.4708E-3	-188.267E-12	696.383E-3	21.4795E-3
-4.56978E-3	-188.404E-12	716.209E-3	-41.5624E-3	-187.984E-12	687.390E-3	18.8574E-3
-4.57479E-3	-186.602E-12	738.598E-3	-32.3078E-3	-188.528E-12	675.893E-3	-9.39761E-3
-4.57979E-3	-185.781E-12	727.565E-3	-24.3863E-3	-189.186E-12	658.039E-3	-20.3592E-3
-4.58479E-3	-186.266E-12	679.957E-3	-1.89616E-3	-189.500E-12	659.932E-3	-4.90715E-3
-4.58979E-3	-186.843E-12	628.170E-3	18.2902E-3	-188.654E-12	681.695E-3	-7.41925E-3
-4.59480E-3	-185.776E-12	620.859E-3	19.7945E-3	-189.791E-12	689.764E-3	-10.9433E-3
-4.59980E-3	-186.159E-12	628.007E-3	8.29952E-3	-189.134E-12	696.303E-3	-3.22206E-3
-4.60480E-3	-186.147E-12	626.352E-3	-13.0110E-3	-189.193E-12	695.598E-3	-21.4840E-3
-4.60980E-3	-185.677E-12	638.620E-3	-31.3032E-3	-189.929E-12	673.043E-3	-31.5132E-3
-4.61481E-3	-187.311E-12	652.423E-3	-27.4301E-3	-187.615E-12	659.191E-3	-1.40911E-3
-4.61981E-3	-188.209E-12	648.648E-3	-18.7923E-3	-188.218E-12	671.299E-3	17.0053E-3
-4.62481E-3	-188.800E-12	662.901E-3	-22.4571E-3	-188.305E-12	673.217E-3	15.9132E-3
-4.62981E-3	-189.020E-12	685.629E-3	-17.5249E-3	-190.176E-12	667.436E-3	8.57983E-3
-4.63482E-3	-189.884E-12	673.168E-3	-7.06931E-3	-187.896E-12	679.762E-3	-21.5857E-3
-4.63982E-3	-189.513E-12	674.067E-3	-15.7980E-3	-189.142E-12	683.888E-3	-48.3756E-3
-4.64482E-3	-190.902E-12	695.899E-3	-22.4242E-3	-188.972E-12	672.441E-3	-39.9069E-3
-4.64982E-3	-191.599E-12	682.080E-3	-17.3953E-3	-191.368E-12	676.758E-3	-27.9728E-3
-4.65483E-3	-191.506E-12	671.494E-3	-16.9926E-3	-189.093E-12	678.127E-3	-15.0888E-3
-4.65983E-3	-191.494E-12	679.924E-3	5.29058E-3	-188.985E-12	656.122E-3	5.13137E-3
-4.66483E-3	-189.597E-12	651.884E-3	27.0537E-3	-191.990E-12	650.874E-3	4.95266E-3
-4.66983E-3	-188.707E-12	633.704E-3	2.41851E-3	-191.597E-12	651.733E-3	-21.4107E-3
-4.67484E-3	-189.654E-12	655.516E-3	-19.1976E-3	-190.266E-12	639.256E-3	-34.0498E-3
-4.67984E-3	-190.976E-12	642.752E-3	-7.61797E-3	-189.323E-12	634.068E-3	-40.1374E-3
-4.68484E-3	-189.766E-12	618.109E-3	-14.0074E-3	-190.149E-12	630.923E-3	-59.2683E-3
-4.68984E-3	-188.534E-12	654.119E-3	-30.2868E-3	-190.432E-12	629.916E-3	-45.4110E-3
-4.69485E-3	-190.722E-12	691.314E-3	-24.3124E-3	-189.567E-12	656.252E-3	-29.2733E-3
-4.69985E-3	-189.905E-12	682.171E-3	-8.46193E-3	-187.715E-12	673.585E-3	-58.2171E-3
-4.70485E-3	-190.250E-12	687.590E-3	2.25005E-3	-188.650E-12	658.291E-3	-84.0304E-3
-4.70985E-3	-191.195E-12	706.371E-3	5.24899E-3	-189.237E-12	663.456E-3	-71.7184E-3
-4.71486E-3	-191.811E-12	696.752E-3	-8.35916E-3	-189.304E-12	672.560E-3	-61.0717E-3
-4.71986E-3	-193.120E-12	683.464E-3	-33.3108E-3	-189.309E-12	656.003E-3	-60.2615E-3
-4.72486E-3	-193.851E-12	682.435E-3	-16.3420E-3	-190.142E-12	656.876E-3	-35.2347E-3
-4.72986E-3	-193.453E-12	676.686E-3	13.4576E-3	-192.236E-12	666.063E-3	-18.1928E-3
-4.73487E-3	-192.545E-12	677.233E-3	15.2805E-3	-192.538E-12	649.732E-3	-21.5423E-3
-4.73987E-3	-193.992E-12	684.836E-3	13.0976E-3	-195.127E-12	625.467E-3	-14.4960E-3
-4.74487E-3	-192.988E-12	672.849E-3	-8.86414E-3	-196.135E-12	624.708E-3	-21.9525E-3
-4.74988E-3	-192.334E-12	643.350E-3	-41.5587E-3	-195.742E-12	656.090E-3	-37.2673E-3
-4.75488E-3	-192.929E-12	638.823E-3	-54.7638E-3	-197.055E-12	691.900E-3	-22.1649E-3
-4.75988E-3	-194.351E-12	653.419E-3	-42.2156E-3	-198.255E-12	709.065E-3	-11.6524E-3
-4.76488E-3	-192.237E-12	659.281E-3	-32.0394E-3	-197.847E-12	695.417E-3	-21.5618E-3
-4.76988E-3	-192.687E-12	659.385E-3	-31.2728E-3	-197.908E-12	682.391E-3	-9.65649E-3
-4.77489E-3	-194.733E-12	647.198E-3	-24.1779E-3	-197.823E-12	700.196E-3	2.01362E-3
-4.77989E-3	-193.388E-12	665.113E-3	-23.9891E-3	-196.437E-12	697.326E-3	-8.89010E-3
-4.78489E-3	-193.857E-12	708.487E-3	-18.4102E-3	-197.005E-12	651.648E-3	-13.9153E-3
-4.78989E-3	-195.131E-12	696.984E-3	1.52327E-3	-196.630E-12	647.297E-3	-20.8962E-3
-4.79490E-3	-196.294E-12	666.519E-3	12.6616E-3	-195.464E-12	680.154E-3	-32.2479E-3
-4.79990E-3	-195.699E-12	662.339E-3	1.85404E-3	-195.181E-12	670.222E-3	-27.1935E-3
-4.80490E-3	-196.118E-12	645.708E-3	-13.7314E-3	-195.375E-12	650.680E-3	-13.5548E-3
-4.80990E-3	-196.375E-12	632.743E-3	-10.0463E-3	-195.064E-12	639.751E-3	-18.3944E-3
-4.81491E-3	-196.430E-12	656.560E-3	-6.31324E-3	-194.337E-12	650.313E-3	-14.3281E-3
-4.81991E-3	-196.711E-12	677.980E-3	-23.1474E-3	-195.075E-12	684.529E-3	1.68991E-3
-4.82491E-3	-195.512E-12	678.616E-3	-36.1191E-3	-196.256E-12	679.316E-3	3.56391E-3
-4.82991E-3	-197.020E-12	685.671E-3	-32.3942E-3	-195.904E-12	654.175E-3	21.0125E-3
-4.83492E-3	-196.220E-12	705.423E-3	-19.2373E-3	-196.772E-12	649.986E-3	20.3573E-3
-4.83992E-3	-195.246E-12	698.235E-3	-11.1697E-3	-197.134E-12	660.075E-3	-23.1153E-3
-4.84492E-3	-195.242E-12	654.212E-3	-4.05882E-3	-198.257E-12	663.369E-3	-33.1150E-3
-4.84992E-3	-195.802E-12	639.391E-3	7.81880E-3	-197.533E-12	657.316E-3	-3.41575E-3
-4.85493E-3	-193.810E-12	662.067E-3	2.47926E-3	-198.094E-12	666.645E-3	4.34995E-3
-4.85993E-3	-193.933E-12	660.852E-3	-12.3422E-3	-199.110E-12	671.992E-3	-2.02659E-3
-4.86493E-3	-195.551E-12	636.733E-3	-21.7257E-3	-198.850E-12	674.432E-3	-11.6976E-3
-4.86993E-3	-195.562E-12	646.180E-3	-35.2220E-3	-198.045E-12	679.442E-3	-29.8605E-3
-4.87494E-3	-197.312E-12	677.607E-3	-38.1306E-3	-197.363E-12	668.625E-3	-39.2456E-3
-4.87994E-3	-197.808E-12	690.673E-3	-26.3526E-3	-199.845E-12	673.759E-3	-31.2885E-3
-4.88494E-3	-198.423E-12	683.918E-3	-31.6397E-3	-200.049E-12	676.232E-3	-23.9153E-3
-4.88995E-3	-198.984E-12	639.507E-3	-63.1910E-3	-198.521E-12	667.713E-3	-28.6641E-3
-4.89495E-3	-200.159E-12	606.512E-3	-83.5403E-3	-198.374E-12	670.943E-3	-14.6557E-3
-4.89995E-3	-201.453E-12	640.586E-3	-61.5541E-3	-199.513E-12	664.831E-3	349.879E-6
-4.90495E-3	-200.194E-12	669.103E-3	-35.4620E-3	-201.626E-12	651.656E-3	-11.1023E-3
-4.90995E-3	-200.207E-12	675.533E-3	-29.4453E-3	-200.522E-12	625.279E-3	-13.3581E-3
-4.91496E-3	-200.699E-12	699.972E-3	-33.4010E-3	-199.724E-12	613.548E-3	-2.89395E-3
-4.91996E-3	-201.640E-12	716.152E-3	-35.3906E-3	-199.756E-12	654.601E-3	-11.9309E-3
-4.92496E-3	-200.950E-12	731.284E-3	-31.6295E-3	-201.774E-12	679.657E-3	-33.1970E-3
-4.92996E-3	-200.625E-12	732.211E-3	-17.3651E-3	-201.586E-12	648.139E-3	-26.6814E-3
-4.93497E-3	-200.000E-12	688.382E-3	-512.679E-6	-200.172E-12	635.779E-3	-8.58118E-3
-4.93997E-3	-200.452E-12	640.952E-3	-13.0009E-3	-200.318E-12	643.798E-3	-20.5740E-3
-4.94497E-3	-201.235E-12	635.794E-3	-36.7902E-3	-200.374E-12	642.456E-3	-31.2637E-3
-4.94997E-3	-202.121E-12	647.965E-3	-40.4637E-3	-200.963E-12	656.598E-3	-20.8577E-3
-4.95498E-3	-201.606E-12	639.643E-3	-34.5112E-3	-200.509E-12	649.629E-3	-26.1109E-3
-4.95998E-3	-201.907E-12	638.529E-3	-33.9960E-3	-201.337E-12	604.008E-3	-41.8165E-3
-4.96498E-3	-204.059E-12	645.818E-3	-30.7149E-3	-201.636E-12	590.191E-3	-45.8754E-3
-4.96998E-3	-204.158E-12	642.908E-3	-27.6322E-3	-202.113E-12	641.311E-3	-50.5636E-3
-4.97499E-3	-205.648E-12	682.927E-3	-35.6259E-3	-202.712E-12	676.913E-3	-57.4725E-3
-4.97999E-3	-205.058E-12	720.191E-3	-42.3841E-3	-201.801E-12	657.194E-3	-34.2774E-3
-4.98499E-3	-205.700E-12	690.580E-3	-48.2547E-3	-203.157E-12	645.138E-3	10.8394E-3
-4.98999E-3	-205.144E-12	664.001E-3	-50.2916E-3	-203.950E-12	663.300E-3	12.9138E-3
-4.99500E-3	-207.391E-12	666.348E-3	-39.1000E-3	-204.310E-12	687.217E-3	-2.30180E-3
-5.00000E-3	-206.179E-12	673.949E-3	-13.8920E-3	-205.575E-12	687.670E-3	1.19349E-3
