Experiment	bias spectroscopy	
Date	19.01.2016 18:45:00	
User		
X (m)	50.612E-9	
Y (m)	256.478E-9	
Z (m)	-132.607E-9	
Z offset (m)	0E+0	
Settling time (s)	200E-6	
Integration time (s)	5E-3	
Z-Ctrl hold	TRUE	
Final Z (m)	N/A	
Filter type	None	
Order		
Cutoff frq		
Comment01	MnPc/Pb(111)	
Comment02	dz =00pm	
Comment03	7 Sweeps	
Comment04	MagField =0.T	
Comment05	Divider 1:10	
Comment06	Setpoint:5mV,200 pA	
Comment07	Lockin: 50uVrms,5ms,5mV	
Comment08	Gain:9; 912Hz modulation	
Comment09	T=1.06K	
Bias>Bias (V)	5E-3	
Bias>Calibration (V/V)	81.475E-3	
Bias>Offset (V)	1.046E-3	
Bias Spectroscopy>Sweep Start (V)	5E-3	
Bias Spectroscopy>Sweep End (V)	-5E-3	
Bias Spectroscopy>Num Pixel	2000	
Bias Spectroscopy>Z Avg time (s)	500E-3	
Bias Spectroscopy>Z offset (m)	0E+0	
Bias Spectroscopy>1st Settling time (s)	500E-3	
Bias Spectroscopy>Settling time (s)	200E-6	
Bias Spectroscopy>Integration time (s)	5E-3	
Bias Spectroscopy>End Settling time (s)	500E-3	
Bias Spectroscopy>Z control time (s)	500E-3	
Bias Spectroscopy>Max Slew rate (V/s)	Inf	
Bias Spectroscopy>backward sweep	TRUE	
Bias Spectroscopy>Z-controller hold	TRUE	
Bias Spectroscopy>Number of sweeps	7	
Bias Spectroscopy>Channels	Current (A);X% LockIn (V);Y% LockIn (V)	
Bias Spectroscopy>Reset Bias	TRUE	
Bias Spectroscopy>Record final Z	FALSE	
Bias Spectroscopy>Lock-In run	FALSE	
Bias Spectroscopy>Sweep mode	Linear	
Bias Spectroscopy>MultiLine Settings : Segment Start (V), Segment End (V), Settling (s), Integration (s), Steps (xn)	100E-3,3.3E-3,100E-6,10E-3,2500;3.3E-3,-3.3E-3,100E-6,10E-3,10;-3.3E-3,-100E-3,100E-6,10E-3,2500	
Current>Current (A)	200.113E-12	
Current>Calibration (A/V)	999.99900E-12	
Current>Offset (A)	-455.429E-15	
Current>Gain	LN 10^9	
Z-Controller>Z (m)	-132.608E-9	
Z-Controller>Controller name	log Current	
Z-Controller>Controller status	ON	
Z-Controller>Setpoint	200E-12	
Z-Controller>Setpoint unit	A	
Z-Controller>P gain	2.96994E-12	
Z-Controller>I gain	67.0321E-9	
Z-Controller>Time const (s)	44.3062E-6	
Z-Controller>TipLift (m)	0E+0	
Z-Controller>Switch off delay (s)	50E-3	
Current (A)	199.706E-12	
Z (m)	-132.608E-9	

[DATA]
Bias calc (V)	Current (A)	X% LockIn (V)	Y% LockIn (V)	Current [bwd] (A)	X% LockIn [bwd] (V)	Y% LockIn [bwd] (V)
5.00000E-3	198.093E-12	635.535E-3	-15.0942E-3	197.594E-12	612.557E-3	-25.4348E-3
4.99500E-3	197.231E-12	640.158E-3	-8.79567E-3	197.176E-12	632.699E-3	-36.0060E-3
4.98999E-3	198.094E-12	633.277E-3	-9.27018E-3	196.559E-12	646.924E-3	-15.7966E-3
4.98499E-3	199.962E-12	623.282E-3	-22.9544E-3	196.263E-12	673.733E-3	5.69030E-3
4.97999E-3	200.862E-12	636.218E-3	-29.6178E-3	197.365E-12	712.218E-3	13.9762E-3
4.97499E-3	200.922E-12	660.051E-3	-29.4293E-3	198.843E-12	698.587E-3	13.4521E-3
4.96998E-3	200.648E-12	673.469E-3	-31.2935E-3	198.357E-12	651.774E-3	11.9431E-3
4.96498E-3	200.448E-12	665.680E-3	-30.3825E-3	199.039E-12	638.882E-3	4.82685E-3
4.95998E-3	200.379E-12	641.130E-3	-14.5691E-3	200.111E-12	636.306E-3	-1.88115E-3
4.95498E-3	200.081E-12	637.959E-3	-5.43362E-3	201.154E-12	625.097E-3	-4.97037E-3
4.94997E-3	197.533E-12	652.870E-3	-17.8416E-3	201.215E-12	623.432E-3	-4.43715E-3
4.94497E-3	196.423E-12	647.978E-3	-32.0417E-3	200.855E-12	646.744E-3	9.69527E-3
4.93997E-3	195.257E-12	628.003E-3	-35.2584E-3	200.379E-12	690.224E-3	10.3258E-3
4.93497E-3	194.546E-12	627.341E-3	-29.5948E-3	199.209E-12	695.665E-3	4.76409E-3
4.92996E-3	192.011E-12	626.765E-3	-20.2332E-3	199.165E-12	674.205E-3	-1.85022E-3
4.92496E-3	191.417E-12	631.539E-3	-43.7743E-3	198.698E-12	664.750E-3	-18.7328E-3
4.91996E-3	190.962E-12	644.187E-3	-66.4583E-3	196.785E-12	662.793E-3	-28.3615E-3
4.91496E-3	191.367E-12	624.859E-3	-51.1720E-3	194.654E-12	668.149E-3	-33.0478E-3
4.90995E-3	190.852E-12	596.739E-3	-31.0924E-3	194.088E-12	662.194E-3	-35.3590E-3
4.90495E-3	190.664E-12	600.296E-3	-13.1953E-3	193.388E-12	646.893E-3	-32.7687E-3
4.89995E-3	191.664E-12	610.282E-3	-21.4325E-3	192.713E-12	642.338E-3	-38.9727E-3
4.89495E-3	193.278E-12	624.594E-3	-40.9202E-3	191.275E-12	651.676E-3	-52.5899E-3
4.88995E-3	193.783E-12	644.882E-3	-52.0567E-3	190.575E-12	651.249E-3	-48.0910E-3
4.88494E-3	194.238E-12	629.907E-3	-62.5530E-3	190.753E-12	647.745E-3	-25.7439E-3
4.87994E-3	194.838E-12	619.226E-3	-54.2747E-3	191.171E-12	648.856E-3	-3.91012E-3
4.87494E-3	195.098E-12	629.904E-3	-44.9388E-3	191.348E-12	631.579E-3	-11.7846E-3
4.86993E-3	195.993E-12	628.250E-3	-30.8842E-3	191.537E-12	618.284E-3	-45.2180E-3
4.86493E-3	196.409E-12	608.935E-3	7.44534E-3	191.782E-12	624.346E-3	-67.6951E-3
4.85993E-3	194.016E-12	596.900E-3	34.7720E-3	192.690E-12	636.086E-3	-57.9604E-3
4.85493E-3	194.526E-12	615.084E-3	23.9232E-3	193.922E-12	650.575E-3	-20.2052E-3
4.84992E-3	194.729E-12	639.148E-3	-7.10452E-3	193.374E-12	671.640E-3	10.8772E-3
4.84492E-3	194.303E-12	658.883E-3	-38.6485E-3	193.871E-12	689.378E-3	26.9877E-3
4.83992E-3	192.703E-12	664.248E-3	-45.1094E-3	193.935E-12	675.932E-3	24.5956E-3
4.83492E-3	193.326E-12	643.650E-3	-21.1440E-3	194.311E-12	639.425E-3	-10.8913E-3
4.82991E-3	192.438E-12	644.524E-3	-27.7751E-3	193.355E-12	624.745E-3	-30.4652E-3
4.82491E-3	191.869E-12	648.806E-3	-62.6318E-3	193.448E-12	631.656E-3	-11.2201E-3
4.81991E-3	191.366E-12	611.024E-3	-60.1312E-3	193.487E-12	642.803E-3	-545.017E-6
4.81491E-3	191.348E-12	598.572E-3	-37.4383E-3	192.935E-12	659.793E-3	-10.7798E-3
4.80990E-3	191.508E-12	626.946E-3	-23.1368E-3	191.833E-12	652.917E-3	-21.2451E-3
4.80490E-3	191.927E-12	640.497E-3	-23.9505E-3	191.709E-12	629.703E-3	-27.1823E-3
4.79990E-3	191.914E-12	660.492E-3	-43.2561E-3	191.220E-12	629.951E-3	-7.90392E-3
4.79490E-3	191.976E-12	690.697E-3	-52.5745E-3	189.811E-12	635.816E-3	3.33023E-3
4.78989E-3	193.060E-12	672.329E-3	-36.1551E-3	189.668E-12	630.918E-3	-40.0686E-3
4.78489E-3	193.629E-12	625.721E-3	-16.6126E-3	189.237E-12	625.950E-3	-71.2966E-3
4.77989E-3	194.030E-12	597.146E-3	-18.6007E-3	188.991E-12	637.183E-3	-61.6264E-3
4.77489E-3	193.813E-12	600.982E-3	-31.6804E-3	188.409E-12	643.049E-3	-57.9229E-3
4.76988E-3	193.366E-12	626.952E-3	-25.7409E-3	188.637E-12	623.211E-3	-69.0500E-3
4.76488E-3	193.681E-12	639.874E-3	-7.10505E-3	188.682E-12	616.588E-3	-60.9523E-3
4.75988E-3	193.578E-12	634.105E-3	-225.246E-6	189.091E-12	622.679E-3	-46.0428E-3
4.75488E-3	192.552E-12	639.467E-3	-6.43457E-3	189.930E-12	629.596E-3	-50.7513E-3
4.74988E-3	191.243E-12	650.798E-3	-27.4570E-3	190.458E-12	642.142E-3	-32.3346E-3
4.74487E-3	191.374E-12	649.792E-3	-46.3566E-3	191.890E-12	629.595E-3	-4.15036E-3
4.73987E-3	190.330E-12	651.562E-3	-47.2458E-3	191.434E-12	613.751E-3	-9.81635E-3
4.73487E-3	189.621E-12	646.412E-3	-13.5047E-3	191.536E-12	631.140E-3	-21.3565E-3
4.72986E-3	188.997E-12	653.123E-3	33.1011E-3	191.502E-12	658.781E-3	-12.0121E-3
4.72486E-3	188.111E-12	678.217E-3	27.1935E-3	191.971E-12	648.622E-3	-7.86159E-3
4.71986E-3	188.211E-12	689.526E-3	-25.0983E-3	191.189E-12	618.510E-3	-21.2266E-3
4.71486E-3	187.102E-12	673.918E-3	-50.5301E-3	190.265E-12	634.261E-3	-22.8125E-3
4.70985E-3	185.910E-12	647.807E-3	-27.0074E-3	189.762E-12	662.100E-3	-24.4111E-3
4.70485E-3	185.509E-12	630.589E-3	-7.91025E-3	188.744E-12	659.713E-3	-39.5640E-3
4.69985E-3	186.251E-12	626.497E-3	937.684E-6	188.643E-12	652.137E-3	-33.7112E-3
4.69485E-3	185.338E-12	629.651E-3	-12.3433E-3	187.130E-12	643.331E-3	-14.3106E-3
4.68984E-3	184.694E-12	624.885E-3	-33.2280E-3	186.262E-12	630.129E-3	-26.3395E-3
4.68484E-3	184.979E-12	629.945E-3	-16.5229E-3	185.716E-12	637.539E-3	-45.1648E-3
4.67984E-3	185.123E-12	650.152E-3	-6.45878E-3	185.298E-12	665.600E-3	-24.5814E-3
4.67484E-3	184.526E-12	656.724E-3	-6.78282E-3	183.653E-12	669.323E-3	12.1868E-3
4.66983E-3	184.666E-12	653.039E-3	-2.83686E-3	183.405E-12	638.269E-3	12.8993E-3
4.66483E-3	185.171E-12	659.696E-3	-21.5907E-3	183.201E-12	622.564E-3	-9.69283E-3
4.65983E-3	184.365E-12	670.995E-3	-41.8657E-3	182.878E-12	633.619E-3	44.3554E-6
4.65483E-3	184.985E-12	671.067E-3	-46.6028E-3	182.755E-12	651.241E-3	24.2041E-3
4.64982E-3	186.056E-12	656.721E-3	-55.5012E-3	182.923E-12	651.146E-3	24.2938E-3
4.64482E-3	184.813E-12	635.741E-3	-62.8523E-3	183.631E-12	629.891E-3	5.05942E-3
4.63982E-3	184.316E-12	631.736E-3	-61.5293E-3	184.383E-12	626.751E-3	-26.9484E-3
4.63482E-3	184.521E-12	639.246E-3	-46.8563E-3	185.803E-12	646.301E-3	-48.8609E-3
4.62981E-3	184.236E-12	621.908E-3	-18.8453E-3	185.637E-12	664.841E-3	-29.6756E-3
4.62481E-3	182.951E-12	603.576E-3	-11.3096E-3	185.328E-12	656.672E-3	586.417E-6
4.61981E-3	182.457E-12	617.085E-3	-21.8070E-3	185.885E-12	646.862E-3	-3.97580E-3
4.61481E-3	181.738E-12	633.960E-3	-36.0625E-3	185.416E-12	666.852E-3	-21.0112E-3
4.60980E-3	181.119E-12	621.844E-3	-39.6838E-3	184.615E-12	691.397E-3	-23.0025E-3
4.60480E-3	179.901E-12	618.205E-3	-27.1508E-3	184.158E-12	699.093E-3	-15.8161E-3
4.59980E-3	179.537E-12	624.317E-3	-28.2474E-3	183.131E-12	673.086E-3	-6.48175E-3
4.59480E-3	179.324E-12	625.149E-3	-42.2514E-3	181.833E-12	627.068E-3	-5.03007E-3
4.58979E-3	179.029E-12	642.807E-3	-45.1464E-3	180.462E-12	610.261E-3	-23.7849E-3
4.58479E-3	178.118E-12	646.969E-3	-36.0760E-3	179.502E-12	621.203E-3	-55.4676E-3
4.57979E-3	178.196E-12	627.594E-3	-14.6805E-3	177.947E-12	628.524E-3	-70.9539E-3
4.57479E-3	178.290E-12	616.355E-3	1.58667E-3	177.378E-12	624.948E-3	-59.4803E-3
4.56978E-3	178.478E-12	624.559E-3	-4.10003E-3	177.296E-12	631.299E-3	-40.0341E-3
4.56478E-3	178.539E-12	649.798E-3	-14.7855E-3	176.981E-12	651.311E-3	-24.1910E-3
4.55978E-3	179.141E-12	660.687E-3	-16.9446E-3	177.433E-12	638.897E-3	-12.0626E-3
4.55478E-3	179.808E-12	647.861E-3	-10.8776E-3	177.652E-12	614.043E-3	-12.0345E-3
4.54977E-3	180.147E-12	653.254E-3	-7.24665E-3	177.959E-12	626.914E-3	-26.2866E-3
4.54477E-3	180.616E-12	671.072E-3	5.10437E-3	178.727E-12	648.549E-3	-40.2299E-3
4.53977E-3	181.087E-12	655.789E-3	17.2398E-3	179.809E-12	663.025E-3	-36.0269E-3
4.53477E-3	180.164E-12	620.082E-3	53.5879E-6	180.843E-12	671.273E-3	-16.5001E-3
4.52976E-3	180.249E-12	609.421E-3	-25.2202E-3	181.197E-12	660.508E-3	4.70797E-3
4.52476E-3	180.234E-12	621.856E-3	-20.4618E-3	181.638E-12	663.171E-3	21.5681E-3
4.51976E-3	179.354E-12	631.445E-3	-2.20568E-3	182.368E-12	674.205E-3	27.1374E-3
4.51476E-3	177.660E-12	636.049E-3	-8.58774E-3	182.170E-12	656.109E-3	10.7684E-3
4.50975E-3	178.190E-12	646.026E-3	-28.2690E-3	181.364E-12	644.478E-3	-28.8644E-3
4.50475E-3	177.759E-12	653.275E-3	-38.1509E-3	181.865E-12	668.183E-3	-55.0122E-3
4.49975E-3	177.178E-12	655.870E-3	-35.5919E-3	180.540E-12	669.161E-3	-57.8602E-3
4.49475E-3	175.522E-12	660.137E-3	-46.8626E-3	179.908E-12	634.421E-3	-66.8650E-3
4.48974E-3	175.589E-12	658.652E-3	-63.1014E-3	179.021E-12	618.478E-3	-66.7616E-3
4.48474E-3	175.434E-12	647.640E-3	-41.4385E-3	178.206E-12	627.207E-3	-40.1757E-3
4.47974E-3	176.289E-12	645.043E-3	-4.12035E-3	176.837E-12	653.686E-3	-10.8071E-3
4.47474E-3	175.862E-12	650.887E-3	-11.2450E-3	176.037E-12	666.628E-3	1.05726E-3
4.46973E-3	177.358E-12	657.340E-3	-31.8222E-3	175.516E-12	649.481E-3	544.870E-6
4.46473E-3	177.776E-12	670.031E-3	-13.9280E-3	175.586E-12	651.063E-3	-6.55201E-3
4.45973E-3	177.707E-12	662.417E-3	6.56335E-3	175.158E-12	679.672E-3	-28.5254E-3
4.45473E-3	178.231E-12	642.826E-3	4.62649E-3	174.935E-12	692.869E-3	-31.8158E-3
4.44972E-3	179.112E-12	644.144E-3	-6.43857E-3	174.686E-12	677.561E-3	2.79330E-3
4.44472E-3	179.359E-12	650.361E-3	-18.6390E-3	175.497E-12	648.942E-3	19.1156E-3
4.43972E-3	179.041E-12	636.998E-3	-13.5024E-3	175.870E-12	622.299E-3	3.17495E-3
4.43472E-3	179.256E-12	641.291E-3	-7.20087E-3	175.141E-12	629.451E-3	-15.2119E-3
4.42971E-3	179.431E-12	669.512E-3	-16.3380E-3	174.582E-12	657.942E-3	-34.7039E-3
4.42471E-3	178.628E-12	691.927E-3	-8.70429E-3	175.614E-12	661.356E-3	-44.1191E-3
4.41971E-3	177.486E-12	700.736E-3	-1.28612E-3	175.708E-12	638.185E-3	-36.8518E-3
4.41471E-3	178.516E-12	683.206E-3	-19.7407E-3	176.960E-12	618.084E-3	-18.1398E-3
4.40970E-3	177.611E-12	648.037E-3	-23.5844E-3	175.851E-12	624.879E-3	-19.5327E-3
4.40470E-3	175.604E-12	621.395E-3	606.280E-6	176.276E-12	642.147E-3	-42.5784E-3
4.39970E-3	175.669E-12	615.401E-3	16.2924E-3	175.504E-12	647.785E-3	-37.0804E-3
4.39470E-3	175.519E-12	642.537E-3	16.4331E-3	175.404E-12	640.776E-3	-24.4739E-3
4.38969E-3	174.662E-12	678.054E-3	-1.60747E-3	174.750E-12	622.277E-3	-20.7920E-3
4.38469E-3	173.169E-12	669.076E-3	-38.2256E-3	174.537E-12	610.393E-3	-15.8994E-3
4.37969E-3	173.632E-12	645.065E-3	-56.0768E-3	172.814E-12	620.307E-3	-23.3244E-3
4.37469E-3	173.044E-12	645.144E-3	-32.2878E-3	172.308E-12	634.019E-3	-37.2465E-3
4.36968E-3	172.402E-12	658.531E-3	655.796E-6	171.962E-12	625.912E-3	-37.3334E-3
4.36468E-3	172.120E-12	656.168E-3	-352.627E-6	171.034E-12	611.695E-3	-21.7476E-3
4.35968E-3	172.113E-12	637.177E-3	-16.9618E-3	170.121E-12	612.299E-3	-26.3412E-3
4.35468E-3	172.892E-12	625.397E-3	-32.0258E-3	170.694E-12	624.874E-3	-37.6974E-3
4.34967E-3	172.638E-12	635.489E-3	-34.0955E-3	170.556E-12	631.425E-3	-21.1370E-3
4.34467E-3	172.650E-12	657.977E-3	-11.5250E-3	169.609E-12	627.764E-3	-5.20096E-3
4.33967E-3	172.020E-12	660.376E-3	88.2913E-6	169.283E-12	644.011E-3	-5.24913E-3
4.33467E-3	172.778E-12	661.337E-3	-21.1804E-3	170.228E-12	665.631E-3	-25.3188E-3
4.32966E-3	171.293E-12	656.647E-3	-32.4514E-3	170.731E-12	662.333E-3	-60.3246E-3
4.32466E-3	171.834E-12	643.369E-3	-1.30811E-3	170.600E-12	657.883E-3	-78.2453E-3
4.31966E-3	171.269E-12	641.012E-3	15.5423E-3	170.138E-12	662.784E-3	-48.9825E-3
4.31466E-3	170.450E-12	637.621E-3	8.33162E-3	170.788E-12	647.082E-3	-17.2119E-3
4.30965E-3	169.511E-12	632.260E-3	6.35869E-3	171.129E-12	619.386E-3	-24.2988E-3
4.30465E-3	169.182E-12	633.721E-3	-2.16647E-3	171.272E-12	627.275E-3	-33.7414E-3
4.29965E-3	167.894E-12	651.708E-3	2.12238E-3	170.996E-12	653.093E-3	-34.3107E-3
4.29465E-3	166.527E-12	668.980E-3	10.7413E-3	170.316E-12	666.147E-3	-28.8968E-3
4.28964E-3	165.893E-12	672.667E-3	969.003E-6	170.045E-12	684.592E-3	-1.02483E-3
4.28464E-3	165.935E-12	668.962E-3	-472.473E-6	170.010E-12	690.171E-3	8.50378E-3
4.27964E-3	165.609E-12	663.998E-3	6.48751E-3	169.720E-12	669.914E-3	-13.0362E-3
4.27464E-3	164.840E-12	649.896E-3	8.26333E-3	168.525E-12	660.989E-3	-17.8912E-3
4.26963E-3	164.828E-12	626.923E-3	-1.03864E-3	168.078E-12	658.997E-3	-8.97463E-3
4.26463E-3	165.590E-12	621.099E-3	-29.4042E-3	168.156E-12	640.762E-3	-14.1644E-3
4.25963E-3	166.132E-12	634.002E-3	-55.7990E-3	167.816E-12	628.777E-3	-27.4073E-3
4.25463E-3	166.758E-12	631.821E-3	-53.8060E-3	167.118E-12	633.427E-3	-28.5610E-3
4.24962E-3	166.506E-12	611.742E-3	-32.4314E-3	165.940E-12	654.540E-3	-22.1837E-3
4.24462E-3	166.469E-12	613.032E-3	-20.3432E-3	166.077E-12	690.246E-3	-7.13278E-3
4.23962E-3	166.942E-12	625.345E-3	229.702E-6	166.553E-12	689.982E-3	16.3599E-3
4.23462E-3	167.181E-12	622.913E-3	20.1486E-3	166.508E-12	652.028E-3	18.3225E-3
4.22961E-3	166.811E-12	636.460E-3	15.8670E-3	165.761E-12	630.476E-3	3.33832E-3
4.22461E-3	167.393E-12	665.349E-3	6.46316E-3	165.994E-12	632.384E-3	-7.10954E-3
4.21961E-3	167.378E-12	687.198E-3	-7.55707E-3	167.129E-12	635.490E-3	-10.1528E-3
4.21461E-3	167.780E-12	704.313E-3	-20.3080E-3	167.294E-12	641.797E-3	-22.1805E-3
4.20960E-3	167.131E-12	690.139E-3	-10.9280E-3	166.838E-12	646.179E-3	-49.3430E-3
4.20460E-3	165.794E-12	657.550E-3	477.321E-6	166.984E-12	654.989E-3	-49.9377E-3
4.19960E-3	166.102E-12	637.175E-3	-4.39457E-3	166.964E-12	674.389E-3	-23.4333E-3
4.19460E-3	166.200E-12	642.738E-3	-8.13541E-3	167.368E-12	670.970E-3	-6.21416E-3
4.18959E-3	164.939E-12	671.388E-3	-6.75712E-3	166.914E-12	656.280E-3	-6.85970E-3
4.18459E-3	164.492E-12	686.349E-3	-3.50770E-3	166.536E-12	659.200E-3	-32.8215E-3
4.17959E-3	164.782E-12	675.881E-3	1.27956E-3	166.738E-12	655.477E-3	-65.1879E-3
4.17459E-3	165.507E-12	659.729E-3	-3.82293E-3	165.463E-12	634.286E-3	-69.0620E-3
4.16958E-3	164.653E-12	648.258E-3	-19.4779E-3	164.695E-12	629.945E-3	-45.8348E-3
4.16458E-3	163.999E-12	645.467E-3	-23.6566E-3	164.245E-12	637.109E-3	-28.0116E-3
4.15958E-3	164.720E-12	633.510E-3	-20.7821E-3	163.256E-12	616.779E-3	-13.9950E-3
4.15458E-3	164.598E-12	606.645E-3	-20.5357E-3	161.901E-12	602.951E-3	4.29913E-3
4.14957E-3	164.413E-12	628.326E-3	-28.7823E-3	161.963E-12	609.409E-3	5.88856E-3
4.14457E-3	164.305E-12	668.409E-3	-36.5362E-3	160.849E-12	600.770E-3	-7.69359E-3
4.13957E-3	164.116E-12	659.233E-3	-18.4243E-3	160.358E-12	605.096E-3	-17.5427E-3
4.13457E-3	164.002E-12	640.330E-3	-6.37739E-3	160.492E-12	626.042E-3	-5.75791E-3
4.12956E-3	164.137E-12	653.003E-3	-12.4274E-3	160.581E-12	627.768E-3	8.25284E-3
4.12456E-3	163.623E-12	669.826E-3	-791.810E-6	160.964E-12	627.753E-3	-5.97414E-3
4.11956E-3	162.933E-12	665.060E-3	19.5579E-3	161.806E-12	649.668E-3	-18.9911E-3
4.11456E-3	162.156E-12	642.761E-3	18.1467E-3	161.706E-12	671.872E-3	-18.8793E-3
4.10955E-3	162.148E-12	622.216E-3	-2.79504E-3	161.815E-12	680.683E-3	-24.5132E-3
4.10455E-3	162.355E-12	621.516E-3	-33.2834E-3	162.696E-12	684.158E-3	-28.8783E-3
4.09955E-3	160.779E-12	635.748E-3	-49.4366E-3	162.490E-12	675.096E-3	-25.6519E-3
4.09455E-3	160.268E-12	649.504E-3	-40.6296E-3	162.797E-12	655.105E-3	-22.9548E-3
4.08954E-3	160.717E-12	644.359E-3	-23.2688E-3	162.770E-12	626.912E-3	-37.1841E-3
4.08454E-3	160.325E-12	629.852E-3	-5.90597E-3	162.361E-12	598.559E-3	-46.2350E-3
4.07954E-3	159.566E-12	627.726E-3	-3.79822E-3	161.893E-12	581.904E-3	-37.4750E-3
4.07454E-3	159.102E-12	643.053E-3	-10.1112E-3	160.816E-12	583.128E-3	-25.5616E-3
4.06953E-3	159.167E-12	649.821E-3	-15.6265E-3	159.990E-12	613.036E-3	-17.2861E-3
4.06453E-3	158.562E-12	643.502E-3	-19.0319E-3	158.991E-12	636.793E-3	-18.6370E-3
4.05953E-3	157.978E-12	652.497E-3	-24.9760E-3	157.815E-12	625.751E-3	-20.7094E-3
4.05453E-3	157.949E-12	646.843E-3	-15.1517E-3	157.061E-12	623.599E-3	-15.0194E-3
4.04952E-3	157.582E-12	623.177E-3	6.38527E-3	156.326E-12	638.017E-3	-14.3600E-3
4.04452E-3	157.362E-12	638.189E-3	-4.68278E-3	155.838E-12	650.079E-3	-26.0723E-3
4.03952E-3	157.619E-12	665.646E-3	-21.8879E-3	155.899E-12	672.959E-3	-23.4541E-3
4.03452E-3	157.106E-12	662.271E-3	-21.9931E-3	155.577E-12	665.338E-3	-22.0360E-3
4.02951E-3	157.565E-12	666.954E-3	-27.4925E-3	154.911E-12	624.208E-3	-25.0855E-3
4.02451E-3	157.851E-12	674.246E-3	-28.9956E-3	155.749E-12	611.397E-3	-17.5677E-3
4.01951E-3	157.325E-12	666.752E-3	-10.1558E-3	157.013E-12	622.483E-3	-27.6839E-3
4.01451E-3	157.503E-12	659.397E-3	-6.88650E-3	157.005E-12	636.138E-3	-41.6684E-3
4.00950E-3	157.773E-12	636.362E-3	-14.8232E-3	157.238E-12	659.705E-3	-23.7159E-3
4.00450E-3	156.625E-12	608.902E-3	199.933E-6	158.457E-12	665.518E-3	4.28534E-3
3.99950E-3	156.325E-12	614.557E-3	5.30764E-3	159.078E-12	639.039E-3	7.60524E-3
3.99450E-3	156.670E-12	640.372E-3	-74.5659E-6	158.802E-12	630.899E-3	910.644E-6
3.98949E-3	155.716E-12	664.806E-3	-6.73836E-3	158.544E-12	661.021E-3	-8.26353E-3
3.98449E-3	154.794E-12	686.393E-3	-37.7973E-3	158.879E-12	675.247E-3	-24.7773E-3
3.97949E-3	154.693E-12	684.142E-3	-48.6105E-3	158.283E-12	651.943E-3	-23.4413E-3
3.97449E-3	154.811E-12	662.669E-3	-31.8780E-3	157.466E-12	654.652E-3	-15.0946E-3
3.96948E-3	154.212E-12	653.644E-3	-25.3706E-3	157.618E-12	680.681E-3	-13.6996E-3
3.96448E-3	153.248E-12	664.152E-3	-25.6647E-3	156.859E-12	674.332E-3	8.51109E-3
3.95948E-3	153.729E-12	655.067E-3	-20.8326E-3	155.174E-12	650.601E-3	31.7920E-3
3.95448E-3	152.517E-12	632.295E-3	-4.91871E-3	154.998E-12	642.884E-3	27.1808E-3
3.94947E-3	152.642E-12	620.876E-3	-12.1483E-3	154.963E-12	647.461E-3	11.6690E-3
3.94447E-3	153.485E-12	614.337E-3	-26.4112E-3	153.809E-12	634.642E-3	-3.71467E-3
3.93947E-3	152.843E-12	621.559E-3	-16.0774E-3	153.145E-12	632.020E-3	-4.21845E-3
3.93447E-3	152.564E-12	624.801E-3	-5.39641E-3	153.380E-12	640.299E-3	-4.24976E-3
3.92946E-3	154.272E-12	624.851E-3	-7.69863E-3	153.849E-12	622.212E-3	-27.4580E-3
3.92446E-3	154.759E-12	646.872E-3	-12.9923E-3	153.033E-12	612.630E-3	-29.7363E-3
3.91946E-3	154.128E-12	672.317E-3	-24.8880E-3	153.061E-12	631.984E-3	7.12884E-3
3.91446E-3	154.461E-12	667.422E-3	-36.6062E-3	154.272E-12	667.156E-3	28.2369E-3
3.90945E-3	154.826E-12	647.276E-3	-17.4890E-3	154.556E-12	680.148E-3	21.0403E-3
3.90445E-3	154.609E-12	638.329E-3	4.34147E-3	154.476E-12	652.946E-3	6.84328E-3
3.89945E-3	153.677E-12	643.689E-3	3.28754E-3	154.251E-12	636.737E-3	-16.5533E-3
3.89445E-3	152.882E-12	645.241E-3	-3.30286E-3	154.076E-12	658.415E-3	-36.5409E-3
3.88944E-3	152.256E-12	643.125E-3	-19.5386E-3	154.823E-12	680.320E-3	-26.6472E-3
3.88444E-3	151.189E-12	649.388E-3	-30.0874E-3	154.523E-12	668.370E-3	-11.7707E-3
3.87944E-3	151.001E-12	641.246E-3	-890.756E-6	154.192E-12	643.576E-3	-21.7152E-3
3.87444E-3	149.816E-12	625.608E-3	29.6568E-3	154.188E-12	632.595E-3	-24.1093E-3
3.86943E-3	149.688E-12	629.964E-3	25.4305E-3	153.499E-12	639.399E-3	-16.2976E-3
3.86443E-3	149.286E-12	648.215E-3	875.035E-6	152.739E-12	658.220E-3	-7.64669E-3
3.85943E-3	148.725E-12	649.310E-3	-18.7834E-3	152.210E-12	668.000E-3	2.86608E-3
3.85443E-3	148.254E-12	629.885E-3	-29.2227E-3	150.979E-12	667.226E-3	1.53073E-3
3.84942E-3	148.255E-12	620.506E-3	-25.4162E-3	150.155E-12	653.768E-3	-19.2956E-3
3.84442E-3	148.890E-12	632.166E-3	-15.9810E-3	149.325E-12	632.125E-3	-49.6543E-3
3.83942E-3	148.431E-12	647.995E-3	-27.0677E-3	149.286E-12	621.011E-3	-63.0003E-3
3.83442E-3	149.479E-12	664.948E-3	-33.9946E-3	148.588E-12	631.793E-3	-42.3088E-3
3.82941E-3	149.785E-12	658.020E-3	-23.1581E-3	148.033E-12	650.174E-3	-5.22069E-3
3.82441E-3	150.563E-12	623.365E-3	-9.07405E-3	147.617E-12	659.433E-3	16.3015E-3
3.81941E-3	150.402E-12	615.617E-3	3.93658E-3	148.424E-12	666.755E-3	2.15650E-3
3.81441E-3	150.883E-12	633.652E-3	8.56517E-3	148.115E-12	655.715E-3	-35.5189E-3
3.80940E-3	150.296E-12	645.661E-3	153.398E-6	147.839E-12	621.839E-3	-53.3518E-3
3.80440E-3	149.736E-12	638.667E-3	-12.3024E-3	147.352E-12	608.642E-3	-47.3561E-3
3.79940E-3	149.536E-12	636.388E-3	-26.8258E-3	147.716E-12	632.576E-3	-34.8854E-3
3.79440E-3	149.509E-12	657.673E-3	-30.9991E-3	148.451E-12	664.833E-3	-23.0645E-3
3.78939E-3	148.678E-12	681.664E-3	-26.9076E-3	148.391E-12	690.340E-3	-23.8253E-3
3.78439E-3	147.716E-12	686.413E-3	-20.5848E-3	148.369E-12	692.438E-3	-27.2561E-3
3.77939E-3	147.231E-12	662.001E-3	-21.1416E-3	147.721E-12	676.261E-3	-19.8890E-3
3.77439E-3	147.084E-12	624.572E-3	-30.7712E-3	148.005E-12	664.381E-3	-14.3290E-3
3.76938E-3	146.340E-12	619.859E-3	-27.7104E-3	147.945E-12	648.569E-3	-28.9515E-3
3.76438E-3	145.620E-12	644.181E-3	-26.3741E-3	147.326E-12	641.530E-3	-26.8633E-3
3.75938E-3	146.159E-12	649.019E-3	-40.5883E-3	146.199E-12	656.757E-3	-2.22395E-3
3.75438E-3	145.879E-12	636.099E-3	-44.9761E-3	145.624E-12	660.176E-3	-19.6478E-3
3.74937E-3	145.488E-12	627.390E-3	-26.8396E-3	144.632E-12	638.812E-3	-44.0459E-3
3.74437E-3	145.222E-12	633.713E-3	-20.4238E-3	144.056E-12	634.029E-3	-33.1938E-3
3.73937E-3	145.060E-12	658.013E-3	-28.1735E-3	143.089E-12	644.080E-3	-25.1443E-3
3.73437E-3	144.894E-12	667.551E-3	-15.5112E-3	142.508E-12	639.815E-3	-24.7071E-3
3.72936E-3	144.973E-12	656.264E-3	8.93003E-3	142.460E-12	640.554E-3	-29.9560E-3
3.72436E-3	145.042E-12	658.518E-3	14.5936E-3	141.268E-12	644.349E-3	-36.5883E-3
3.71936E-3	144.336E-12	651.959E-3	505.100E-6	141.078E-12	643.907E-3	-31.7713E-3
3.71436E-3	144.069E-12	639.953E-3	-12.4877E-3	141.761E-12	650.864E-3	-16.4340E-3
3.70935E-3	144.164E-12	637.211E-3	-15.5732E-3	141.524E-12	654.884E-3	-10.7182E-3
3.70435E-3	144.314E-12	629.301E-3	-2.58072E-3	141.700E-12	647.095E-3	-24.2744E-3
3.69935E-3	143.485E-12	625.667E-3	-3.23917E-3	142.331E-12	628.497E-3	-42.9683E-3
3.69435E-3	142.710E-12	625.526E-3	-15.3804E-3	142.601E-12	621.239E-3	-46.1966E-3
3.68934E-3	142.801E-12	633.651E-3	-15.1285E-3	142.641E-12	625.243E-3	-10.1583E-3
3.68434E-3	142.663E-12	663.831E-3	-17.3091E-3	143.512E-12	618.331E-3	26.9365E-3
3.67934E-3	141.912E-12	670.430E-3	-18.9273E-3	144.490E-12	620.519E-3	18.1425E-3
3.67434E-3	141.141E-12	636.901E-3	-25.2961E-3	144.628E-12	645.117E-3	-5.78994E-3
3.66933E-3	140.967E-12	613.003E-3	-22.8885E-3	144.068E-12	661.391E-3	-10.1123E-3
3.66433E-3	140.742E-12	610.036E-3	-6.69353E-3	143.814E-12	654.439E-3	-14.5741E-3
3.65933E-3	140.986E-12	619.423E-3	-12.8775E-3	144.696E-12	634.058E-3	-26.4609E-3
3.65433E-3	139.794E-12	632.638E-3	-42.4607E-3	144.442E-12	623.984E-3	-22.3432E-3
3.64932E-3	139.908E-12	644.089E-3	-45.1813E-3	143.529E-12	616.534E-3	-9.69256E-3
3.64432E-3	139.675E-12	650.917E-3	-34.8120E-3	142.435E-12	612.996E-3	-9.11699E-3
3.63932E-3	139.818E-12	650.931E-3	-50.3358E-3	142.276E-12	641.714E-3	-24.5848E-3
3.63432E-3	139.098E-12	650.066E-3	-71.7257E-3	141.961E-12	660.552E-3	-38.2607E-3
3.62931E-3	139.014E-12	652.354E-3	-72.7278E-3	140.529E-12	656.029E-3	-32.8123E-3
3.62431E-3	138.660E-12	664.472E-3	-53.2571E-3	139.533E-12	656.026E-3	-25.8897E-3
3.61931E-3	139.086E-12	656.655E-3	-31.6302E-3	139.008E-12	650.852E-3	-25.7357E-3
3.61431E-3	139.580E-12	641.953E-3	-20.8389E-3	139.290E-12	639.990E-3	-15.7766E-3
3.60930E-3	139.167E-12	651.827E-3	-18.3468E-3	139.166E-12	637.892E-3	1.10407E-3
3.60430E-3	139.451E-12	660.125E-3	-1.90908E-3	138.909E-12	653.533E-3	5.25276E-3
3.59930E-3	140.218E-12	663.370E-3	11.9026E-3	138.971E-12	673.868E-3	-1.96833E-3
3.59430E-3	140.670E-12	662.644E-3	8.54538E-3	139.487E-12	665.531E-3	-2.53385E-3
3.58929E-3	140.023E-12	659.218E-3	733.503E-6	140.393E-12	643.593E-3	6.53966E-3
3.58429E-3	139.975E-12	659.487E-3	-19.6565E-3	141.164E-12	644.434E-3	7.07840E-3
3.57929E-3	139.941E-12	659.150E-3	-43.8131E-3	141.203E-12	655.177E-3	-15.0331E-3
3.57429E-3	139.468E-12	655.738E-3	-40.9079E-3	141.510E-12	672.875E-3	-34.2810E-3
3.56928E-3	139.621E-12	651.601E-3	-23.9398E-3	142.181E-12	690.874E-3	-20.8846E-3
3.56428E-3	139.354E-12	652.474E-3	-26.0425E-3	141.698E-12	685.813E-3	-5.27387E-3
3.55928E-3	138.839E-12	659.299E-3	-31.0336E-3	141.780E-12	678.635E-3	403.870E-6
3.55428E-3	138.047E-12	670.585E-3	-30.9822E-3	141.121E-12	670.619E-3	1.45205E-3
3.54927E-3	137.955E-12	674.266E-3	-28.9553E-3	140.177E-12	645.523E-3	-10.1746E-3
3.54427E-3	137.708E-12	655.765E-3	-19.7774E-3	139.783E-12	634.421E-3	-10.5671E-3
3.53927E-3	136.838E-12	634.780E-3	-21.7690E-3	138.327E-12	641.236E-3	-242.910E-6
3.53427E-3	135.785E-12	635.593E-3	-31.3083E-3	137.182E-12	632.827E-3	5.58346E-3
3.52926E-3	135.567E-12	654.292E-3	-30.7060E-3	135.782E-12	617.051E-3	-841.840E-6
3.52426E-3	135.862E-12	661.695E-3	-29.9894E-3	134.742E-12	604.470E-3	-13.3913E-3
3.51926E-3	135.492E-12	642.410E-3	-30.0759E-3	133.622E-12	603.161E-3	-21.3815E-3
3.51426E-3	135.165E-12	618.756E-3	-22.1601E-3	133.068E-12	624.959E-3	-31.6691E-3
3.50925E-3	135.303E-12	619.783E-3	-15.6808E-3	132.117E-12	650.342E-3	-31.8017E-3
3.50425E-3	135.882E-12	639.838E-3	-21.9911E-3	131.849E-12	655.767E-3	-12.3852E-3
3.49925E-3	135.879E-12	644.269E-3	-20.6126E-3	132.253E-12	647.948E-3	5.89991E-3
3.49425E-3	135.904E-12	631.127E-3	-6.21661E-3	132.483E-12	643.535E-3	6.13865E-3
3.48924E-3	135.909E-12	625.151E-3	-3.71489E-3	131.670E-12	653.210E-3	-3.27836E-3
3.48424E-3	135.982E-12	643.217E-3	-11.1069E-3	132.840E-12	659.597E-3	-4.07905E-3
3.47924E-3	136.093E-12	668.312E-3	-24.9268E-3	133.545E-12	652.286E-3	840.166E-6
3.47424E-3	135.723E-12	672.279E-3	-38.4539E-3	133.862E-12	649.709E-3	-7.02417E-3
3.46923E-3	135.147E-12	662.300E-3	-30.3179E-3	133.418E-12	654.569E-3	-22.3170E-3
3.46423E-3	134.505E-12	673.285E-3	-11.7582E-3	134.116E-12	661.067E-3	-26.0968E-3
3.45923E-3	134.167E-12	692.550E-3	-3.07927E-3	134.515E-12	667.698E-3	-15.5806E-3
3.45423E-3	133.566E-12	686.255E-3	-3.82509E-3	134.486E-12	663.117E-3	3.95820E-3
3.44922E-3	132.386E-12	677.833E-3	-13.0124E-3	133.431E-12	659.388E-3	25.1844E-3
3.44422E-3	131.135E-12	671.134E-3	-14.8632E-3	133.087E-12	668.217E-3	31.6164E-3
3.43922E-3	130.673E-12	660.572E-3	-9.84888E-3	132.657E-12	668.316E-3	13.2315E-3
3.43422E-3	131.154E-12	662.991E-3	-5.87527E-3	131.850E-12	660.279E-3	-8.78328E-3
3.42921E-3	130.302E-12	673.740E-3	-1.09483E-3	130.844E-12	659.782E-3	-5.24898E-3
3.42421E-3	129.344E-12	671.573E-3	-9.19487E-3	130.626E-12	659.553E-3	9.55472E-3
3.41921E-3	129.367E-12	656.213E-3	-8.41661E-3	129.791E-12	645.318E-3	1.94087E-3
3.41421E-3	129.773E-12	642.128E-3	-1.82824E-3	129.572E-12	633.762E-3	-22.2288E-3
3.40920E-3	129.433E-12	649.464E-3	-15.0291E-3	128.819E-12	634.886E-3	-44.4913E-3
3.40420E-3	128.596E-12	661.117E-3	-22.4878E-3	128.777E-12	632.114E-3	-54.2067E-3
3.39920E-3	129.326E-12	639.681E-3	-25.1431E-3	128.548E-12	626.854E-3	-29.2234E-3
3.39420E-3	129.589E-12	618.011E-3	-29.4103E-3	128.696E-12	634.907E-3	15.9093E-3
3.38919E-3	129.583E-12	617.477E-3	-9.59003E-3	128.785E-12	663.536E-3	25.2331E-3
3.38419E-3	129.024E-12	620.775E-3	15.4862E-3	129.582E-12	688.639E-3	9.09453E-3
3.37919E-3	129.185E-12	631.948E-3	6.73693E-3	129.604E-12	689.093E-3	5.78730E-3
3.37419E-3	129.099E-12	651.448E-3	-21.1499E-3	129.709E-12	666.501E-3	16.8912E-3
3.36918E-3	128.551E-12	665.054E-3	-45.3265E-3	130.454E-12	643.395E-3	29.7871E-3
3.36418E-3	128.463E-12	667.049E-3	-44.9074E-3	131.228E-12	647.214E-3	11.1803E-3
3.35918E-3	127.572E-12	664.042E-3	-22.4387E-3	130.211E-12	655.123E-3	-29.1342E-3
3.35418E-3	127.327E-12	643.174E-3	-12.0472E-3	130.897E-12	652.394E-3	-42.5658E-3
3.34917E-3	126.979E-12	620.449E-3	-16.1468E-3	130.863E-12	662.786E-3	-25.6268E-3
3.34417E-3	127.692E-12	627.684E-3	-10.7110E-3	130.092E-12	667.446E-3	-7.18407E-3
3.33917E-3	127.224E-12	637.868E-3	-1.41581E-3	129.211E-12	665.697E-3	-1.39893E-3
3.33417E-3	127.315E-12	643.561E-3	-9.69174E-3	129.390E-12	671.243E-3	-7.77941E-3
3.32916E-3	127.648E-12	661.967E-3	-10.5503E-3	128.598E-12	656.228E-3	-6.61352E-3
3.32416E-3	127.453E-12	666.473E-3	-1.47175E-3	127.859E-12	641.891E-3	-4.83053E-3
3.31916E-3	127.111E-12	662.401E-3	-11.3013E-3	127.143E-12	657.879E-3	-7.92738E-3
3.31416E-3	127.653E-12	670.173E-3	-18.0915E-3	126.668E-12	678.052E-3	-8.70160E-3
3.30915E-3	127.438E-12	676.760E-3	-11.9837E-3	126.282E-12	682.236E-3	-18.6405E-3
3.30415E-3	126.798E-12	677.334E-3	-18.7898E-3	125.809E-12	675.086E-3	-25.0810E-3
3.29915E-3	126.796E-12	669.299E-3	-32.5835E-3	125.244E-12	661.190E-3	-23.1213E-3
3.29415E-3	126.361E-12	655.832E-3	-28.8873E-3	125.032E-12	652.199E-3	-25.4131E-3
3.28914E-3	126.391E-12	643.174E-3	-5.16943E-3	124.919E-12	648.771E-3	-31.8487E-3
3.28414E-3	126.160E-12	638.070E-3	15.9457E-3	125.049E-12	641.253E-3	-31.1541E-3
3.27914E-3	125.378E-12	625.384E-3	14.4301E-3	124.930E-12	644.033E-3	-13.5897E-3
3.27414E-3	124.755E-12	612.746E-3	-7.77226E-3	124.709E-12	666.686E-3	-1.34723E-3
3.26913E-3	124.638E-12	629.355E-3	-26.9803E-3	124.353E-12	679.568E-3	-15.7601E-3
3.26413E-3	125.137E-12	646.386E-3	-22.5045E-3	124.425E-12	665.319E-3	-32.8582E-3
3.25913E-3	124.528E-12	641.659E-3	3.98377E-3	124.352E-12	650.382E-3	-19.9695E-3
3.25413E-3	124.113E-12	648.953E-3	16.2103E-3	125.125E-12	655.120E-3	2.09692E-3
3.24912E-3	123.969E-12	667.509E-3	-1.69605E-3	125.289E-12	662.675E-3	-140.093E-6
3.24412E-3	124.548E-12	679.860E-3	-24.4757E-3	125.014E-12	654.591E-3	-4.24850E-3
3.23912E-3	124.829E-12	681.573E-3	-27.6914E-3	124.810E-12	642.254E-3	2.34180E-3
3.23412E-3	124.493E-12	671.619E-3	-4.82079E-3	125.636E-12	643.733E-3	-6.42911E-3
3.22911E-3	124.319E-12	658.261E-3	9.61612E-3	125.228E-12	659.456E-3	-30.5447E-3
3.22411E-3	124.094E-12	648.882E-3	2.54673E-3	124.105E-12	681.730E-3	-47.4425E-3
3.21911E-3	124.117E-12	652.425E-3	-17.5311E-3	123.536E-12	680.776E-3	-36.1301E-3
3.21411E-3	124.044E-12	654.221E-3	-31.3066E-3	123.565E-12	649.266E-3	-14.4013E-3
3.20910E-3	123.706E-12	654.084E-3	-18.9629E-3	122.989E-12	634.413E-3	-31.7989E-3
3.20410E-3	123.445E-12	656.213E-3	-3.87874E-3	121.984E-12	650.847E-3	-47.2945E-3
3.19910E-3	123.224E-12	656.386E-3	-4.65726E-3	121.465E-12	668.331E-3	-10.9563E-3
3.19410E-3	122.908E-12	663.776E-3	-18.7028E-3	121.013E-12	667.945E-3	14.6175E-3
3.18909E-3	121.940E-12	677.493E-3	-30.1943E-3	120.939E-12	647.845E-3	179.853E-6
3.18409E-3	121.541E-12	682.679E-3	-14.8081E-3	119.511E-12	626.374E-3	-12.8405E-3
3.17909E-3	121.329E-12	674.393E-3	7.84615E-3	119.180E-12	625.342E-3	-16.1473E-3
3.17409E-3	120.609E-12	669.279E-3	3.24809E-3	119.007E-12	631.468E-3	-14.6299E-3
3.16908E-3	120.179E-12	668.705E-3	-13.9986E-3	119.062E-12	626.003E-3	-10.3928E-3
3.16408E-3	120.024E-12	661.171E-3	-17.5875E-3	118.860E-12	620.494E-3	-5.89629E-3
3.15908E-3	119.483E-12	657.571E-3	-15.2564E-3	119.020E-12	635.026E-3	-4.17671E-3
3.15408E-3	119.555E-12	662.380E-3	-15.7771E-3	119.602E-12	660.998E-3	-20.7853E-3
3.14907E-3	119.686E-12	655.585E-3	-19.4040E-3	119.973E-12	674.373E-3	-28.4858E-3
3.14407E-3	119.814E-12	643.060E-3	-27.8699E-3	120.396E-12	680.587E-3	-8.10632E-3
3.13907E-3	118.781E-12	642.075E-3	-30.6870E-3	120.056E-12	687.530E-3	-3.45478E-3
3.13407E-3	119.326E-12	649.746E-3	-30.9722E-3	120.750E-12	690.727E-3	-19.0571E-3
3.12906E-3	119.712E-12	658.054E-3	-27.5040E-3	120.656E-12	686.639E-3	-26.1519E-3
3.12406E-3	119.073E-12	659.449E-3	-12.9475E-3	119.763E-12	678.769E-3	-20.5450E-3
3.11906E-3	118.490E-12	663.915E-3	-8.49238E-3	119.720E-12	684.170E-3	-14.5226E-3
3.11406E-3	118.841E-12	662.611E-3	-1.63686E-3	119.131E-12	684.344E-3	-15.8549E-3
3.10905E-3	117.918E-12	659.669E-3	17.6781E-3	118.483E-12	665.342E-3	-12.9049E-3
3.10405E-3	117.700E-12	677.126E-3	22.2289E-3	117.996E-12	655.644E-3	-9.19933E-3
3.09905E-3	116.938E-12	686.298E-3	11.8629E-3	117.106E-12	664.690E-3	-6.09295E-3
3.09405E-3	116.147E-12	682.427E-3	-5.37493E-3	116.901E-12	667.918E-3	-8.35760E-3
3.08904E-3	116.278E-12	681.010E-3	-18.5670E-3	116.282E-12	660.304E-3	-15.6765E-3
3.08404E-3	116.221E-12	661.736E-3	-18.2184E-3	115.688E-12	656.599E-3	-17.1282E-3
3.07904E-3	114.997E-12	655.960E-3	-9.64048E-3	114.951E-12	653.448E-3	-24.0621E-3
3.07404E-3	115.119E-12	685.708E-3	-7.54456E-3	114.990E-12	653.211E-3	-32.5647E-3
3.06903E-3	115.630E-12	702.223E-3	-22.9766E-3	115.113E-12	656.878E-3	-34.3965E-3
3.06403E-3	114.978E-12	684.053E-3	-34.8733E-3	115.347E-12	658.559E-3	-38.2716E-3
3.05903E-3	114.531E-12	661.636E-3	-21.2007E-3	115.175E-12	665.286E-3	-32.6618E-3
3.05403E-3	115.058E-12	664.813E-3	-9.60397E-3	114.979E-12	676.684E-3	-11.3969E-3
3.04902E-3	114.923E-12	690.035E-3	-18.6659E-3	116.125E-12	679.490E-3	99.9235E-6
3.04402E-3	114.043E-12	698.337E-3	-16.4300E-3	116.531E-12	686.739E-3	-15.9459E-3
3.03902E-3	114.497E-12	670.168E-3	-2.85638E-3	116.198E-12	695.096E-3	-30.5767E-3
3.03402E-3	114.574E-12	644.617E-3	-16.1592E-3	116.293E-12	695.434E-3	-33.9002E-3
3.02901E-3	114.058E-12	647.269E-3	-36.3290E-3	116.275E-12	686.295E-3	-34.0694E-3
3.02401E-3	114.082E-12	668.831E-3	-33.7886E-3	116.211E-12	675.145E-3	-24.1767E-3
3.01901E-3	114.142E-12	679.904E-3	-24.4205E-3	115.777E-12	670.487E-3	-15.8836E-3
3.01401E-3	114.196E-12	679.033E-3	-16.9348E-3	114.854E-12	661.938E-3	-13.3573E-3
3.00900E-3	113.215E-12	677.224E-3	-20.3585E-3	113.690E-12	656.044E-3	-10.3483E-3
3.00400E-3	113.239E-12	676.412E-3	-27.3218E-3	113.250E-12	650.299E-3	-14.7694E-3
2.99900E-3	113.361E-12	669.061E-3	-22.7411E-3	112.632E-12	648.320E-3	-25.0365E-3
2.99400E-3	112.811E-12	656.187E-3	-11.9478E-3	111.410E-12	652.425E-3	-28.8109E-3
2.98899E-3	112.530E-12	652.367E-3	-18.5267E-3	110.128E-12	647.158E-3	-26.2344E-3
2.98399E-3	112.786E-12	658.541E-3	-17.5540E-3	110.200E-12	649.254E-3	-18.6326E-3
2.97899E-3	111.941E-12	664.962E-3	9.06904E-3	110.751E-12	665.244E-3	-1.15996E-3
2.97399E-3	111.996E-12	673.040E-3	11.9786E-3	110.375E-12	676.994E-3	7.62551E-3
2.96898E-3	111.994E-12	681.771E-3	-11.0071E-3	109.983E-12	686.319E-3	-12.5907E-3
2.96398E-3	111.881E-12	676.302E-3	-27.2835E-3	110.201E-12	679.932E-3	-44.0088E-3
2.95898E-3	111.721E-12	678.765E-3	-21.9920E-3	110.811E-12	658.518E-3	-54.8967E-3
2.95398E-3	110.919E-12	688.092E-3	-9.56750E-3	110.993E-12	646.543E-3	-34.5814E-3
2.94897E-3	110.792E-12	690.543E-3	-4.88947E-3	111.372E-12	651.641E-3	-18.1466E-3
2.94397E-3	111.277E-12	694.418E-3	-8.74254E-3	110.766E-12	673.073E-3	-17.1812E-3
2.93897E-3	110.632E-12	691.162E-3	-19.5891E-3	110.900E-12	688.092E-3	-18.9647E-3
2.93397E-3	109.805E-12	688.425E-3	-26.1974E-3	111.256E-12	680.251E-3	-25.1756E-3
2.92896E-3	109.726E-12	693.111E-3	-20.2590E-3	110.773E-12	660.075E-3	-19.8781E-3
2.92396E-3	109.965E-12	695.545E-3	-20.8756E-3	109.564E-12	640.906E-3	-2.90508E-3
2.91896E-3	109.462E-12	702.807E-3	-39.1592E-3	109.046E-12	631.513E-3	380.746E-6
2.91396E-3	108.973E-12	705.804E-3	-38.1313E-3	108.911E-12	636.214E-3	-13.4893E-3
2.90895E-3	109.028E-12	678.163E-3	-20.5722E-3	108.215E-12	652.193E-3	-27.7273E-3
2.90395E-3	109.183E-12	640.615E-3	-22.6307E-3	107.501E-12	652.950E-3	-29.4317E-3
2.89895E-3	109.029E-12	639.595E-3	-27.2785E-3	107.137E-12	639.363E-3	-27.4995E-3
2.89395E-3	108.740E-12	681.749E-3	-16.7118E-3	106.812E-12	636.695E-3	-24.9550E-3
2.88894E-3	108.551E-12	706.516E-3	-11.0933E-3	106.590E-12	640.654E-3	-17.2891E-3
2.88394E-3	108.003E-12	697.522E-3	-16.0457E-3	106.354E-12	655.761E-3	-18.1505E-3
2.87894E-3	108.366E-12	694.491E-3	-19.3330E-3	106.558E-12	662.365E-3	-34.0837E-3
2.87394E-3	108.334E-12	690.277E-3	-23.1280E-3	105.678E-12	661.354E-3	-36.3861E-3
2.86893E-3	107.889E-12	696.328E-3	-30.4445E-3	106.424E-12	679.739E-3	-12.3713E-3
2.86393E-3	107.355E-12	705.453E-3	-35.8560E-3	106.262E-12	694.298E-3	-1.95957E-3
2.85893E-3	107.218E-12	686.632E-3	-21.9634E-3	106.231E-12	691.122E-3	-13.6461E-3
2.85393E-3	106.853E-12	670.866E-3	5.53849E-3	105.961E-12	683.990E-3	-24.4924E-3
2.84892E-3	106.035E-12	683.500E-3	16.2309E-3	106.391E-12	679.659E-3	-23.9312E-3
2.84392E-3	105.125E-12	694.191E-3	3.80880E-3	106.010E-12	677.011E-3	-17.0562E-3
2.83892E-3	105.229E-12	675.504E-3	-19.2971E-3	106.097E-12	670.164E-3	-21.1430E-3
2.83392E-3	104.760E-12	651.829E-3	-38.9177E-3	105.879E-12	660.249E-3	-19.8024E-3
2.82891E-3	103.978E-12	642.801E-3	-34.5189E-3	105.669E-12	673.985E-3	-6.24029E-3
2.82391E-3	103.744E-12	643.486E-3	-12.0205E-3	105.554E-12	685.102E-3	-19.2371E-3
2.81891E-3	103.554E-12	663.210E-3	-2.28065E-3	105.324E-12	668.404E-3	-32.2233E-3
2.81391E-3	103.433E-12	678.199E-3	-6.08685E-3	105.193E-12	664.639E-3	-25.9558E-3
2.80890E-3	104.019E-12	669.007E-3	-15.1722E-3	104.818E-12	670.788E-3	-18.4124E-3
2.80390E-3	104.056E-12	657.915E-3	-18.6090E-3	105.283E-12	678.157E-3	-13.5432E-3
2.79890E-3	104.394E-12	665.525E-3	-3.16161E-3	105.203E-12	699.936E-3	-21.6703E-3
2.79390E-3	104.526E-12	688.237E-3	3.30157E-3	104.293E-12	717.051E-3	-20.7285E-3
2.78889E-3	104.395E-12	690.514E-3	-10.3835E-3	104.297E-12	702.264E-3	-10.6027E-3
2.78389E-3	103.788E-12	671.782E-3	-18.0596E-3	104.082E-12	680.668E-3	-12.5380E-3
2.77889E-3	103.970E-12	666.740E-3	-14.7694E-3	103.471E-12	678.119E-3	-17.4290E-3
2.77389E-3	104.163E-12	695.590E-3	-5.51328E-3	102.703E-12	672.408E-3	-19.5739E-3
2.76888E-3	103.279E-12	725.516E-3	5.54527E-3	102.444E-12	668.513E-3	-33.4306E-3
2.76388E-3	103.235E-12	715.356E-3	693.055E-6	102.066E-12	672.964E-3	-52.4713E-3
2.75888E-3	102.555E-12	688.195E-3	-21.0997E-3	102.153E-12	683.165E-3	-43.4960E-3
2.75388E-3	102.584E-12	675.979E-3	-29.1266E-3	101.144E-12	694.855E-3	-18.7499E-3
2.74887E-3	101.855E-12	679.444E-3	-15.8211E-3	100.864E-12	696.487E-3	-10.3792E-3
2.74387E-3	101.319E-12	689.948E-3	7.11719E-3	101.398E-12	687.861E-3	-8.97872E-3
2.73887E-3	100.771E-12	695.642E-3	21.8765E-3	100.890E-12	678.143E-3	-17.2162E-3
2.73387E-3	100.073E-12	688.957E-3	16.1113E-3	100.757E-12	685.727E-3	-29.0976E-3
2.72886E-3	100.078E-12	674.010E-3	687.082E-6	101.047E-12	689.090E-3	-25.4004E-3
2.72386E-3	100.309E-12	665.789E-3	-2.86134E-3	100.520E-12	669.973E-3	-22.3945E-3
2.71886E-3	99.9697E-12	678.402E-3	3.78396E-3	100.613E-12	667.019E-3	-14.4005E-3
2.71386E-3	98.9975E-12	698.197E-3	1.77763E-3	100.880E-12	679.054E-3	6.82064E-3
2.70885E-3	99.8618E-12	693.821E-3	-2.65484E-3	100.455E-12	678.860E-3	8.84730E-3
2.70385E-3	100.300E-12	681.053E-3	778.224E-6	100.090E-12	678.584E-3	-8.27132E-3
2.69885E-3	99.4846E-12	680.840E-3	-4.11556E-3	100.007E-12	681.629E-3	-28.2833E-3
2.69385E-3	98.9735E-12	682.225E-3	-15.9169E-3	99.5525E-12	675.524E-3	-48.3708E-3
2.68884E-3	99.2943E-12	691.962E-3	-19.9948E-3	98.9465E-12	672.240E-3	-58.1732E-3
2.68384E-3	99.0284E-12	712.189E-3	-21.4270E-3	98.3739E-12	679.005E-3	-54.5616E-3
2.67884E-3	98.4143E-12	715.389E-3	-19.0450E-3	97.6776E-12	683.983E-3	-42.6933E-3
2.67384E-3	98.3104E-12	697.687E-3	-18.8769E-3	97.2490E-12	674.867E-3	-30.0884E-3
2.66883E-3	97.6180E-12	682.691E-3	-22.7816E-3	96.9319E-12	653.370E-3	-15.2106E-3
2.66383E-3	97.4398E-12	672.622E-3	-19.1049E-3	95.7038E-12	639.077E-3	-13.0080E-3
2.65883E-3	97.0919E-12	671.364E-3	-28.7367E-3	95.2432E-12	645.800E-3	-22.3754E-3
2.65383E-3	96.8323E-12	678.469E-3	-40.3169E-3	95.2444E-12	666.420E-3	-25.8099E-3
2.64882E-3	96.3952E-12	686.168E-3	-25.5912E-3	94.9778E-12	678.222E-3	-30.1283E-3
2.64382E-3	96.1780E-12	697.833E-3	-7.43147E-3	94.5823E-12	675.225E-3	-19.2776E-3
2.63882E-3	96.0631E-12	694.858E-3	-5.79146E-3	94.6015E-12	663.956E-3	-5.44602E-3
2.63382E-3	96.1658E-12	669.347E-3	-13.1257E-3	95.2596E-12	658.738E-3	-7.31451E-3
2.62881E-3	96.0123E-12	652.790E-3	-21.0954E-3	95.9835E-12	669.241E-3	-7.66578E-3
2.62381E-3	95.9621E-12	669.035E-3	-28.4945E-3	96.2050E-12	688.295E-3	3.29536E-3
2.61881E-3	96.0327E-12	695.460E-3	-30.0102E-3	96.0595E-12	704.504E-3	15.8204E-3
2.61381E-3	95.7174E-12	704.458E-3	-38.9773E-3	96.0664E-12	715.018E-3	8.41571E-3
2.60880E-3	95.1441E-12	698.926E-3	-48.1091E-3	96.1598E-12	719.689E-3	-10.8844E-3
2.60380E-3	94.9256E-12	685.761E-3	-42.1044E-3	96.3158E-12	710.245E-3	-15.7153E-3
2.59880E-3	94.9143E-12	681.888E-3	-33.0118E-3	95.7963E-12	691.335E-3	-7.00548E-3
2.59380E-3	94.0852E-12	692.565E-3	-22.6369E-3	94.9840E-12	690.523E-3	-6.16761E-3
2.58879E-3	93.6018E-12	698.072E-3	-12.4245E-3	94.5350E-12	706.335E-3	-18.9886E-3
2.58379E-3	93.5056E-12	693.734E-3	-14.3298E-3	94.3853E-12	721.183E-3	-19.2656E-3
2.57879E-3	93.2297E-12	690.895E-3	-11.7032E-3	93.7261E-12	721.633E-3	-196.464E-6
2.57379E-3	92.8662E-12	694.897E-3	1.71521E-3	92.7000E-12	695.097E-3	11.4691E-3
2.56878E-3	92.6582E-12	708.334E-3	-3.87282E-3	91.8006E-12	675.809E-3	17.8638E-3
2.56378E-3	92.6820E-12	729.727E-3	-24.4670E-3	91.5033E-12	675.234E-3	27.3326E-3
2.55878E-3	92.4035E-12	728.237E-3	-33.0676E-3	91.0959E-12	682.601E-3	16.6805E-3
2.55378E-3	92.3139E-12	702.168E-3	-38.1289E-3	91.0012E-12	689.692E-3	-16.6226E-3
2.54877E-3	92.2276E-12	679.110E-3	-41.7452E-3	90.4442E-12	689.186E-3	-39.7511E-3
2.54377E-3	92.4924E-12	672.212E-3	-35.1429E-3	90.7717E-12	696.763E-3	-34.8580E-3
2.53877E-3	92.2465E-12	690.682E-3	-28.6583E-3	91.2330E-12	699.230E-3	-24.1762E-3
2.53377E-3	92.3132E-12	718.340E-3	-13.3057E-3	91.1457E-12	693.319E-3	-26.4827E-3
2.52876E-3	92.7588E-12	723.043E-3	3.90967E-3	91.5780E-12	698.130E-3	-33.5091E-3
2.52376E-3	92.2167E-12	709.606E-3	5.30041E-3	92.0636E-12	705.788E-3	-33.4152E-3
2.51876E-3	91.8494E-12	711.056E-3	7.57593E-3	92.2472E-12	713.706E-3	-21.6976E-3
2.51376E-3	91.7638E-12	720.243E-3	9.95690E-3	92.2134E-12	720.003E-3	-5.23732E-3
2.50875E-3	91.5282E-12	723.361E-3	-3.07220E-3	91.8360E-12	705.568E-3	-796.631E-6
2.50375E-3	90.6720E-12	729.345E-3	-21.3971E-3	91.9669E-12	687.196E-3	-14.3926E-3
2.49875E-3	90.2460E-12	736.512E-3	-25.5060E-3	91.6619E-12	696.808E-3	-16.7811E-3
2.49375E-3	90.0339E-12	734.383E-3	-12.0548E-3	91.0031E-12	717.175E-3	3.98093E-3
2.48874E-3	90.1185E-12	723.781E-3	-9.43088E-3	89.9266E-12	714.318E-3	13.7911E-3
2.48374E-3	89.1166E-12	713.905E-3	-18.4660E-3	89.4929E-12	701.982E-3	-2.62293E-3
2.47874E-3	88.5347E-12	708.582E-3	-17.2554E-3	88.9577E-12	699.850E-3	-21.0692E-3
2.47374E-3	88.8626E-12	702.432E-3	-21.8646E-3	88.7220E-12	702.615E-3	-29.6052E-3
2.46873E-3	88.8684E-12	690.054E-3	-24.5763E-3	87.8467E-12	701.935E-3	-25.7507E-3
2.46373E-3	88.7380E-12	682.009E-3	-10.6203E-3	87.1567E-12	689.406E-3	-22.2736E-3
2.45873E-3	88.4518E-12	683.880E-3	-6.68546E-3	87.1308E-12	687.428E-3	-20.7467E-3
2.45373E-3	88.6187E-12	683.586E-3	-16.4524E-3	87.0483E-12	702.168E-3	-11.2661E-3
2.44872E-3	88.3800E-12	681.651E-3	-31.7422E-3	86.8758E-12	705.363E-3	-18.6359E-3
2.44372E-3	88.4656E-12	695.908E-3	-50.1260E-3	86.6454E-12	702.697E-3	-31.1086E-3
2.43872E-3	88.3378E-12	719.615E-3	-42.9099E-3	86.8282E-12	711.672E-3	-15.9112E-3
2.43372E-3	88.2410E-12	719.887E-3	-21.5234E-3	87.1298E-12	719.450E-3	5.42238E-3
2.42871E-3	87.7364E-12	696.699E-3	-21.9754E-3	87.3613E-12	721.056E-3	1.73106E-3
2.42371E-3	87.5019E-12	686.410E-3	-24.2817E-3	87.3997E-12	725.876E-3	-18.8733E-3
2.41871E-3	86.7353E-12	701.320E-3	-20.3778E-3	87.3933E-12	722.819E-3	-26.8022E-3
2.41371E-3	86.1968E-12	728.457E-3	-20.6687E-3	87.1565E-12	717.170E-3	-15.3704E-3
2.40870E-3	85.6656E-12	746.955E-3	-24.2274E-3	86.7628E-12	720.537E-3	-10.0637E-3
2.40370E-3	85.2949E-12	729.142E-3	-33.0646E-3	86.3953E-12	714.207E-3	-23.8648E-3
2.39870E-3	84.6387E-12	703.677E-3	-41.1696E-3	86.0622E-12	710.616E-3	-38.6607E-3
2.39370E-3	84.5163E-12	713.999E-3	-27.2791E-3	85.5719E-12	722.928E-3	-34.5987E-3
2.38869E-3	83.9052E-12	734.845E-3	1.46981E-3	85.3565E-12	723.505E-3	-8.80976E-3
2.38369E-3	83.9508E-12	746.932E-3	1.74904E-3	84.7546E-12	715.544E-3	7.22877E-3
2.37869E-3	83.8300E-12	740.037E-3	-15.4468E-3	84.2470E-12	719.112E-3	-3.71109E-3
2.37369E-3	83.7660E-12	711.811E-3	-21.9091E-3	84.0230E-12	718.287E-3	-9.67967E-3
2.36868E-3	83.6046E-12	702.905E-3	-13.8258E-3	83.9740E-12	705.439E-3	-2.98413E-3
2.36368E-3	83.5610E-12	707.373E-3	-11.6044E-3	83.4189E-12	707.448E-3	-13.4498E-3
2.35868E-3	83.6140E-12	711.247E-3	-28.7510E-3	82.7856E-12	718.334E-3	-33.3668E-3
2.35368E-3	83.7917E-12	720.621E-3	-34.3546E-3	82.6478E-12	714.960E-3	-31.7290E-3
2.34867E-3	83.8912E-12	715.606E-3	-20.4087E-3	82.7281E-12	701.597E-3	-19.0191E-3
2.34367E-3	83.3042E-12	700.493E-3	-17.2927E-3	82.0045E-12	697.156E-3	-11.8009E-3
2.33867E-3	82.9118E-12	706.437E-3	-25.6788E-3	81.8549E-12	695.948E-3	-3.90555E-3
2.33367E-3	82.7978E-12	726.822E-3	-29.9857E-3	81.3812E-12	685.743E-3	-4.94139E-3
2.32866E-3	82.1887E-12	735.530E-3	-21.0364E-3	81.3936E-12	685.501E-3	-20.4696E-3
2.32366E-3	81.6022E-12	735.559E-3	-4.73769E-3	81.0851E-12	697.505E-3	-35.9872E-3
2.31866E-3	81.0671E-12	726.978E-3	-888.280E-6	81.1038E-12	702.997E-3	-33.0317E-3
2.31366E-3	80.9637E-12	716.212E-3	-7.59729E-3	80.6196E-12	700.069E-3	-20.3020E-3
2.30865E-3	80.3710E-12	708.481E-3	-16.2125E-3	80.9350E-12	704.079E-3	-17.3811E-3
2.30365E-3	79.8680E-12	706.827E-3	-20.5271E-3	80.9982E-12	715.709E-3	-4.98661E-3
2.29865E-3	79.7361E-12	716.096E-3	-14.1054E-3	80.8111E-12	726.609E-3	3.62377E-3
2.29365E-3	79.4503E-12	720.642E-3	-6.84077E-3	80.4672E-12	734.090E-3	-16.0913E-3
2.28864E-3	79.2440E-12	708.162E-3	-9.73536E-3	80.6853E-12	720.966E-3	-33.3013E-3
2.28364E-3	78.6641E-12	701.986E-3	-11.9589E-3	80.4950E-12	698.049E-3	-21.8364E-3
2.27864E-3	78.7780E-12	705.500E-3	-17.0981E-3	80.3097E-12	702.714E-3	1.67116E-3
2.27364E-3	78.8829E-12	694.074E-3	-25.1194E-3	80.1578E-12	725.161E-3	9.60449E-3
2.26863E-3	79.0118E-12	682.542E-3	-21.6786E-3	79.8031E-12	736.387E-3	10.7499E-3
2.26363E-3	78.5181E-12	696.890E-3	-17.9922E-3	79.1878E-12	734.925E-3	2.34753E-3
2.25863E-3	78.5915E-12	726.270E-3	-28.5332E-3	79.0696E-12	720.417E-3	-13.5042E-3
2.25363E-3	78.0461E-12	730.113E-3	-36.5223E-3	78.9835E-12	703.831E-3	-12.1891E-3
2.24862E-3	78.1671E-12	716.598E-3	-37.7143E-3	78.0013E-12	711.010E-3	-17.7993E-3
2.24362E-3	77.9341E-12	716.110E-3	-33.9340E-3	77.3493E-12	728.065E-3	-35.0830E-3
2.23862E-3	77.7142E-12	720.967E-3	-14.3450E-3	77.0067E-12	730.718E-3	-31.9148E-3
2.23362E-3	77.5311E-12	719.293E-3	953.378E-6	76.9442E-12	723.082E-3	-20.4966E-3
2.22861E-3	77.0071E-12	714.849E-3	-11.3521E-3	76.4259E-12	721.760E-3	-24.1554E-3
2.22361E-3	76.8271E-12	717.104E-3	-26.5145E-3	75.9499E-12	734.023E-3	-29.3551E-3
2.21861E-3	76.8177E-12	722.791E-3	-20.0405E-3	75.8130E-12	742.537E-3	-11.8745E-3
2.21361E-3	76.9288E-12	731.324E-3	-12.2260E-3	76.0244E-12	733.373E-3	1.79554E-3
2.20860E-3	75.8747E-12	744.189E-3	-5.19671E-3	75.8660E-12	726.916E-3	-6.35168E-3
2.20360E-3	75.8029E-12	748.596E-3	1.01571E-3	76.2604E-12	747.842E-3	-12.5343E-3
2.19860E-3	76.0189E-12	741.015E-3	-8.60802E-3	76.3027E-12	769.669E-3	-23.6063E-3
2.19360E-3	75.4916E-12	738.145E-3	-11.0125E-3	76.4702E-12	760.724E-3	-35.8110E-3
2.18859E-3	75.2263E-12	734.849E-3	9.50793E-3	76.4972E-12	754.845E-3	-26.9147E-3
2.18359E-3	75.4031E-12	723.613E-3	12.7381E-3	76.3515E-12	770.645E-3	-9.60575E-3
2.17859E-3	75.3895E-12	720.729E-3	-4.29759E-3	76.2874E-12	767.538E-3	-10.6015E-3
2.17359E-3	74.9502E-12	734.156E-3	-9.98237E-3	75.8091E-12	750.891E-3	-21.9398E-3
2.16858E-3	74.6865E-12	744.267E-3	-11.3446E-3	75.2536E-12	754.563E-3	-18.4391E-3
2.16358E-3	74.5335E-12	746.822E-3	-8.34535E-3	74.9951E-12	759.518E-3	-7.08086E-3
2.15858E-3	74.1613E-12	754.684E-3	3.03606E-3	74.3769E-12	745.809E-3	-7.39346E-3
2.15358E-3	73.8146E-12	761.325E-3	3.16282E-3	73.2248E-12	728.587E-3	-13.1343E-3
2.14857E-3	73.7161E-12	763.642E-3	-16.6761E-3	72.8797E-12	721.105E-3	-8.99853E-3
2.14357E-3	73.5001E-12	762.287E-3	-34.1752E-3	71.8237E-12	725.006E-3	-13.4266E-3
2.13857E-3	72.9493E-12	755.773E-3	-26.0057E-3	70.9022E-12	724.422E-3	-29.9843E-3
2.13357E-3	72.8774E-12	747.769E-3	-11.3333E-3	70.7078E-12	711.631E-3	-32.5288E-3
2.12856E-3	72.8369E-12	748.677E-3	-9.27593E-3	70.3667E-12	702.665E-3	-19.6600E-3
2.12356E-3	72.6196E-12	750.727E-3	-13.6854E-3	69.6195E-12	701.765E-3	-17.4197E-3
2.11856E-3	72.1527E-12	748.924E-3	-21.1493E-3	69.7664E-12	711.435E-3	-26.6658E-3
2.11356E-3	71.8424E-12	755.467E-3	-18.8900E-3	69.8291E-12	741.220E-3	-23.2651E-3
2.10855E-3	71.9974E-12	753.164E-3	-7.88733E-3	69.6743E-12	766.635E-3	-16.2359E-3
2.10355E-3	71.4610E-12	745.409E-3	-4.48775E-3	69.7295E-12	759.654E-3	-11.6008E-3
2.09855E-3	71.4535E-12	745.800E-3	-15.6279E-3	70.0072E-12	751.042E-3	-933.716E-6
2.09355E-3	71.1943E-12	745.191E-3	-24.1320E-3	69.9742E-12	756.625E-3	-8.07382E-3
2.08854E-3	70.6160E-12	756.765E-3	-9.74479E-3	70.0142E-12	759.392E-3	-25.4231E-3
2.08354E-3	70.2456E-12	773.101E-3	7.11551E-3	69.7370E-12	763.852E-3	-16.3039E-3
2.07854E-3	70.1266E-12	769.256E-3	-7.78250E-3	69.7705E-12	775.584E-3	8.09364E-3
2.07354E-3	69.5187E-12	761.992E-3	-36.8596E-3	69.8510E-12	784.198E-3	15.8895E-3
2.06853E-3	68.7704E-12	770.397E-3	-25.3295E-3	69.5968E-12	779.979E-3	4.54667E-3
2.06353E-3	68.3569E-12	782.369E-3	-7.68086E-3	68.8677E-12	777.080E-3	-19.2238E-3
2.05853E-3	68.0635E-12	782.746E-3	-19.2813E-3	68.8989E-12	778.196E-3	-32.3215E-3
2.05353E-3	67.5010E-12	768.145E-3	-23.4377E-3	68.4218E-12	773.429E-3	-15.7255E-3
2.04852E-3	67.2284E-12	756.619E-3	-21.3583E-3	67.9699E-12	778.975E-3	6.30062E-3
2.04352E-3	66.9159E-12	752.070E-3	-18.1554E-3	67.3984E-12	783.197E-3	-5.05417E-3
2.03852E-3	66.8704E-12	744.360E-3	-6.37545E-3	67.3175E-12	775.509E-3	-29.7190E-3
2.03352E-3	66.9972E-12	739.865E-3	-1.92141E-3	66.6798E-12	770.375E-3	-26.2203E-3
2.02851E-3	66.7340E-12	753.047E-3	-6.04204E-3	66.6250E-12	767.676E-3	-24.5012E-3
2.02351E-3	66.4640E-12	785.982E-3	-10.9047E-3	66.7162E-12	780.393E-3	-29.5655E-3
2.01851E-3	66.3400E-12	791.139E-3	-18.0047E-3	66.5206E-12	807.846E-3	-26.2274E-3
2.01351E-3	66.2824E-12	760.697E-3	-21.0592E-3	66.5144E-12	820.983E-3	-23.8308E-3
2.00850E-3	65.9539E-12	748.290E-3	-11.8928E-3	66.3518E-12	819.814E-3	-20.1665E-3
2.00350E-3	65.8387E-12	767.825E-3	-4.59928E-3	66.5639E-12	817.220E-3	-13.8849E-3
1.99850E-3	65.5134E-12	794.258E-3	-11.6495E-3	66.7517E-12	801.366E-3	-28.3886E-3
1.99350E-3	65.0989E-12	801.999E-3	-20.7883E-3	66.5226E-12	789.521E-3	-50.4298E-3
1.98849E-3	64.5837E-12	801.036E-3	-18.3225E-3	66.0756E-12	800.738E-3	-39.8410E-3
1.98349E-3	64.3719E-12	807.057E-3	-5.02866E-3	65.8912E-12	808.431E-3	-27.3069E-3
1.97849E-3	63.8781E-12	807.466E-3	10.9239E-3	65.9639E-12	799.821E-3	-29.3524E-3
1.97349E-3	63.0217E-12	795.654E-3	10.5382E-3	65.2727E-12	800.397E-3	-28.4075E-3
1.96848E-3	62.8617E-12	783.076E-3	9.48345E-3	64.7651E-12	816.911E-3	-23.8494E-3
1.96348E-3	62.9434E-12	780.696E-3	11.5278E-3	64.2625E-12	819.502E-3	-18.4522E-3
1.95848E-3	62.3843E-12	779.231E-3	-3.28339E-3	64.1880E-12	809.064E-3	-13.1883E-3
1.95348E-3	62.0949E-12	777.868E-3	-5.53537E-3	63.5805E-12	801.585E-3	-6.50436E-3
1.94847E-3	62.7544E-12	781.046E-3	6.40317E-3	63.2613E-12	792.325E-3	-21.6441E-3
1.94347E-3	62.6679E-12	787.863E-3	4.79368E-3	62.5949E-12	784.784E-3	-45.9426E-3
1.93847E-3	62.3130E-12	798.103E-3	-8.33249E-3	62.2611E-12	786.089E-3	-48.5686E-3
1.93347E-3	62.4321E-12	797.784E-3	-18.2141E-3	61.9260E-12	797.256E-3	-38.7157E-3
1.92846E-3	62.5273E-12	810.831E-3	-26.1840E-3	61.7118E-12	808.623E-3	-21.7621E-3
1.92346E-3	62.2573E-12	842.292E-3	-22.8307E-3	61.3252E-12	808.082E-3	-8.89821E-3
1.91846E-3	61.8779E-12	846.650E-3	-7.01889E-3	60.7878E-12	812.509E-3	561.462E-6
1.91346E-3	61.9208E-12	827.431E-3	-7.75599E-3	60.7157E-12	832.243E-3	572.073E-6
1.90845E-3	61.9313E-12	818.881E-3	-14.1266E-3	60.5540E-12	842.929E-3	-20.3579E-3
1.90345E-3	61.5324E-12	834.546E-3	-15.9590E-3	60.3884E-12	825.641E-3	-34.2958E-3
1.89845E-3	61.0418E-12	846.202E-3	-12.9470E-3	60.0420E-12	811.191E-3	-27.2816E-3
1.89345E-3	60.7895E-12	841.006E-3	-9.77242E-3	59.7993E-12	817.151E-3	-21.4511E-3
1.88844E-3	60.0843E-12	834.128E-3	-27.4952E-3	59.2715E-12	817.656E-3	-22.2900E-3
1.88344E-3	59.3677E-12	824.677E-3	-35.4062E-3	59.0211E-12	826.879E-3	-25.5865E-3
1.87844E-3	59.0940E-12	813.402E-3	-20.3599E-3	58.3936E-12	849.063E-3	-19.2551E-3
1.87344E-3	58.4418E-12	809.886E-3	-17.8792E-3	58.0647E-12	844.655E-3	-8.13411E-3
1.86843E-3	58.3020E-12	819.226E-3	-28.5500E-3	57.6600E-12	824.771E-3	-7.18102E-3
1.86343E-3	58.0793E-12	827.585E-3	-30.0480E-3	57.4556E-12	821.433E-3	-1.34289E-3
1.85843E-3	57.6428E-12	829.224E-3	-22.5435E-3	56.9622E-12	833.498E-3	-560.250E-6
1.85343E-3	57.6554E-12	837.152E-3	-19.9211E-3	56.6506E-12	837.988E-3	-8.66372E-3
1.84842E-3	57.6193E-12	852.453E-3	-19.7717E-3	56.2634E-12	824.647E-3	-11.0513E-3
1.84342E-3	57.2039E-12	855.211E-3	-15.1975E-3	55.7740E-12	813.962E-3	-15.8365E-3
1.83842E-3	56.7859E-12	838.657E-3	-10.3555E-3	55.6855E-12	822.699E-3	-23.5252E-3
1.83342E-3	57.2372E-12	823.388E-3	-12.1540E-3	55.4122E-12	848.048E-3	-27.2306E-3
1.82841E-3	57.0132E-12	826.342E-3	-11.6000E-3	55.0145E-12	858.571E-3	-23.9646E-3
1.82341E-3	56.6453E-12	850.920E-3	-14.2359E-3	54.5960E-12	841.662E-3	-19.3472E-3
1.81841E-3	56.5736E-12	875.566E-3	-18.9668E-3	54.5118E-12	828.896E-3	-21.5911E-3
1.81341E-3	56.2762E-12	883.748E-3	-16.2337E-3	54.3709E-12	833.443E-3	-26.6809E-3
1.80840E-3	55.7304E-12	882.165E-3	-14.1825E-3	54.2178E-12	845.676E-3	-25.3013E-3
1.80340E-3	55.7931E-12	874.620E-3	1.17238E-3	54.0374E-12	866.947E-3	-18.5118E-3
1.79840E-3	55.2500E-12	868.171E-3	7.39375E-3	53.9035E-12	876.343E-3	-11.8517E-3
1.79340E-3	54.2590E-12	869.100E-3	-11.7542E-3	53.9114E-12	859.654E-3	-9.40396E-3
1.78839E-3	54.1765E-12	871.613E-3	-30.5404E-3	53.6338E-12	852.386E-3	-19.7350E-3
1.78339E-3	53.9280E-12	859.908E-3	-37.8064E-3	53.3860E-12	867.703E-3	-29.8576E-3
1.77839E-3	53.2763E-12	856.106E-3	-34.5345E-3	53.5654E-12	884.138E-3	-23.1480E-3
1.77339E-3	52.5292E-12	872.271E-3	-17.1364E-3	53.4135E-12	898.518E-3	-14.2936E-3
1.76838E-3	52.3230E-12	878.568E-3	-70.6171E-6	53.3395E-12	910.322E-3	-12.1438E-3
1.76338E-3	51.9740E-12	868.339E-3	-4.33995E-3	53.1436E-12	915.833E-3	-20.5957E-3
1.75838E-3	51.8699E-12	861.583E-3	-7.90936E-3	53.0123E-12	912.136E-3	-36.8091E-3
1.75338E-3	51.1626E-12	867.825E-3	3.45718E-3	52.8429E-12	901.735E-3	-36.6574E-3
1.74837E-3	50.8349E-12	872.459E-3	9.74739E-3	52.5100E-12	901.820E-3	-17.2919E-3
1.74337E-3	50.6791E-12	877.522E-3	3.93904E-3	51.9985E-12	915.883E-3	408.160E-6
1.73837E-3	50.4929E-12	877.061E-3	-1.08879E-3	51.6142E-12	920.527E-3	3.71584E-3
1.73337E-3	50.2634E-12	866.129E-3	-19.8474E-3	51.1385E-12	917.592E-3	-3.28190E-3
1.72836E-3	49.9967E-12	863.821E-3	-26.2989E-3	50.6626E-12	928.013E-3	-11.5351E-3
1.72336E-3	49.4270E-12	874.729E-3	-4.07380E-3	50.2550E-12	932.436E-3	-18.8269E-3
1.71836E-3	49.2072E-12	893.596E-3	3.95915E-3	49.9306E-12	927.513E-3	-18.9981E-3
1.71336E-3	49.1401E-12	908.547E-3	-4.66079E-3	49.5067E-12	923.956E-3	-9.71340E-3
1.70835E-3	48.9091E-12	913.208E-3	-11.5300E-3	49.2273E-12	926.367E-3	-10.4316E-3
1.70335E-3	48.4585E-12	915.582E-3	-8.42424E-3	48.8319E-12	941.898E-3	-17.8045E-3
1.69835E-3	48.0317E-12	922.493E-3	-4.50096E-3	48.4283E-12	953.771E-3	-21.4043E-3
1.69335E-3	48.3385E-12	938.254E-3	-17.3210E-3	48.4723E-12	962.909E-3	-19.3599E-3
1.68834E-3	48.1124E-12	947.493E-3	-38.6145E-3	48.2369E-12	975.656E-3	-11.5089E-3
1.68334E-3	47.3757E-12	946.365E-3	-37.6518E-3	47.9531E-12	987.240E-3	-10.2924E-3
1.67834E-3	47.0432E-12	944.755E-3	-19.8067E-3	47.7554E-12	981.950E-3	-14.4416E-3
1.67334E-3	47.3741E-12	940.079E-3	-7.70650E-3	47.8585E-12	969.445E-3	-17.7516E-3
1.66833E-3	46.4582E-12	945.396E-3	-8.77043E-3	47.5193E-12	972.990E-3	-27.7469E-3
1.66333E-3	45.9477E-12	959.491E-3	-15.6123E-3	47.4910E-12	976.336E-3	-41.0827E-3
1.65833E-3	45.9092E-12	954.842E-3	-14.0899E-3	47.2017E-12	982.494E-3	-36.9427E-3
1.65333E-3	45.4091E-12	944.583E-3	-6.31065E-3	46.7915E-12	996.347E-3	-20.1309E-3
1.64832E-3	44.8841E-12	956.685E-3	510.576E-6	46.4760E-12	1.00667E+0	-13.2716E-3
1.64332E-3	44.5945E-12	973.064E-3	-3.20713E-3	45.9777E-12	1.00097E+0	-19.0182E-3
1.63832E-3	44.3530E-12	974.463E-3	-11.3016E-3	45.3095E-12	982.123E-3	-28.2547E-3
1.63332E-3	43.8494E-12	972.429E-3	-13.9742E-3	44.8781E-12	983.369E-3	-36.6499E-3
1.62831E-3	43.6745E-12	967.933E-3	-12.3627E-3	44.1043E-12	995.019E-3	-38.0914E-3
1.62331E-3	43.3764E-12	963.973E-3	-3.74842E-3	43.4289E-12	998.639E-3	-28.1025E-3
1.61831E-3	42.9999E-12	965.203E-3	2.43916E-3	43.0210E-12	1.00201E+0	-26.9689E-3
1.61331E-3	42.8788E-12	970.213E-3	-13.0732E-3	42.3792E-12	1.00072E+0	-29.6972E-3
1.60830E-3	42.6822E-12	980.684E-3	-23.4605E-3	41.7909E-12	997.120E-3	-22.9841E-3
1.60330E-3	42.4655E-12	982.635E-3	-10.4434E-3	41.3812E-12	1.00890E+0	-24.8069E-3
1.59830E-3	42.5690E-12	984.714E-3	-5.27912E-3	41.2600E-12	1.02922E+0	-28.2390E-3
1.59330E-3	42.2277E-12	1.00046E+0	-3.79003E-3	40.8665E-12	1.03087E+0	-26.8039E-3
1.58829E-3	41.9216E-12	1.01722E+0	-1.27851E-3	40.5520E-12	1.02047E+0	-25.5917E-3
1.58329E-3	42.0827E-12	1.02682E+0	-3.17154E-3	40.6308E-12	1.02410E+0	-22.0991E-3
1.57829E-3	41.7174E-12	1.03491E+0	834.368E-6	40.3440E-12	1.03824E+0	-11.9364E-3
1.57329E-3	41.1512E-12	1.04919E+0	-42.2190E-6	40.2040E-12	1.04826E+0	-1.86659E-3
1.56828E-3	40.6793E-12	1.06920E+0	-9.23264E-3	39.9483E-12	1.05707E+0	-1.23105E-3
1.56328E-3	40.1689E-12	1.08419E+0	-15.8369E-3	39.7779E-12	1.06368E+0	669.416E-6
1.55828E-3	39.5296E-12	1.08858E+0	-20.1350E-3	39.3498E-12	1.06856E+0	2.14566E-3
1.55328E-3	39.2812E-12	1.08265E+0	-18.8910E-3	39.0749E-12	1.07581E+0	-6.60372E-3
1.54827E-3	38.6019E-12	1.07325E+0	-6.51881E-3	38.5762E-12	1.07986E+0	-5.14902E-3
1.54327E-3	38.1347E-12	1.06739E+0	11.3115E-3	38.2164E-12	1.08107E+0	4.26672E-3
1.53827E-3	37.8813E-12	1.06496E+0	10.4233E-3	37.8080E-12	1.07468E+0	-9.53358E-3
1.53327E-3	37.3109E-12	1.06524E+0	-9.74627E-3	37.1079E-12	1.05894E+0	-30.7280E-3
1.52826E-3	36.6908E-12	1.05692E+0	-20.1680E-3	36.4708E-12	1.04858E+0	-27.2400E-3
1.52326E-3	36.4826E-12	1.04471E+0	-13.2823E-3	36.0321E-12	1.04982E+0	-20.5588E-3
1.51826E-3	36.2321E-12	1.04793E+0	-38.3298E-6	35.4619E-12	1.04910E+0	-23.4400E-3
1.51326E-3	35.8140E-12	1.05753E+0	2.12163E-3	34.8917E-12	1.04252E+0	-16.3301E-3
1.50825E-3	35.5345E-12	1.05281E+0	-16.1086E-3	34.6405E-12	1.04786E+0	-13.1237E-3
1.50325E-3	35.5687E-12	1.04656E+0	-34.7955E-3	34.4211E-12	1.06558E+0	-29.8860E-3
1.49825E-3	35.2473E-12	1.06120E+0	-28.7824E-3	34.0876E-12	1.08177E+0	-39.9160E-3
1.49325E-3	34.9816E-12	1.08649E+0	-9.92169E-3	33.7488E-12	1.09373E+0	-29.6884E-3
1.48824E-3	34.7483E-12	1.10083E+0	-3.62254E-3	33.6653E-12	1.10124E+0	-10.0539E-3
1.48324E-3	34.2681E-12	1.10339E+0	-12.6317E-3	33.5187E-12	1.11068E+0	-2.22177E-3
1.47824E-3	33.8862E-12	1.09478E+0	-18.6456E-3	33.3815E-12	1.12051E+0	-12.5393E-3
1.47324E-3	33.5036E-12	1.08578E+0	-23.8045E-3	32.8896E-12	1.11822E+0	-18.3446E-3
1.46823E-3	33.0331E-12	1.09826E+0	-31.2239E-3	32.9331E-12	1.10468E+0	-15.2291E-3
1.46323E-3	32.4879E-12	1.10578E+0	-30.5799E-3	32.7558E-12	1.08423E+0	-15.8044E-3
1.45823E-3	32.1851E-12	1.09689E+0	-28.7250E-3	32.2466E-12	1.07121E+0	-26.7007E-3
1.45323E-3	31.5091E-12	1.09114E+0	-28.0551E-3	31.8350E-12	1.08065E+0	-39.2255E-3
1.44822E-3	30.9328E-12	1.08244E+0	-20.2635E-3	31.6631E-12	1.09848E+0	-43.0045E-3
1.44322E-3	30.4506E-12	1.07541E+0	-11.8071E-3	31.2803E-12	1.10120E+0	-31.2643E-3
1.43822E-3	30.2085E-12	1.07920E+0	-16.9310E-3	30.7882E-12	1.08727E+0	-17.6740E-3
1.43322E-3	29.8253E-12	1.07982E+0	-18.5967E-3	30.4200E-12	1.07274E+0	-21.3703E-3
1.42821E-3	29.2251E-12	1.06683E+0	-8.54001E-3	29.9779E-12	1.06508E+0	-30.2279E-3
1.42321E-3	29.2096E-12	1.05338E+0	-4.07075E-3	29.7842E-12	1.06582E+0	-32.9575E-3
1.41821E-3	28.8216E-12	1.05384E+0	-9.04845E-3	29.0717E-12	1.07140E+0	-29.1794E-3
1.41321E-3	28.3603E-12	1.06256E+0	-17.1406E-3	28.6223E-12	1.07324E+0	-14.4813E-3
1.40820E-3	28.0561E-12	1.06806E+0	-23.3503E-3	28.3604E-12	1.06473E+0	-4.39800E-3
1.40320E-3	27.9679E-12	1.06741E+0	-21.3674E-3	28.1465E-12	1.05772E+0	-14.4642E-3
1.39820E-3	27.5890E-12	1.06264E+0	-3.32659E-3	27.5227E-12	1.06126E+0	-28.5967E-3
1.39320E-3	27.1814E-12	1.06312E+0	6.88046E-3	27.4052E-12	1.05605E+0	-27.2211E-3
1.38819E-3	27.0750E-12	1.07466E+0	-8.29695E-3	27.2707E-12	1.04281E+0	-18.5985E-3
1.38319E-3	26.8400E-12	1.08012E+0	-26.3548E-3	26.7322E-12	1.03939E+0	-14.3413E-3
1.37819E-3	26.5080E-12	1.06500E+0	-30.0101E-3	26.4346E-12	1.04540E+0	-19.0653E-3
1.37319E-3	26.0952E-12	1.04883E+0	-25.3514E-3	26.1777E-12	1.04998E+0	-22.1776E-3
1.36818E-3	25.8548E-12	1.04600E+0	-17.7740E-3	26.0237E-12	1.04408E+0	-14.9757E-3
1.36318E-3	25.4654E-12	1.04913E+0	-16.7873E-3	25.5861E-12	1.03329E+0	-6.93635E-3
1.35818E-3	25.0109E-12	1.04939E+0	-15.5420E-3	25.2583E-12	1.02952E+0	2.19796E-3
1.35318E-3	24.6621E-12	1.03315E+0	-8.22772E-3	25.0899E-12	1.02322E+0	8.63262E-3
1.34817E-3	24.3224E-12	1.01684E+0	-8.00960E-3	24.7566E-12	1.01904E+0	3.62142E-3
1.34317E-3	23.9428E-12	1.01661E+0	-10.8793E-3	24.3583E-12	1.02269E+0	-8.06140E-3
1.33817E-3	23.5269E-12	1.01394E+0	-17.3742E-3	23.9952E-12	1.00294E+0	-20.2064E-3
1.33317E-3	23.2520E-12	1.00447E+0	-23.1331E-3	23.8386E-12	968.168E-3	-30.4119E-3
1.32816E-3	23.0790E-12	994.411E-3	-22.9018E-3	23.4227E-12	950.783E-3	-33.0462E-3
1.32316E-3	22.6109E-12	981.688E-3	-18.8036E-3	22.9436E-12	942.326E-3	-32.5536E-3
1.31816E-3	22.1762E-12	974.276E-3	-11.5451E-3	22.4985E-12	935.382E-3	-29.9493E-3
1.31316E-3	22.0890E-12	976.170E-3	-21.6598E-3	22.1882E-12	924.147E-3	-22.1788E-3
1.30815E-3	21.7009E-12	968.848E-3	-38.9449E-3	21.7051E-12	901.010E-3	-22.0272E-3
1.30315E-3	21.5132E-12	948.391E-3	-30.9701E-3	21.2907E-12	879.782E-3	-26.0235E-3
1.29815E-3	21.2775E-12	929.116E-3	-8.75599E-3	20.8267E-12	866.961E-3	-24.6099E-3
1.29315E-3	20.9462E-12	906.760E-3	9.80338E-3	20.4477E-12	864.210E-3	-18.1197E-3
1.28814E-3	20.6907E-12	884.356E-3	13.9262E-3	20.2856E-12	864.495E-3	-9.84166E-3
1.28314E-3	20.7334E-12	888.897E-3	78.0556E-6	19.8420E-12	845.457E-3	-12.0321E-3
1.27814E-3	20.2735E-12	903.242E-3	-10.4697E-3	19.3363E-12	821.932E-3	-17.3130E-3
1.27314E-3	19.8677E-12	895.782E-3	-1.64758E-3	19.3396E-12	814.608E-3	-15.8194E-3
1.26813E-3	19.8602E-12	887.933E-3	11.1104E-3	19.0453E-12	806.729E-3	-12.2440E-3
1.26313E-3	19.5455E-12	884.433E-3	5.51754E-3	18.6905E-12	789.999E-3	-10.0394E-3
1.25813E-3	19.0702E-12	863.839E-3	-13.2454E-3	18.4360E-12	770.557E-3	-11.7621E-3
1.25313E-3	18.8860E-12	839.706E-3	-24.8040E-3	18.3007E-12	746.152E-3	-17.7431E-3
1.24812E-3	18.5937E-12	830.648E-3	-22.8272E-3	17.9606E-12	729.090E-3	-29.5962E-3
1.24312E-3	18.0437E-12	830.085E-3	-14.9987E-3	17.7157E-12	721.136E-3	-36.3431E-3
1.23812E-3	17.9579E-12	815.783E-3	-7.93814E-3	17.5629E-12	709.166E-3	-24.8279E-3
1.23312E-3	17.6426E-12	777.983E-3	-6.29961E-3	17.4376E-12	697.469E-3	-12.2840E-3
1.22811E-3	17.1775E-12	748.565E-3	-11.6006E-3	17.0672E-12	684.163E-3	-3.10961E-3
1.22311E-3	17.0517E-12	747.345E-3	-8.67908E-3	16.8321E-12	669.306E-3	6.73980E-3
1.21811E-3	16.7409E-12	737.457E-3	-709.289E-6	16.5159E-12	651.340E-3	-3.77121E-3
1.21311E-3	16.3701E-12	712.974E-3	-7.32174E-3	16.3411E-12	628.799E-3	-16.6789E-3
1.20810E-3	16.0966E-12	702.341E-3	-17.7080E-3	15.9220E-12	622.402E-3	-7.86840E-3
1.20310E-3	15.8952E-12	694.018E-3	-20.0165E-3	15.6949E-12	623.608E-3	-8.63624E-3
1.19810E-3	15.6111E-12	677.674E-3	-24.7972E-3	15.3592E-12	610.451E-3	-20.1500E-3
1.19310E-3	15.3390E-12	663.036E-3	-32.8491E-3	15.3221E-12	593.869E-3	-14.9419E-3
1.18809E-3	15.2822E-12	641.735E-3	-31.8228E-3	15.1803E-12	586.259E-3	1.69789E-3
1.18309E-3	15.1280E-12	614.008E-3	-22.1939E-3	14.8424E-12	572.442E-3	7.34698E-3
1.17809E-3	14.7909E-12	605.374E-3	-9.13568E-3	14.7033E-12	547.650E-3	-10.2988E-3
1.17309E-3	14.7388E-12	611.605E-3	998.771E-6	14.5729E-12	533.392E-3	-31.4674E-3
1.16808E-3	14.5369E-12	596.959E-3	1.49902E-3	14.3966E-12	525.724E-3	-26.7911E-3
1.16308E-3	14.4116E-12	568.092E-3	-6.58277E-3	14.2345E-12	515.246E-3	-10.4440E-3
1.15808E-3	14.1153E-12	559.941E-3	-7.75762E-3	14.2112E-12	509.425E-3	-7.52430E-3
1.15308E-3	13.9953E-12	558.445E-3	-5.47906E-3	13.9984E-12	500.153E-3	-17.2684E-3
1.14807E-3	13.8484E-12	543.571E-3	-12.6818E-3	13.9666E-12	483.526E-3	-22.3944E-3
1.14307E-3	13.6858E-12	516.174E-3	-17.3689E-3	14.0573E-12	474.520E-3	-20.3898E-3
1.13807E-3	13.4572E-12	491.097E-3	-28.6040E-3	13.9086E-12	462.443E-3	-19.9503E-3
1.13307E-3	13.3294E-12	485.635E-3	-51.1829E-3	13.6257E-12	444.822E-3	-22.0847E-3
1.12806E-3	13.3103E-12	475.451E-3	-49.5438E-3	13.5577E-12	431.444E-3	-21.2572E-3
1.12306E-3	12.9495E-12	451.126E-3	-27.4513E-3	13.2942E-12	413.125E-3	-20.4455E-3
1.11806E-3	12.8553E-12	431.758E-3	-24.9444E-3	13.0673E-12	393.471E-3	-28.9362E-3
1.11306E-3	12.6799E-12	423.217E-3	-25.7483E-3	12.9527E-12	383.769E-3	-28.5801E-3
1.10805E-3	12.6335E-12	414.879E-3	-16.6862E-3	12.7625E-12	373.100E-3	-17.4054E-3
1.10305E-3	12.5874E-12	399.019E-3	-23.0150E-3	12.5838E-12	352.285E-3	-15.0859E-3
1.09805E-3	12.3690E-12	384.409E-3	-26.0898E-3	12.5569E-12	334.321E-3	-23.0317E-3
1.09305E-3	12.2207E-12	369.568E-3	-13.1424E-3	12.2830E-12	326.529E-3	-20.2515E-3
1.08804E-3	12.2493E-12	352.051E-3	-2.48809E-3	12.0879E-12	317.383E-3	-4.26405E-3
1.08304E-3	12.1375E-12	346.802E-3	-3.17957E-3	11.9929E-12	299.193E-3	4.70783E-3
1.07804E-3	11.9323E-12	344.732E-3	-15.8204E-3	11.9219E-12	289.671E-3	-254.351E-6
1.07304E-3	11.9350E-12	331.190E-3	-22.0288E-3	11.7354E-12	291.107E-3	-16.3961E-3
1.06803E-3	11.9465E-12	328.110E-3	-16.3306E-3	11.7523E-12	292.706E-3	-26.0271E-3
1.06303E-3	11.7665E-12	329.058E-3	-15.0124E-3	11.5912E-12	288.494E-3	-21.1639E-3
1.05803E-3	11.7366E-12	313.598E-3	-24.4436E-3	11.4446E-12	270.986E-3	-11.5509E-3
1.05303E-3	11.9924E-12	300.625E-3	-37.5237E-3	11.4048E-12	251.252E-3	-5.81288E-3
1.04802E-3	11.5931E-12	290.381E-3	-42.9503E-3	11.3729E-12	249.945E-3	-11.3640E-3
1.04302E-3	11.5154E-12	275.746E-3	-33.2023E-3	11.3258E-12	257.456E-3	-18.2216E-3
1.03802E-3	11.7002E-12	274.026E-3	-16.4846E-3	11.2221E-12	241.126E-3	-8.25956E-3
1.03302E-3	11.3794E-12	279.854E-3	-6.00132E-3	11.0595E-12	217.162E-3	6.54963E-3
1.02801E-3	10.9914E-12	273.157E-3	-2.54207E-3	10.8822E-12	207.304E-3	4.42971E-3
1.02301E-3	10.9498E-12	253.092E-3	-3.98373E-3	10.6591E-12	195.715E-3	-8.66480E-3
1.01801E-3	10.9205E-12	232.972E-3	-3.79255E-3	10.5263E-12	187.525E-3	-18.1292E-3
1.01301E-3	10.6635E-12	218.597E-3	-4.67010E-3	10.5487E-12	189.289E-3	-17.8341E-3
1.00800E-3	10.6188E-12	212.359E-3	-15.8075E-3	10.3671E-12	186.778E-3	-13.0805E-3
1.00300E-3	10.5054E-12	216.306E-3	-21.2353E-3	10.2083E-12	176.090E-3	-13.9334E-3
997.999E-6	10.3199E-12	218.122E-3	-28.5680E-3	10.2122E-12	166.726E-3	-13.4217E-3
992.997E-6	10.4157E-12	209.891E-3	-37.8740E-3	10.0908E-12	166.318E-3	-8.38019E-3
987.994E-6	10.3275E-12	197.591E-3	-18.0250E-3	9.93572E-12	167.831E-3	-11.5458E-3
982.991E-6	10.1095E-12	186.934E-3	6.93828E-3	9.89172E-12	167.751E-3	-22.1590E-3
977.989E-6	10.1258E-12	186.338E-3	-3.75896E-3	9.87596E-12	169.354E-3	-27.6953E-3
972.986E-6	10.0159E-12	194.103E-3	-17.7630E-3	9.72107E-12	163.188E-3	-23.8899E-3
967.984E-6	9.94599E-12	189.435E-3	7.07095E-6	9.71641E-12	151.967E-3	-18.3773E-3
962.981E-6	9.86211E-12	180.994E-3	12.5887E-3	9.67964E-12	153.874E-3	-16.3906E-3
957.979E-6	9.77363E-12	183.896E-3	686.812E-6	9.63688E-12	168.214E-3	-13.7322E-3
952.976E-6	9.73951E-12	191.572E-3	-14.3330E-3	9.58230E-12	171.082E-3	-19.2865E-3
947.974E-6	9.68100E-12	193.728E-3	-27.4898E-3	9.56756E-12	162.810E-3	-28.5615E-3
942.971E-6	9.57402E-12	177.766E-3	-26.1839E-3	9.50139E-12	166.979E-3	-26.4396E-3
937.969E-6	9.50405E-12	152.429E-3	-9.16538E-3	9.48279E-12	178.958E-3	-18.8104E-3
932.966E-6	9.46683E-12	147.444E-3	104.013E-6	9.40742E-12	182.315E-3	-9.95008E-3
927.964E-6	9.41450E-12	165.462E-3	-4.37509E-3	9.41173E-12	174.818E-3	-6.66609E-3
922.961E-6	9.24518E-12	173.384E-3	-13.6387E-3	9.31380E-12	168.025E-3	-8.94433E-3
917.959E-6	9.25374E-12	159.745E-3	-21.1147E-3	9.27598E-12	171.846E-3	-7.99058E-3
912.956E-6	9.21885E-12	155.024E-3	-20.5292E-3	9.21522E-12	179.430E-3	-9.19564E-3
907.954E-6	9.04352E-12	165.754E-3	-15.8925E-3	9.22724E-12	181.719E-3	-8.33677E-3
902.951E-6	9.04946E-12	169.725E-3	-17.5897E-3	9.25329E-12	174.374E-3	-11.8992E-3
897.949E-6	9.18705E-12	168.472E-3	-21.8640E-3	9.12233E-12	157.563E-3	-24.2682E-3
892.946E-6	8.91434E-12	170.028E-3	-25.6201E-3	9.00543E-12	149.022E-3	-35.8143E-3
887.944E-6	8.85891E-12	163.755E-3	-23.7693E-3	8.85198E-12	161.302E-3	-34.7929E-3
882.941E-6	8.76067E-12	155.766E-3	-9.87142E-3	8.90396E-12	173.940E-3	-16.6951E-3
877.939E-6	8.84955E-12	163.425E-3	6.04774E-3	8.83998E-12	170.830E-3	-10.6420E-3
872.936E-6	8.82631E-12	180.847E-3	3.58255E-3	8.78873E-12	162.827E-3	-17.6041E-3
867.934E-6	8.77170E-12	192.990E-3	-13.9353E-3	8.74731E-12	159.494E-3	-16.1273E-3
862.931E-6	8.56652E-12	192.187E-3	-21.3796E-3	8.60948E-12	165.284E-3	-12.3491E-3
857.929E-6	8.68103E-12	177.077E-3	-17.5391E-3	8.58372E-12	175.625E-3	-16.0451E-3
852.926E-6	8.69508E-12	164.447E-3	-7.69125E-3	8.58262E-12	178.604E-3	-25.8901E-3
847.924E-6	8.47864E-12	166.151E-3	-5.68706E-3	8.47635E-12	177.907E-3	-28.4626E-3
842.921E-6	8.43434E-12	168.360E-3	-24.6057E-3	8.43906E-12	179.546E-3	-24.9263E-3
837.919E-6	8.49163E-12	168.347E-3	-36.8857E-3	8.45852E-12	189.199E-3	-25.8776E-3
832.916E-6	8.44813E-12	172.132E-3	-36.6159E-3	8.35106E-12	208.810E-3	-21.5349E-3
827.914E-6	8.37222E-12	178.729E-3	-37.8788E-3	8.28653E-12	221.231E-3	-15.9143E-3
822.911E-6	8.34153E-12	185.816E-3	-31.3601E-3	8.28488E-12	219.374E-3	-20.9134E-3
817.909E-6	8.36573E-12	183.304E-3	-22.3851E-3	8.15862E-12	215.490E-3	-26.0001E-3
812.906E-6	8.16298E-12	170.978E-3	-26.0333E-3	8.05927E-12	218.471E-3	-25.8542E-3
807.904E-6	8.06711E-12	174.847E-3	-27.6793E-3	8.06173E-12	224.567E-3	-25.1494E-3
802.901E-6	8.07261E-12	196.849E-3	-13.2582E-3	8.13750E-12	223.942E-3	-19.4686E-3
797.899E-6	7.95201E-12	215.428E-3	-2.17625E-3	7.87870E-12	214.215E-3	-19.6891E-3
792.896E-6	7.92393E-12	225.258E-3	-4.56676E-3	7.88462E-12	214.383E-3	-31.0227E-3
787.894E-6	7.78212E-12	220.217E-3	-9.25943E-3	7.98975E-12	231.489E-3	-23.1555E-3
782.891E-6	7.79195E-12	202.795E-3	-5.92753E-3	7.63934E-12	236.460E-3	-13.3398E-3
777.889E-6	7.71650E-12	198.373E-3	352.077E-6	7.50987E-12	216.814E-3	-27.4585E-3
772.886E-6	7.55014E-12	206.474E-3	-3.11053E-3	7.55991E-12	202.942E-3	-27.2417E-3
767.884E-6	7.44706E-12	215.949E-3	-14.9247E-3	7.52761E-12	211.525E-3	-13.8791E-3
762.881E-6	7.56240E-12	227.455E-3	-17.4766E-3	7.36194E-12	221.707E-3	-19.9653E-3
757.879E-6	7.50644E-12	227.894E-3	-3.61133E-3	7.38429E-12	233.184E-3	-30.3882E-3
752.876E-6	7.28902E-12	226.971E-3	315.883E-6	7.25562E-12	246.547E-3	-24.0714E-3
747.874E-6	7.31671E-12	240.657E-3	-14.8787E-3	7.14801E-12	244.372E-3	-15.6110E-3
742.871E-6	7.30508E-12	253.525E-3	-28.9032E-3	7.03036E-12	234.924E-3	-20.6971E-3
737.869E-6	7.22447E-12	247.481E-3	-30.1518E-3	7.00257E-12	232.792E-3	-26.1226E-3
732.866E-6	7.11794E-12	233.469E-3	-27.7688E-3	6.92721E-12	234.366E-3	-19.2474E-3
727.864E-6	7.05244E-12	228.268E-3	-28.5846E-3	6.87509E-12	242.657E-3	-9.08975E-3
722.861E-6	6.96121E-12	229.338E-3	-36.1218E-3	6.71748E-12	252.771E-3	-2.19624E-3
717.859E-6	6.84350E-12	242.540E-3	-41.1588E-3	6.63096E-12	249.924E-3	-5.44981E-3
712.856E-6	6.70426E-12	263.217E-3	-33.8912E-3	6.57144E-12	242.102E-3	-14.7102E-3
707.854E-6	6.55852E-12	264.051E-3	-23.4465E-3	6.52779E-12	241.026E-3	-15.8977E-3
702.851E-6	6.53116E-12	253.484E-3	-17.1660E-3	6.49295E-12	243.662E-3	-12.1037E-3
697.849E-6	6.43073E-12	256.997E-3	-9.56892E-3	6.41219E-12	247.983E-3	-8.34587E-3
692.846E-6	6.29776E-12	261.295E-3	-10.0628E-3	6.21518E-12	259.561E-3	-4.88851E-3
687.844E-6	6.21547E-12	252.974E-3	-28.4292E-3	6.21681E-12	268.157E-3	-18.8054E-3
682.841E-6	6.03685E-12	244.670E-3	-32.1031E-3	6.18505E-12	263.058E-3	-39.4357E-3
677.839E-6	5.98640E-12	244.564E-3	-10.9914E-3	5.97754E-12	260.044E-3	-35.5494E-3
672.836E-6	6.00641E-12	256.608E-3	-2.30828E-3	5.77066E-12	257.983E-3	-23.0200E-3
667.834E-6	5.85364E-12	268.448E-3	-12.8745E-3	5.78113E-12	248.345E-3	-16.9546E-3
662.831E-6	5.63779E-12	263.749E-3	-20.0694E-3	5.70332E-12	251.654E-3	-12.8888E-3
657.829E-6	5.62612E-12	261.219E-3	-18.5256E-3	5.53763E-12	269.222E-3	-15.9766E-3
652.826E-6	5.58392E-12	274.152E-3	-15.6925E-3	5.53636E-12	278.224E-3	-17.3907E-3
647.824E-6	5.46291E-12	280.562E-3	-18.1957E-3	5.45236E-12	278.691E-3	-11.6463E-3
642.821E-6	5.45085E-12	265.506E-3	-25.6102E-3	5.30316E-12	279.804E-3	-17.6086E-3
637.819E-6	5.28186E-12	249.431E-3	-36.1292E-3	5.21354E-12	276.938E-3	-29.2753E-3
632.816E-6	5.12107E-12	249.145E-3	-38.4292E-3	5.20716E-12	273.109E-3	-30.2559E-3
627.814E-6	5.10694E-12	254.110E-3	-30.5577E-3	5.05669E-12	273.894E-3	-27.9638E-3
622.811E-6	5.11365E-12	259.432E-3	-26.5133E-3	4.94227E-12	272.473E-3	-28.6873E-3
617.809E-6	4.91915E-12	267.739E-3	-28.6464E-3	4.97117E-12	266.560E-3	-19.1643E-3
612.806E-6	4.74368E-12	270.759E-3	-24.6560E-3	4.83657E-12	265.450E-3	-11.0357E-3
607.804E-6	4.69607E-12	270.839E-3	-16.1935E-3	4.73786E-12	276.124E-3	-16.4248E-3
602.801E-6	4.66611E-12	276.117E-3	-2.25646E-3	4.64179E-12	280.177E-3	-10.0613E-3
597.799E-6	4.45729E-12	277.783E-3	746.312E-6	4.57088E-12	270.191E-3	-2.41949E-3
592.796E-6	4.35426E-12	270.665E-3	-20.0522E-3	4.49476E-12	267.811E-3	-2.84816E-3
587.794E-6	4.32294E-12	260.759E-3	-25.8729E-3	4.35398E-12	272.670E-3	-3.99240E-3
582.791E-6	4.21843E-12	251.593E-3	-20.4635E-3	4.26638E-12	279.416E-3	-18.4354E-3
577.789E-6	4.08500E-12	250.802E-3	-26.1439E-3	4.20128E-12	279.654E-3	-23.0836E-3
572.786E-6	3.99886E-12	264.756E-3	-23.6372E-3	4.16948E-12	256.563E-3	-2.71086E-3
567.784E-6	3.93070E-12	269.491E-3	-14.4577E-3	4.02250E-12	237.239E-3	4.68619E-3
562.781E-6	3.84696E-12	262.661E-3	-12.9137E-3	3.90685E-12	247.312E-3	-10.3302E-3
557.779E-6	3.75356E-12	252.692E-3	-19.4592E-3	3.78920E-12	265.936E-3	-20.3494E-3
552.776E-6	3.66393E-12	237.949E-3	-20.3496E-3	3.83909E-12	271.312E-3	-13.9180E-3
547.774E-6	3.64509E-12	246.126E-3	-15.5009E-3	3.67485E-12	260.406E-3	-2.75322E-3
542.771E-6	3.51622E-12	270.188E-3	-21.4961E-3	3.52357E-12	252.897E-3	-2.83709E-3
537.769E-6	3.44943E-12	274.008E-3	-31.9957E-3	3.51547E-12	263.038E-3	-8.96393E-3
532.766E-6	3.46266E-12	255.545E-3	-43.6581E-3	3.46872E-12	271.835E-3	-17.2151E-3
527.764E-6	3.31892E-12	241.983E-3	-42.1427E-3	3.34262E-12	270.002E-3	-16.5861E-3
522.761E-6	3.20491E-12	245.707E-3	-13.5021E-3	3.22723E-12	266.783E-3	-10.2520E-3
517.759E-6	3.14494E-12	244.228E-3	2.40310E-3	3.19825E-12	256.036E-3	-15.8159E-3
512.756E-6	3.17239E-12	248.038E-3	-8.49395E-3	3.09513E-12	243.492E-3	-18.5936E-3
507.754E-6	3.05412E-12	259.493E-3	-19.7264E-3	3.06346E-12	245.681E-3	-12.0269E-3
502.751E-6	2.98021E-12	253.799E-3	-18.4275E-3	2.94651E-12	255.369E-3	-5.87415E-3
497.749E-6	2.86763E-12	242.107E-3	-8.42117E-3	2.80448E-12	251.648E-3	-5.32765E-3
492.746E-6	2.79731E-12	236.679E-3	-710.859E-6	2.77292E-12	232.657E-3	-10.3941E-3
487.744E-6	2.74719E-12	239.430E-3	-6.14700E-3	2.71464E-12	226.026E-3	-22.4978E-3
482.741E-6	2.65557E-12	249.986E-3	-10.2224E-3	2.62105E-12	232.617E-3	-25.5235E-3
477.739E-6	2.52286E-12	255.984E-3	-3.62748E-3	2.51869E-12	239.249E-3	-12.8497E-3
472.736E-6	2.48218E-12	244.170E-3	-7.61300E-3	2.48215E-12	241.524E-3	-9.93277E-3
467.734E-6	2.40811E-12	229.140E-3	-22.2014E-3	2.28649E-12	223.487E-3	-11.9677E-3
462.731E-6	2.32366E-12	221.943E-3	-36.7270E-3	2.25766E-12	202.852E-3	-12.5790E-3
457.729E-6	2.24587E-12	217.255E-3	-35.9069E-3	2.21702E-12	201.130E-3	-21.0942E-3
452.726E-6	2.14491E-12	218.694E-3	-11.8161E-3	2.12959E-12	206.380E-3	-19.3931E-3
447.724E-6	2.15286E-12	225.498E-3	-2.25031E-3	2.01953E-12	204.906E-3	-2.93514E-3
442.721E-6	2.10473E-12	224.459E-3	-17.1918E-3	1.96036E-12	196.434E-3	6.72757E-3
437.719E-6	2.00301E-12	216.251E-3	-17.3108E-3	1.87481E-12	187.701E-3	2.03816E-3
432.716E-6	1.86285E-12	212.492E-3	-4.57724E-3	1.79370E-12	178.928E-3	-9.22539E-3
427.714E-6	1.83753E-12	205.755E-3	-3.58810E-3	1.68674E-12	171.985E-3	-18.0100E-3
422.711E-6	1.74473E-12	194.018E-3	-11.3805E-3	1.69473E-12	164.382E-3	-20.0673E-3
417.709E-6	1.72826E-12	195.715E-3	-18.5892E-3	1.59598E-12	150.738E-3	-14.0882E-3
412.706E-6	1.62721E-12	203.934E-3	-24.8313E-3	1.55321E-12	147.415E-3	-11.2462E-3
407.704E-6	1.58967E-12	192.664E-3	-31.9605E-3	1.51485E-12	151.562E-3	-15.7334E-3
402.701E-6	1.50926E-12	177.128E-3	-31.7267E-3	1.43109E-12	148.281E-3	-12.3802E-3
397.699E-6	1.47229E-12	178.465E-3	-14.9170E-3	1.42103E-12	149.011E-3	-3.28004E-3
392.696E-6	1.42656E-12	183.099E-3	-6.30847E-3	1.33425E-12	151.413E-3	1.65145E-3
387.694E-6	1.30802E-12	179.135E-3	-16.6867E-3	1.25023E-12	145.800E-3	2.09821E-3
382.691E-6	1.25667E-12	164.740E-3	-21.0735E-3	1.22879E-12	143.483E-3	-682.094E-6
377.689E-6	1.19461E-12	152.669E-3	-33.7847E-3	1.19913E-12	143.173E-3	-4.84172E-3
372.686E-6	1.21506E-12	161.331E-3	-49.5468E-3	1.10173E-12	131.486E-3	-6.41594E-3
367.684E-6	1.08618E-12	169.529E-3	-36.0025E-3	1.06574E-12	118.953E-3	-9.71760E-3
362.681E-6	1.01530E-12	158.756E-3	-23.0432E-3	998.795E-15	109.782E-3	-18.8462E-3
357.679E-6	981.382E-15	142.914E-3	-21.7710E-3	954.989E-15	98.6171E-3	-18.3537E-3
352.676E-6	1.02253E-12	129.171E-3	-16.3929E-3	897.947E-15	99.1193E-3	-7.55113E-3
347.674E-6	897.302E-15	122.426E-3	-12.8279E-3	876.515E-15	113.948E-3	-75.1780E-6
342.671E-6	792.225E-15	119.109E-3	-7.92862E-3	825.638E-15	121.351E-3	-4.66816E-3
337.669E-6	801.703E-15	113.287E-3	-11.6364E-3	825.150E-15	110.587E-3	-14.3020E-3
332.666E-6	818.915E-15	107.549E-3	-20.7820E-3	813.326E-15	93.0904E-3	-16.6914E-3
327.664E-6	746.780E-15	102.471E-3	-17.9783E-3	749.518E-15	88.4849E-3	-14.4498E-3
322.661E-6	682.850E-15	100.102E-3	-13.1966E-3	717.396E-15	90.0041E-3	-9.28074E-3
317.659E-6	636.333E-15	97.3421E-3	-10.4207E-3	701.928E-15	88.3608E-3	-13.2533E-3
312.656E-6	615.014E-15	100.037E-3	-3.06137E-3	630.814E-15	89.0725E-3	-24.2291E-3
307.654E-6	623.385E-15	109.448E-3	1.01453E-3	600.436E-15	86.2554E-3	-28.3500E-3
302.651E-6	595.361E-15	105.034E-3	-5.83906E-3	604.725E-15	88.0106E-3	-29.5179E-3
297.649E-6	560.292E-15	94.3465E-3	-8.17312E-3	534.526E-15	89.4489E-3	-26.2612E-3
292.646E-6	475.357E-15	87.0088E-3	-6.77119E-3	523.139E-15	76.4521E-3	-16.7047E-3
287.644E-6	527.882E-15	80.1804E-3	-18.4557E-3	489.413E-15	59.8141E-3	-11.8682E-3
282.641E-6	479.935E-15	79.4403E-3	-17.6179E-3	412.500E-15	50.2596E-3	-18.5892E-3
277.639E-6	456.550E-15	76.8734E-3	-25.7394E-6	477.415E-15	55.8816E-3	-32.8589E-3
272.636E-6	387.301E-15	63.3213E-3	1.42471E-3	394.459E-15	65.4786E-3	-40.6643E-3
267.634E-6	339.580E-15	50.1046E-3	-5.36165E-3	379.637E-15	63.4329E-3	-30.4373E-3
262.631E-6	377.858E-15	52.3558E-3	258.589E-6	343.826E-15	62.3009E-3	-20.9227E-3
257.629E-6	392.593E-15	54.0683E-3	-16.6889E-6	355.249E-15	62.8620E-3	-20.5221E-3
252.626E-6	313.684E-15	53.6816E-3	-14.9569E-3	310.824E-15	62.2470E-3	-23.1108E-3
247.624E-6	293.716E-15	55.6421E-3	-23.1899E-3	319.674E-15	59.3553E-3	-29.2365E-3
242.621E-6	301.860E-15	51.8552E-3	-17.7016E-3	318.418E-15	49.2081E-3	-30.9403E-3
237.619E-6	321.496E-15	51.4824E-3	-13.4802E-3	248.088E-15	50.4320E-3	-24.9361E-3
232.616E-6	232.751E-15	56.6061E-3	-11.4136E-3	230.833E-15	59.1829E-3	-17.9162E-3
227.614E-6	207.038E-15	60.6408E-3	-16.9648E-3	238.166E-15	56.3248E-3	-17.2522E-3
222.611E-6	213.115E-15	69.3441E-3	-37.6195E-3	210.534E-15	50.6730E-3	-18.7789E-3
217.609E-6	215.949E-15	77.6660E-3	-35.2387E-3	168.664E-15	44.8136E-3	-18.7302E-3
212.606E-6	193.610E-15	69.6095E-3	-4.77179E-3	171.655E-15	39.7482E-3	-18.9234E-3
207.604E-6	118.284E-15	55.2781E-3	9.91263E-3	183.400E-15	39.3855E-3	-17.6454E-3
202.601E-6	140.684E-15	43.2485E-3	8.40132E-3	150.171E-15	44.7979E-3	-15.0448E-3
197.599E-6	162.386E-15	33.2491E-3	-3.69786E-3	121.057E-15	47.4749E-3	-14.4448E-3
192.596E-6	146.116E-15	35.2683E-3	-22.4853E-3	108.475E-15	40.4479E-3	-16.8950E-3
187.594E-6	143.186E-15	41.7017E-3	-25.3655E-3	155.821E-15	35.6335E-3	-18.3467E-3
182.591E-6	66.4739E-15	37.1871E-3	-24.3355E-3	86.5109E-15	40.4370E-3	-18.3211E-3
177.589E-6	77.1289E-15	30.6746E-3	-27.5145E-3	54.9906E-15	41.6927E-3	-23.5373E-3
172.586E-6	76.6842E-15	32.4606E-3	-22.8100E-3	65.6892E-15	34.0140E-3	-27.4292E-3
167.584E-6	88.9000E-15	32.8724E-3	-19.6574E-3	56.1241E-15	31.3613E-3	-21.2938E-3
162.581E-6	21.1684E-15	35.5936E-3	-18.0882E-3	65.6020E-15	25.1757E-3	-15.2716E-3
157.579E-6	35.4419E-15	35.4081E-3	-15.0243E-3	13.0158E-15	11.4398E-3	-19.5307E-3
152.576E-6	20.7673E-15	32.8003E-3	-16.6529E-3	42.4609E-15	9.23381E-3	-30.7031E-3
147.574E-6	62.3409E-15	37.9345E-3	-17.5066E-3	23.2174E-15	17.3160E-3	-32.7886E-3
142.571E-6	23.3133E-15	40.4834E-3	-11.4537E-3	-14.9034E-15	17.8989E-3	-21.6283E-3
137.569E-6	-31.1300E-15	41.6117E-3	-6.45014E-3	-5.20753E-15	14.8061E-3	-7.52792E-3
132.566E-6	4.56682E-15	39.6331E-3	-8.69137E-3	2.54393E-15	17.4232E-3	-96.3836E-6
127.564E-6	-10.3868E-15	36.5293E-3	-11.5504E-3	-19.4636E-15	13.9209E-3	-1.09150E-3
122.561E-6	9.51066E-15	27.6976E-3	-15.6036E-3	-24.0151E-15	8.48836E-3	-3.23894E-3
117.559E-6	-72.2939E-15	14.5325E-3	-24.0064E-3	-56.4771E-15	6.98125E-3	-8.71467E-3
112.556E-6	-76.3832E-15	18.1249E-3	-28.6639E-3	5.87471E-15	2.32261E-3	-9.02100E-3
107.554E-6	-37.4515E-15	27.1887E-3	-22.9279E-3	-37.7131E-15	4.10089E-3	-6.16779E-3
102.551E-6	-45.0199E-15	24.5820E-3	-18.4474E-3	-68.4923E-15	14.5299E-3	-13.6227E-3
97.5488E-6	-95.4524E-15	17.9350E-3	-17.8458E-3	-69.7740E-15	16.9095E-3	-20.9806E-3
92.5463E-6	-105.305E-15	14.7919E-3	-8.88566E-3	-36.3093E-15	12.0899E-3	-23.0825E-3
87.5438E-6	-45.7436E-15	17.5480E-3	-6.33153E-3	-77.3947E-15	11.3477E-3	-24.0079E-3
82.5413E-6	-62.7026E-15	23.7557E-3	-19.7185E-3	-87.8927E-15	14.6880E-3	-16.3201E-3
77.5388E-6	-74.1773E-15	17.8750E-3	-22.0836E-3	-106.038E-15	17.7308E-3	-3.78285E-3
72.5363E-6	-95.3826E-15	8.11844E-3	-14.6923E-3	-102.559E-15	21.0067E-3	-584.429E-6
67.5338E-6	-142.781E-15	14.5643E-3	-8.01872E-3	-69.3642E-15	23.0704E-3	-8.22410E-3
62.5313E-6	-69.0329E-15	15.5131E-3	3.63242E-3	-104.355E-15	27.7619E-3	-17.4421E-3
57.5288E-6	-98.1641E-15	7.82837E-3	2.56512E-3	-138.412E-15	28.7417E-3	-25.3193E-3
52.5263E-6	-109.054E-15	5.35828E-3	-12.7813E-3	-108.627E-15	14.5785E-3	-23.8588E-3
47.5238E-6	-76.1304E-15	5.26753E-3	-16.7406E-3	-96.3592E-15	5.03957E-3	-13.0583E-3
42.5213E-6	-111.496E-15	5.56354E-3	-9.79804E-3	-142.249E-15	2.63449E-3	-6.11461E-3
37.5188E-6	-120.329E-15	8.94762E-3	-15.4227E-3	-150.471E-15	-8.17080E-3	-6.55298E-3
32.5163E-6	-87.8840E-15	16.9100E-3	-22.1357E-3	-155.188E-15	-14.5631E-3	-14.3615E-3
27.5138E-6	-147.716E-15	20.7624E-3	-14.1698E-3	-153.096E-15	-2.51848E-3	-24.0584E-3
22.5113E-6	-205.045E-15	22.7616E-3	-16.0251E-3	-151.064E-15	15.8286E-3	-29.2153E-3
17.5088E-6	-193.388E-15	22.7937E-3	-27.6179E-3	-162.469E-15	27.0430E-3	-25.6824E-3
12.5063E-6	-90.4911E-15	11.0087E-3	-25.0538E-3	-176.969E-15	32.4377E-3	-17.2273E-3
7.50375E-6	-138.561E-15	1.36148E-3	-19.4909E-3	-171.781E-15	24.3352E-3	-7.31449E-3
2.50125E-6	-188.104E-15	321.088E-6	-23.0608E-3	-167.744E-15	5.43188E-3	-8.57653E-3
-2.50125E-6	-229.808E-15	-5.32461E-3	-19.8762E-3	-170.578E-15	-1.84141E-3	-24.4187E-3
-7.50375E-6	-180.963E-15	-3.31816E-3	-9.35399E-3	-202.822E-15	4.20123E-3	-30.5689E-3
-12.5063E-6	-123.005E-15	17.0931E-3	-2.36464E-3	-195.044E-15	9.53082E-3	-17.9577E-3
-17.5088E-6	-223.844E-15	28.6005E-3	27.5269E-6	-181.538E-15	6.20753E-3	-1.16901E-3
-22.5113E-6	-246.689E-15	17.0853E-3	-8.18513E-3	-192.498E-15	3.44044E-3	-2.72799E-3
-27.5138E-6	-204.173E-15	8.03750E-3	-15.4434E-3	-185.863E-15	13.9710E-3	-15.7603E-3
-32.5163E-6	-165.268E-15	19.1130E-3	-11.2910E-3	-207.975E-15	19.7671E-3	-11.5749E-3
-37.5188E-6	-252.653E-15	23.3664E-3	-9.37640E-3	-250.081E-15	13.3868E-3	-583.112E-6
-42.5213E-6	-237.821E-15	9.31945E-3	-10.1376E-3	-214.375E-15	6.83805E-3	-1.65878E-3
-47.5238E-6	-223.827E-15	6.18244E-3	-4.40575E-3	-205.054E-15	1.67345E-3	-8.05747E-3
-52.5263E-6	-212.744E-15	11.7830E-3	3.88910E-3	-227.515E-15	7.66408E-3	-18.3060E-3
-57.5288E-6	-226.286E-15	11.6528E-3	8.43528E-3	-272.507E-15	19.9941E-3	-35.7241E-3
-62.5313E-6	-255.469E-15	12.0067E-3	-2.50126E-3	-216.546E-15	23.6390E-3	-48.0791E-3
-67.5338E-6	-263.805E-15	11.3757E-3	-25.4504E-3	-272.786E-15	22.5132E-3	-44.9429E-3
-72.5363E-6	-298.673E-15	13.2014E-3	-38.4544E-3	-317.524E-15	25.2629E-3	-36.9452E-3
-77.5388E-6	-264.389E-15	16.8329E-3	-33.4986E-3	-276.125E-15	27.4730E-3	-29.0085E-3
-82.5413E-6	-286.536E-15	12.0092E-3	-13.0167E-3	-255.591E-15	23.7477E-3	-11.5398E-3
-87.5438E-6	-268.766E-15	6.41019E-3	5.03728E-3	-295.482E-15	20.5250E-3	585.571E-6
-92.5463E-6	-301.917E-15	9.60243E-3	2.10249E-3	-321.056E-15	19.1401E-3	-3.24689E-3
-97.5488E-6	-272.463E-15	9.42447E-3	-15.3201E-3	-304.803E-15	15.1979E-3	-11.6094E-3
-102.551E-6	-288.855E-15	6.02775E-3	-25.8698E-3	-311.778E-15	14.0968E-3	-23.9703E-3
-107.554E-6	-297.400E-15	10.1148E-3	-22.1568E-3	-349.420E-15	27.0438E-3	-38.7167E-3
-112.556E-6	-354.154E-15	18.8186E-3	-12.8061E-3	-371.192E-15	42.1074E-3	-39.3600E-3
-117.559E-6	-381.071E-15	35.2417E-3	-2.97478E-3	-363.013E-15	37.9867E-3	-21.0998E-3
-122.561E-6	-342.409E-15	47.3005E-3	-6.42847E-3	-356.944E-15	27.8283E-3	-6.08470E-3
-127.564E-6	-338.058E-15	42.3109E-3	-15.3068E-3	-397.786E-15	30.9616E-3	-8.68120E-3
-132.566E-6	-400.236E-15	34.5663E-3	-4.54026E-3	-397.402E-15	45.5605E-3	-10.7200E-3
-137.569E-6	-440.345E-15	33.8910E-3	6.58911E-3	-408.903E-15	49.1208E-3	-7.24050E-3
-142.571E-6	-412.521E-15	34.8434E-3	463.196E-6	-413.655E-15	35.5516E-3	-7.36119E-3
-147.574E-6	-370.921E-15	34.6144E-3	-5.60194E-3	-455.534E-15	28.8395E-3	-6.86274E-3
-152.576E-6	-442.638E-15	36.7492E-3	-10.8829E-3	-469.650E-15	29.8563E-3	-5.81778E-3
-157.579E-6	-505.835E-15	38.2540E-3	-20.2340E-3	-443.309E-15	30.7671E-3	-9.37292E-3
-162.581E-6	-485.423E-15	34.0002E-3	-22.1568E-3	-484.691E-15	32.1792E-3	-13.2857E-3
-167.584E-6	-475.937E-15	34.2066E-3	-14.5923E-3	-476.634E-15	35.7595E-3	-12.4899E-3
-172.586E-6	-501.345E-15	36.5358E-3	-13.7558E-3	-535.036E-15	43.3425E-3	-10.8965E-3
-177.589E-6	-550.958E-15	34.0428E-3	-21.8250E-3	-494.038E-15	50.5239E-3	-12.7709E-3
-182.591E-6	-557.951E-15	37.2743E-3	-23.0164E-3	-547.104E-15	56.0650E-3	-22.1624E-3
-187.594E-6	-557.166E-15	43.8578E-3	-13.8088E-3	-591.459E-15	67.9021E-3	-23.2607E-3
-192.596E-6	-546.772E-15	52.1157E-3	-11.9101E-3	-622.360E-15	74.7467E-3	-4.25819E-3
-197.599E-6	-628.664E-15	61.2025E-3	-23.2679E-3	-622.412E-15	63.7516E-3	1.20925E-3
-202.601E-6	-656.496E-15	58.7406E-3	-32.5669E-3	-636.285E-15	57.6947E-3	-21.1065E-3
-207.604E-6	-644.690E-15	49.8730E-3	-34.4189E-3	-639.860E-15	70.0213E-3	-39.0074E-3
-212.606E-6	-678.486E-15	55.1616E-3	-29.6156E-3	-672.479E-15	76.5645E-3	-32.9632E-3
-217.609E-6	-730.968E-15	72.6384E-3	-26.6386E-3	-736.243E-15	72.7820E-3	-19.0450E-3
-222.611E-6	-759.837E-15	79.7864E-3	-27.4785E-3	-732.999E-15	77.7027E-3	-11.0806E-3
-227.614E-6	-795.996E-15	72.9359E-3	-31.1018E-3	-799.972E-15	89.3959E-3	-11.4591E-3
-232.616E-6	-800.016E-15	69.7361E-3	-34.5319E-3	-753.028E-15	99.3689E-3	-21.4151E-3
-237.619E-6	-847.397E-15	77.0276E-3	-27.4001E-3	-798.045E-15	99.3666E-3	-19.9026E-3
-242.621E-6	-843.987E-15	86.5979E-3	-21.6341E-3	-854.189E-15	92.8566E-3	-8.05196E-3
-247.624E-6	-906.950E-15	87.8405E-3	-22.7283E-3	-907.168E-15	96.0074E-3	-6.96914E-3
-252.626E-6	-952.552E-15	80.9201E-3	-23.5045E-3	-906.025E-15	109.780E-3	-8.30833E-3
-257.629E-6	-966.005E-15	83.7727E-3	-22.8406E-3	-959.300E-15	118.215E-3	-11.0898E-3
-262.631E-6	-954.627E-15	95.2989E-3	-14.4030E-3	-990.882E-15	120.885E-3	-20.6586E-3
-267.634E-6	-1.02018E-12	100.256E-3	-13.6910E-3	-1.02572E-12	128.200E-3	-30.4652E-3
-272.636E-6	-1.10541E-12	98.2282E-3	-26.7674E-3	-1.09662E-12	140.561E-3	-35.2793E-3
-277.639E-6	-1.08798E-12	100.335E-3	-28.3396E-3	-1.11220E-12	146.648E-3	-22.6562E-3
-282.641E-6	-1.11467E-12	107.034E-3	-20.3081E-3	-1.18661E-12	144.377E-3	-2.60150E-3
-287.644E-6	-1.19296E-12	110.476E-3	-23.8450E-3	-1.21373E-12	145.887E-3	5.65013E-3
-292.646E-6	-1.27248E-12	112.399E-3	-30.8898E-3	-1.27890E-12	149.140E-3	6.95076E-3
-297.649E-6	-1.35932E-12	115.635E-3	-30.9159E-3	-1.30503E-12	154.113E-3	824.890E-6
-302.651E-6	-1.30423E-12	127.772E-3	-28.8554E-3	-1.35803E-12	169.868E-3	-11.4080E-3
-307.654E-6	-1.34261E-12	145.782E-3	-27.5739E-3	-1.46138E-12	179.952E-3	-23.4667E-3
-312.656E-6	-1.48829E-12	151.836E-3	-25.8530E-3	-1.48863E-12	183.323E-3	-30.5357E-3
-317.659E-6	-1.52760E-12	152.792E-3	-17.1000E-3	-1.52052E-12	196.397E-3	-18.4952E-3
-322.661E-6	-1.57605E-12	162.379E-3	-2.23800E-3	-1.59908E-12	202.512E-3	3.99652E-3
-327.664E-6	-1.63692E-12	176.398E-3	-1.62137E-3	-1.69415E-12	198.089E-3	3.62154E-3
-332.666E-6	-1.71100E-12	188.353E-3	-26.0585E-3	-1.73555E-12	206.193E-3	-16.1018E-3
-337.669E-6	-1.77587E-12	193.580E-3	-39.4224E-3	-1.80162E-12	221.699E-3	-20.0721E-3
-342.671E-6	-1.88271E-12	196.517E-3	-31.1338E-3	-1.89330E-12	226.576E-3	-9.09824E-3
-347.674E-6	-1.90911E-12	209.695E-3	-27.6972E-3	-1.97472E-12	230.765E-3	-4.77864E-3
-352.676E-6	-1.95919E-12	225.957E-3	-24.3448E-3	-2.00512E-12	234.675E-3	-8.35393E-3
-357.679E-6	-2.10239E-12	217.794E-3	-14.5651E-3	-2.12966E-12	240.425E-3	-12.7591E-3
-362.681E-6	-2.12504E-12	200.761E-3	-10.9331E-3	-2.19411E-12	263.002E-3	-12.9754E-3
-367.684E-6	-2.22651E-12	210.937E-3	-15.0103E-3	-2.27711E-12	286.804E-3	-13.5849E-3
-372.686E-6	-2.30865E-12	233.754E-3	-19.1680E-3	-2.36593E-12	297.182E-3	-22.7016E-3
-377.689E-6	-2.39059E-12	247.382E-3	-16.4952E-3	-2.44475E-12	294.479E-3	-27.8726E-3
-382.691E-6	-2.51373E-12	255.805E-3	-12.6353E-3	-2.52850E-12	288.248E-3	-20.8489E-3
-387.694E-6	-2.60659E-12	265.333E-3	-15.0678E-3	-2.69225E-12	300.857E-3	-8.50051E-3
-392.696E-6	-2.70765E-12	279.359E-3	-18.7079E-3	-2.73793E-12	325.399E-3	3.72861E-3
-397.699E-6	-2.77319E-12	296.262E-3	-16.4576E-3	-2.82352E-12	328.389E-3	5.18332E-3
-402.701E-6	-2.90664E-12	303.618E-3	-4.72773E-3	-2.89744E-12	325.167E-3	-3.44308E-3
-407.704E-6	-3.05757E-12	301.574E-3	-6.49630E-3	-3.03266E-12	340.487E-3	-11.0040E-3
-412.706E-6	-3.14073E-12	303.907E-3	-34.7308E-3	-3.15372E-12	350.704E-3	-14.8095E-3
-417.709E-6	-3.25480E-12	312.466E-3	-47.1499E-3	-3.21824E-12	357.671E-3	-9.29520E-3
-422.711E-6	-3.39052E-12	320.161E-3	-33.8617E-3	-3.33158E-12	366.197E-3	-1.90073E-3
-427.714E-6	-3.53050E-12	335.524E-3	-25.7408E-3	-3.50815E-12	367.601E-3	-9.60465E-3
-432.716E-6	-3.63376E-12	354.579E-3	-22.6795E-3	-3.65886E-12	374.076E-3	-26.4630E-3
-437.719E-6	-3.81419E-12	359.592E-3	-21.4633E-3	-3.69772E-12	392.132E-3	-37.0722E-3
-442.721E-6	-3.89330E-12	366.435E-3	-29.0773E-3	-3.85162E-12	409.324E-3	-21.0646E-3
-447.724E-6	-4.03484E-12	384.371E-3	-27.0998E-3	-3.98360E-12	410.811E-3	-2.54763E-3
-452.726E-6	-4.24884E-12	390.961E-3	-17.5403E-3	-4.11288E-12	404.218E-3	-7.96797E-3
-457.729E-6	-4.35268E-12	387.943E-3	-21.1986E-3	-4.22547E-12	401.620E-3	-7.70654E-3
-462.731E-6	-4.39647E-12	391.649E-3	-17.6145E-3	-4.42917E-12	402.029E-3	-3.02287E-3
-467.734E-6	-4.54121E-12	404.735E-3	880.005E-6	-4.55253E-12	414.237E-3	-6.87349E-3
-472.736E-6	-4.75728E-12	422.074E-3	9.53051E-3	-4.75363E-12	433.324E-3	-1.00575E-3
-477.739E-6	-4.85045E-12	434.923E-3	-6.23604E-3	-4.84747E-12	450.386E-3	2.09742E-3
-482.741E-6	-4.98763E-12	441.608E-3	-28.1392E-3	-4.94742E-12	465.457E-3	-9.74180E-3
-487.744E-6	-5.05117E-12	444.504E-3	-31.3937E-3	-5.07789E-12	470.097E-3	-19.2690E-3
-492.746E-6	-5.25184E-12	447.151E-3	-18.7198E-3	-5.25625E-12	472.499E-3	-23.0111E-3
-497.749E-6	-5.42782E-12	448.101E-3	-2.60147E-3	-5.43052E-12	479.919E-3	-19.0375E-3
-502.751E-6	-5.59046E-12	447.057E-3	2.56592E-3	-5.58830E-12	489.712E-3	-13.5884E-3
-507.754E-6	-5.67210E-12	453.544E-3	-8.18732E-3	-5.71892E-12	503.329E-3	-10.0318E-3
-512.756E-6	-5.84288E-12	465.519E-3	-21.1132E-3	-5.90091E-12	507.382E-3	-2.62884E-3
-517.759E-6	-6.11109E-12	476.441E-3	-27.0499E-3	-6.07170E-12	500.319E-3	3.55723E-3
-522.761E-6	-6.33079E-12	489.655E-3	-27.4543E-3	-6.27539E-12	501.699E-3	1.91276E-3
-527.764E-6	-6.44019E-12	500.767E-3	-24.6035E-3	-6.35403E-12	508.287E-3	-4.52223E-3
-532.766E-6	-6.50863E-12	506.969E-3	-21.7167E-3	-6.56632E-12	518.937E-3	-11.2882E-3
-537.769E-6	-6.79420E-12	511.999E-3	-16.8108E-3	-6.68492E-12	530.031E-3	-20.1734E-3
-542.771E-6	-6.93741E-12	513.742E-3	-9.40063E-3	-6.93163E-12	530.284E-3	-25.5180E-3
-547.774E-6	-7.01594E-12	520.916E-3	-6.08336E-3	-7.17065E-12	533.810E-3	-23.9551E-3
-552.776E-6	-7.25230E-12	530.164E-3	-11.8033E-3	-7.17885E-12	541.823E-3	-17.2253E-3
-557.779E-6	-7.31924E-12	526.847E-3	-21.9304E-3	-7.24355E-12	541.527E-3	-11.5018E-3
-562.781E-6	-7.52967E-12	525.437E-3	-20.5107E-3	-7.63471E-12	548.154E-3	-18.7663E-3
-567.784E-6	-7.81076E-12	539.008E-3	-10.7507E-3	-7.87141E-12	561.577E-3	-27.3594E-3
-572.786E-6	-8.04315E-12	544.629E-3	-6.36240E-3	-8.04985E-12	555.600E-3	-25.4166E-3
-577.789E-6	-8.15579E-12	543.873E-3	-9.09552E-3	-8.26788E-12	542.988E-3	-19.1198E-3
-582.791E-6	-8.27613E-12	554.616E-3	-14.0248E-3	-8.45882E-12	547.647E-3	-14.7294E-3
-587.794E-6	-8.45448E-12	557.013E-3	-16.3448E-3	-8.57042E-12	563.860E-3	-11.7151E-3
-592.796E-6	-8.68623E-12	543.202E-3	-17.0542E-3	-8.69097E-12	570.049E-3	-4.26628E-3
-597.799E-6	-8.75072E-12	539.280E-3	-21.1799E-3	-8.93789E-12	557.832E-3	632.115E-6
-602.801E-6	-8.81280E-12	547.987E-3	-21.7679E-3	-9.16270E-12	551.201E-3	-1.74727E-3
-607.804E-6	-9.04731E-12	547.818E-3	-20.5377E-3	-9.25812E-12	555.779E-3	-9.82023E-3
-612.806E-6	-9.30643E-12	540.819E-3	-18.5185E-3	-9.43974E-12	554.659E-3	-24.6346E-3
-617.809E-6	-9.50320E-12	543.027E-3	-8.30329E-3	-9.79208E-12	549.415E-3	-26.4633E-3
-622.811E-6	-9.69995E-12	548.877E-3	-13.1266E-3	-9.97127E-12	554.912E-3	-15.2198E-3
-627.814E-6	-9.94028E-12	554.469E-3	-33.2991E-3	-10.0057E-12	560.674E-3	-13.3479E-3
-632.816E-6	-10.1477E-12	559.789E-3	-35.1306E-3	-10.3177E-12	554.319E-3	-11.6044E-3
-637.819E-6	-10.3657E-12	554.923E-3	-27.7210E-3	-10.3298E-12	550.631E-3	-6.32207E-3
-642.821E-6	-10.6130E-12	547.692E-3	-30.3223E-3	-10.5631E-12	547.464E-3	-10.5704E-3
-647.824E-6	-10.8359E-12	547.498E-3	-27.2354E-3	-10.8778E-12	538.820E-3	-19.0855E-3
-652.826E-6	-11.1250E-12	553.439E-3	-17.5489E-3	-10.8851E-12	529.070E-3	-13.2053E-3
-657.829E-6	-11.2294E-12	556.180E-3	-19.1981E-3	-11.0385E-12	521.506E-3	-592.059E-6
-662.831E-6	-11.4623E-12	552.049E-3	-28.9350E-3	-11.2668E-12	522.798E-3	-7.70617E-3
-667.834E-6	-11.6624E-12	549.442E-3	-35.4853E-3	-11.4078E-12	527.814E-3	-25.0208E-3
-672.836E-6	-11.7929E-12	551.048E-3	-31.0568E-3	-11.5513E-12	526.471E-3	-24.5861E-3
-677.839E-6	-11.8818E-12	554.187E-3	-11.3595E-3	-11.9222E-12	515.059E-3	-7.68002E-3
-682.841E-6	-12.0610E-12	544.910E-3	-4.13397E-3	-12.0095E-12	510.733E-3	596.357E-6
-687.844E-6	-12.2295E-12	534.419E-3	-12.1008E-3	-12.0512E-12	525.479E-3	-12.6504E-3
-692.846E-6	-12.2875E-12	534.638E-3	-9.85720E-3	-12.1623E-12	530.079E-3	-25.1698E-3
-697.849E-6	-12.6123E-12	528.844E-3	-5.60970E-3	-12.4486E-12	519.736E-3	-22.6939E-3
-702.851E-6	-12.6563E-12	527.886E-3	-4.43089E-3	-12.6509E-12	505.190E-3	-18.7698E-3
-707.854E-6	-12.6665E-12	538.431E-3	-4.89315E-3	-12.8122E-12	485.243E-3	-15.8707E-3
-712.856E-6	-12.8127E-12	530.330E-3	-16.5459E-3	-12.9717E-12	481.651E-3	-11.8194E-3
-717.859E-6	-13.1676E-12	507.397E-3	-27.0459E-3	-13.1569E-12	489.429E-3	-13.0121E-3
-722.861E-6	-13.3600E-12	498.948E-3	-21.7108E-3	-13.2927E-12	486.316E-3	-15.4520E-3
-727.864E-6	-13.4832E-12	502.429E-3	-14.6776E-3	-13.5056E-12	485.848E-3	-11.8182E-3
-732.866E-6	-13.9136E-12	501.605E-3	-27.8836E-3	-13.6878E-12	487.034E-3	-1.81536E-3
-737.869E-6	-14.1321E-12	502.155E-3	-43.5646E-3	-13.7612E-12	485.493E-3	3.04117E-3
-742.871E-6	-14.2196E-12	501.631E-3	-37.0634E-3	-14.0689E-12	489.769E-3	-5.31948E-3
-747.874E-6	-14.3358E-12	492.155E-3	-32.1792E-3	-14.3395E-12	483.221E-3	-9.28067E-3
-752.876E-6	-14.7444E-12	488.106E-3	-26.2119E-3	-14.3544E-12	456.117E-3	-5.57805E-3
-757.879E-6	-14.8589E-12	486.814E-3	-13.3697E-3	-14.5508E-12	434.592E-3	-5.62556E-3
-762.881E-6	-14.7033E-12	484.083E-3	-13.1058E-3	-14.8208E-12	426.020E-3	-6.97965E-3
-767.884E-6	-14.9240E-12	475.407E-3	-15.6117E-3	-14.9142E-12	422.661E-3	-14.7217E-3
-772.886E-6	-15.1192E-12	452.801E-3	-1.52162E-3	-14.9304E-12	425.470E-3	-21.7037E-3
-777.889E-6	-15.2185E-12	445.620E-3	5.90488E-3	-15.3188E-12	428.959E-3	-21.7282E-3
-782.891E-6	-15.2356E-12	454.082E-3	-10.7728E-3	-15.3935E-12	421.267E-3	-21.1119E-3
-787.894E-6	-15.3430E-12	454.176E-3	-21.9486E-3	-15.4377E-12	404.765E-3	-17.5787E-3
-792.896E-6	-15.5614E-12	441.004E-3	-17.0522E-3	-15.7440E-12	400.287E-3	-10.3126E-3
-797.899E-6	-15.4712E-12	421.183E-3	-7.92584E-3	-15.8887E-12	393.456E-3	-7.65421E-3
-802.901E-6	-15.5718E-12	410.586E-3	1.28068E-3	-15.8103E-12	374.599E-3	-13.6866E-3
-807.904E-6	-15.6889E-12	403.197E-3	-5.40949E-3	-16.1248E-12	362.173E-3	-17.4178E-3
-812.906E-6	-15.8708E-12	388.162E-3	-30.8493E-3	-16.1847E-12	355.389E-3	-12.5731E-3
-817.909E-6	-16.0321E-12	378.259E-3	-42.1101E-3	-16.3066E-12	349.899E-3	-3.91779E-3
-822.911E-6	-16.3567E-12	375.033E-3	-38.0411E-3	-16.3084E-12	344.127E-3	-963.431E-6
-827.914E-6	-16.3603E-12	368.009E-3	-35.1551E-3	-16.4635E-12	338.367E-3	-10.3608E-3
-832.916E-6	-16.4810E-12	361.947E-3	-30.7090E-3	-16.5599E-12	331.049E-3	-22.9918E-3
-837.919E-6	-16.6983E-12	354.278E-3	-33.5161E-3	-16.6621E-12	326.417E-3	-23.5793E-3
-842.921E-6	-16.9709E-12	343.695E-3	-33.4923E-3	-16.6336E-12	330.498E-3	-19.3316E-3
-847.924E-6	-17.2624E-12	346.580E-3	-19.1767E-3	-16.9813E-12	333.070E-3	-14.1363E-3
-852.926E-6	-17.3080E-12	354.566E-3	-5.90287E-3	-16.9022E-12	328.630E-3	-10.0771E-3
-857.929E-6	-17.5049E-12	346.791E-3	-5.54547E-3	-17.0976E-12	314.802E-3	-14.8497E-3
-862.931E-6	-17.7418E-12	333.401E-3	-16.8539E-3	-17.4428E-12	292.094E-3	-19.3440E-3
-867.934E-6	-17.8420E-12	326.976E-3	-25.3868E-3	-17.4646E-12	279.890E-3	-14.1576E-3
-872.936E-6	-18.0538E-12	325.686E-3	-21.5968E-3	-17.4195E-12	289.575E-3	-6.52983E-3
-877.939E-6	-17.8318E-12	323.840E-3	-11.0440E-3	-17.6678E-12	300.418E-3	4.20617E-3
-882.941E-6	-17.8156E-12	318.030E-3	-8.59174E-3	-17.9282E-12	298.748E-3	8.50544E-3
-887.944E-6	-18.0465E-12	311.892E-3	-14.3795E-3	-17.8755E-12	293.374E-3	-7.31859E-3
-892.946E-6	-18.3229E-12	304.433E-3	-12.0628E-3	-17.8763E-12	287.643E-3	-12.5129E-3
-897.949E-6	-18.0600E-12	292.228E-3	-10.3413E-3	-18.0491E-12	285.070E-3	-4.00853E-3
-902.951E-6	-17.9511E-12	277.532E-3	-11.9565E-3	-18.1339E-12	280.841E-3	-2.06648E-3
-907.954E-6	-18.0084E-12	262.267E-3	-12.9606E-3	-18.0291E-12	272.640E-3	-72.3789E-6
-912.956E-6	-18.0278E-12	251.561E-3	-17.6078E-3	-18.1178E-12	267.549E-3	-6.72603E-3
-917.959E-6	-18.0885E-12	247.922E-3	-24.4750E-3	-18.2556E-12	255.971E-3	-21.0355E-3
-922.961E-6	-18.3164E-12	248.540E-3	-21.9463E-3	-18.2063E-12	240.492E-3	-11.8125E-3
-927.964E-6	-18.2028E-12	246.394E-3	-12.0008E-3	-18.2285E-12	231.753E-3	13.0897E-3
-932.966E-6	-18.1706E-12	242.871E-3	-12.4341E-3	-18.2639E-12	230.995E-3	15.9054E-3
-937.969E-6	-18.4981E-12	249.265E-3	-13.6764E-3	-18.4722E-12	233.735E-3	3.20163E-3
-942.971E-6	-18.5657E-12	249.872E-3	-12.7620E-3	-18.6106E-12	231.950E-3	2.98587E-3
-947.974E-6	-18.6273E-12	233.694E-3	-17.9014E-3	-18.5530E-12	221.370E-3	898.472E-6
-952.976E-6	-18.8886E-12	224.142E-3	-10.3132E-3	-18.7714E-12	207.165E-3	-10.3859E-3
-957.979E-6	-18.8099E-12	226.864E-3	2.98533E-3	-18.9724E-12	206.559E-3	-15.6627E-3
-962.981E-6	-19.0732E-12	233.067E-3	-13.4070E-3	-18.8469E-12	219.333E-3	-13.7552E-3
-967.984E-6	-19.4370E-12	232.665E-3	-34.1413E-3	-19.0723E-12	218.036E-3	-5.92040E-3
-972.986E-6	-19.3983E-12	223.707E-3	-28.6603E-3	-19.1055E-12	204.592E-3	1.52454E-3
-977.989E-6	-19.2550E-12	220.479E-3	-17.1069E-3	-19.2903E-12	209.052E-3	2.96008E-3
-982.991E-6	-19.6702E-12	227.614E-3	-11.1436E-3	-19.4602E-12	220.527E-3	820.756E-6
-987.994E-6	-19.6435E-12	231.309E-3	-17.0976E-3	-19.1497E-12	216.684E-3	-5.28994E-3
-992.997E-6	-19.3840E-12	219.585E-3	-29.9310E-3	-19.3513E-12	216.417E-3	-10.6569E-3
-997.999E-6	-19.5763E-12	210.976E-3	-32.9192E-3	-19.5591E-12	226.155E-3	-6.13586E-3
-1.00300E-3	-19.4465E-12	224.381E-3	-24.1907E-3	-19.3074E-12	223.969E-3	-7.21918E-3
-1.00800E-3	-19.3037E-12	236.027E-3	-11.9925E-3	-19.4168E-12	214.076E-3	-21.8859E-3
-1.01301E-3	-19.6689E-12	232.559E-3	-15.6310E-3	-19.6995E-12	210.716E-3	-25.8588E-3
-1.01801E-3	-19.5326E-12	225.953E-3	-26.3079E-3	-19.2632E-12	220.016E-3	-13.9003E-3
-1.02301E-3	-19.2236E-12	208.302E-3	-28.5436E-3	-19.5559E-12	226.143E-3	-8.73597E-3
-1.02801E-3	-19.5836E-12	197.405E-3	-20.6330E-3	-19.9814E-12	220.149E-3	-19.4177E-3
-1.03302E-3	-19.6293E-12	213.541E-3	-9.04919E-3	-20.0712E-12	214.577E-3	-27.8253E-3
-1.03802E-3	-19.5155E-12	230.549E-3	-14.7758E-3	-19.9622E-12	213.386E-3	-23.8078E-3
-1.04302E-3	-19.8914E-12	231.316E-3	-32.4399E-3	-20.3288E-12	223.106E-3	-13.1169E-3
-1.04802E-3	-20.0069E-12	221.201E-3	-36.3614E-3	-20.2652E-12	242.826E-3	-9.99036E-3
-1.05303E-3	-20.0383E-12	213.351E-3	-24.1732E-3	-20.1665E-12	260.170E-3	-11.2096E-3
-1.05803E-3	-20.2758E-12	220.832E-3	-20.5316E-3	-20.8206E-12	267.413E-3	-17.2635E-3
-1.06303E-3	-20.8164E-12	235.785E-3	-28.6272E-3	-20.7934E-12	275.961E-3	-25.4170E-3
-1.06803E-3	-20.8979E-12	245.252E-3	-31.6228E-3	-20.5568E-12	282.990E-3	-18.8532E-3
-1.07304E-3	-20.8285E-12	258.559E-3	-30.1657E-3	-20.8301E-12	291.723E-3	-12.5408E-3
-1.07804E-3	-21.5812E-12	270.501E-3	-32.9967E-3	-21.0714E-12	310.761E-3	-12.4558E-3
-1.08304E-3	-21.7126E-12	264.875E-3	-33.8798E-3	-21.4247E-12	324.291E-3	-20.0205E-3
-1.08804E-3	-21.5718E-12	271.326E-3	-30.1533E-3	-21.5102E-12	327.778E-3	-32.4302E-3
-1.09305E-3	-21.6280E-12	292.908E-3	-29.0017E-3	-21.3933E-12	334.526E-3	-33.8682E-3
-1.09805E-3	-21.9022E-12	292.863E-3	-13.3757E-3	-21.6502E-12	348.158E-3	-21.3348E-3
-1.10305E-3	-21.6701E-12	287.193E-3	11.1206E-3	-22.0523E-12	354.980E-3	-7.31547E-3
-1.10805E-3	-21.5638E-12	300.995E-3	7.29683E-3	-21.7706E-12	354.308E-3	-10.4449E-3
-1.11306E-3	-21.6112E-12	320.496E-3	-9.58150E-3	-22.0434E-12	361.530E-3	-22.9141E-3
-1.11806E-3	-21.6376E-12	327.285E-3	-20.2121E-3	-22.3261E-12	380.293E-3	-26.8871E-3
-1.12306E-3	-21.5991E-12	332.407E-3	-22.6316E-3	-22.5889E-12	395.531E-3	-14.1107E-3
-1.12806E-3	-21.7249E-12	347.837E-3	-8.03482E-3	-22.6358E-12	395.530E-3	-4.18550E-3
-1.13307E-3	-22.1998E-12	354.224E-3	-4.79011E-3	-22.7418E-12	401.303E-3	-16.1806E-3
-1.13807E-3	-22.0796E-12	351.395E-3	-20.8495E-3	-22.9804E-12	418.068E-3	-23.6818E-3
-1.14307E-3	-22.2430E-12	357.320E-3	-31.0683E-3	-22.9718E-12	427.280E-3	-9.12727E-3
-1.14807E-3	-22.7185E-12	364.999E-3	-28.3489E-3	-22.9899E-12	428.349E-3	-2.53301E-3
-1.15308E-3	-22.8014E-12	377.233E-3	-18.5023E-3	-23.1282E-12	432.561E-3	-16.4654E-3
-1.15808E-3	-22.9020E-12	399.242E-3	-11.6475E-3	-23.3366E-12	444.173E-3	-20.5331E-3
-1.16308E-3	-23.2433E-12	414.712E-3	-8.95307E-3	-23.2094E-12	465.362E-3	-13.7996E-3
-1.16808E-3	-23.8113E-12	428.496E-3	-13.2249E-3	-23.3822E-12	491.686E-3	-7.13631E-3
-1.17309E-3	-23.9507E-12	446.820E-3	-21.7156E-3	-23.5356E-12	507.156E-3	-6.32163E-3
-1.17809E-3	-24.0967E-12	460.510E-3	-17.7100E-3	-23.6051E-12	509.675E-3	-21.1556E-3
-1.18309E-3	-24.5062E-12	480.021E-3	-11.3315E-3	-23.7415E-12	511.340E-3	-33.2201E-3
-1.18809E-3	-24.4264E-12	507.577E-3	-14.0472E-3	-24.0571E-12	517.599E-3	-33.3581E-3
-1.19310E-3	-24.6071E-12	517.567E-3	-15.4521E-3	-24.1652E-12	539.006E-3	-26.8830E-3
-1.19810E-3	-24.9646E-12	507.671E-3	-8.09852E-3	-24.2727E-12	566.017E-3	-16.3448E-3
-1.20310E-3	-24.7763E-12	515.177E-3	-1.82941E-3	-24.5104E-12	584.470E-3	-6.50970E-3
-1.20810E-3	-24.5326E-12	538.636E-3	-1.93474E-3	-24.7107E-12	595.966E-3	5.31281E-3
-1.21311E-3	-25.0078E-12	549.469E-3	-11.6300E-3	-24.8670E-12	603.411E-3	7.06964E-3
-1.21811E-3	-25.2473E-12	561.913E-3	-25.1553E-3	-25.0691E-12	618.864E-3	-11.0475E-3
-1.22311E-3	-24.9280E-12	573.619E-3	-29.1393E-3	-25.1068E-12	641.129E-3	-26.4217E-3
-1.22811E-3	-24.8972E-12	574.996E-3	-35.3950E-3	-25.2735E-12	659.112E-3	-25.9620E-3
-1.23312E-3	-25.1604E-12	584.398E-3	-32.1581E-3	-25.4652E-12	674.497E-3	-24.1990E-3
-1.23812E-3	-25.4513E-12	597.510E-3	-13.6451E-3	-25.3544E-12	682.644E-3	-25.4798E-3
-1.24312E-3	-25.5893E-12	602.538E-3	-10.4770E-3	-25.6043E-12	686.797E-3	-30.2454E-3
-1.24812E-3	-25.9747E-12	609.902E-3	-18.4008E-3	-25.7603E-12	701.811E-3	-41.6706E-3
-1.25313E-3	-26.1953E-12	625.315E-3	-14.3498E-3	-25.7712E-12	720.152E-3	-47.3480E-3
-1.25813E-3	-26.4051E-12	652.082E-3	-11.1055E-3	-26.0145E-12	730.958E-3	-41.0586E-3
-1.26313E-3	-26.7649E-12	684.083E-3	-16.7097E-3	-26.3161E-12	749.072E-3	-29.4321E-3
-1.26813E-3	-27.1652E-12	702.831E-3	-20.0871E-3	-26.4726E-12	775.303E-3	-21.8283E-3
-1.27314E-3	-27.5227E-12	716.269E-3	-28.2950E-3	-26.7198E-12	782.725E-3	-20.5638E-3
-1.27814E-3	-28.1526E-12	744.419E-3	-30.1548E-3	-27.0885E-12	784.811E-3	-21.4023E-3
-1.28314E-3	-28.2890E-12	779.792E-3	-19.0970E-3	-27.4060E-12	803.252E-3	-18.3353E-3
-1.28814E-3	-28.3860E-12	795.554E-3	-17.3100E-3	-27.9046E-12	827.139E-3	-12.3415E-3
-1.29315E-3	-28.9374E-12	805.021E-3	-27.3421E-3	-28.0504E-12	848.164E-3	-12.2121E-3
-1.29815E-3	-29.0671E-12	829.605E-3	-35.5437E-3	-28.1450E-12	861.402E-3	-20.0557E-3
-1.30315E-3	-28.9519E-12	842.750E-3	-30.1565E-3	-28.9132E-12	872.477E-3	-27.3391E-3
-1.30815E-3	-29.2430E-12	840.634E-3	-18.4605E-3	-29.1410E-12	894.676E-3	-26.1621E-3
-1.31316E-3	-29.4374E-12	844.976E-3	-15.6407E-3	-29.1621E-12	926.230E-3	-10.9843E-3
-1.31816E-3	-29.4136E-12	855.681E-3	-21.8781E-3	-30.2020E-12	937.160E-3	1.07806E-3
-1.32316E-3	-29.5771E-12	875.033E-3	-34.5537E-3	-30.1562E-12	931.240E-3	-6.24411E-3
-1.32816E-3	-29.9472E-12	888.241E-3	-38.3477E-3	-30.0660E-12	941.448E-3	-13.5654E-3
-1.33317E-3	-30.1007E-12	888.813E-3	-25.7435E-3	-30.5996E-12	953.013E-3	-11.1514E-3
-1.33817E-3	-30.1358E-12	900.691E-3	-16.5157E-3	-30.9681E-12	951.638E-3	-2.08968E-3
-1.34317E-3	-30.6152E-12	920.784E-3	-14.4104E-3	-31.0492E-12	950.975E-3	3.52391E-3
-1.34817E-3	-31.0088E-12	923.312E-3	-8.63460E-3	-31.4349E-12	959.664E-3	-9.27011E-3
-1.35318E-3	-31.1611E-12	914.805E-3	-13.8137E-3	-31.8807E-12	978.333E-3	-21.1666E-3
-1.35818E-3	-31.4779E-12	924.469E-3	-21.9263E-3	-31.9587E-12	998.981E-3	-9.16851E-3
-1.36318E-3	-32.0665E-12	946.744E-3	-12.9855E-3	-32.5440E-12	1.00974E+0	-2.38146E-3
-1.36818E-3	-32.5399E-12	972.711E-3	-6.15064E-3	-32.9484E-12	1.01602E+0	-8.28509E-3
-1.37319E-3	-33.0469E-12	995.032E-3	-14.3631E-3	-33.3280E-12	1.03346E+0	-6.79061E-3
-1.37819E-3	-33.4737E-12	1.00031E+0	-28.4937E-3	-33.6611E-12	1.06026E+0	-13.2410E-3
-1.38319E-3	-34.1600E-12	1.01055E+0	-29.7260E-3	-34.2849E-12	1.08421E+0	-23.6135E-3
-1.38819E-3	-34.5394E-12	1.03272E+0	-23.4054E-3	-34.7125E-12	1.10241E+0	-29.0155E-3
-1.39320E-3	-34.7768E-12	1.04615E+0	-19.6981E-3	-35.2483E-12	1.11363E+0	-33.9454E-3
-1.39820E-3	-35.1626E-12	1.04974E+0	-12.2934E-3	-35.6475E-12	1.11760E+0	-30.3894E-3
-1.40320E-3	-35.5758E-12	1.05439E+0	-10.7731E-3	-35.8316E-12	1.12065E+0	-20.2032E-3
-1.40820E-3	-35.9791E-12	1.05830E+0	-15.5212E-3	-36.4098E-12	1.13110E+0	-19.0896E-3
-1.41321E-3	-36.2823E-12	1.06451E+0	-19.0675E-3	-37.1683E-12	1.14769E+0	-19.9460E-3
-1.41821E-3	-36.3580E-12	1.08310E+0	-18.0405E-3	-37.3330E-12	1.15982E+0	-14.8386E-3
-1.42321E-3	-36.6732E-12	1.09905E+0	-12.3760E-3	-37.6373E-12	1.15587E+0	-18.1855E-3
-1.42821E-3	-37.3830E-12	1.09667E+0	-13.1259E-3	-38.0483E-12	1.13628E+0	-19.7944E-3
-1.43322E-3	-37.4745E-12	1.09093E+0	-15.0691E-3	-38.2164E-12	1.12188E+0	-11.2306E-3
-1.43822E-3	-37.3785E-12	1.09235E+0	-18.6887E-3	-38.6101E-12	1.12046E+0	-4.48121E-3
-1.44322E-3	-38.5637E-12	1.09897E+0	-32.8021E-3	-38.9516E-12	1.12285E+0	-2.34784E-3
-1.44822E-3	-38.8624E-12	1.10829E+0	-41.8365E-3	-38.9193E-12	1.12470E+0	-7.39279E-3
-1.45323E-3	-38.5153E-12	1.11114E+0	-38.5087E-3	-39.1482E-12	1.13009E+0	-20.0025E-3
-1.45823E-3	-39.6323E-12	1.10681E+0	-38.2680E-3	-39.7082E-12	1.12093E+0	-34.4365E-3
-1.46323E-3	-40.1989E-12	1.11424E+0	-44.7563E-3	-39.8686E-12	1.11170E+0	-35.1202E-3
-1.46823E-3	-40.3092E-12	1.12812E+0	-38.5697E-3	-40.0638E-12	1.13430E+0	-27.1033E-3
-1.47324E-3	-41.2404E-12	1.12907E+0	-22.2205E-3	-40.6296E-12	1.14967E+0	-32.4644E-3
-1.47824E-3	-42.0052E-12	1.12946E+0	-20.8310E-3	-40.8448E-12	1.14135E+0	-39.8526E-3
-1.48324E-3	-42.0947E-12	1.12722E+0	-31.1367E-3	-41.0994E-12	1.13062E+0	-30.3684E-3
-1.48824E-3	-42.7216E-12	1.12620E+0	-31.9344E-3	-41.5908E-12	1.12807E+0	-15.0885E-3
-1.49325E-3	-43.5122E-12	1.14567E+0	-19.8204E-3	-41.9489E-12	1.13175E+0	-13.0736E-3
-1.49825E-3	-43.7995E-12	1.16173E+0	-5.51711E-3	-42.3906E-12	1.13287E+0	-19.5849E-3
-1.50325E-3	-44.2249E-12	1.16324E+0	-1.60049E-3	-42.6702E-12	1.13563E+0	-21.3262E-3
-1.50825E-3	-44.6236E-12	1.16173E+0	-6.90377E-3	-42.9733E-12	1.13802E+0	-21.6699E-3
-1.51326E-3	-44.9030E-12	1.15359E+0	-1.21102E-3	-43.3987E-12	1.13867E+0	-23.4905E-3
-1.51826E-3	-45.3174E-12	1.15829E+0	8.22762E-3	-44.1104E-12	1.13606E+0	-26.3637E-3
-1.52326E-3	-45.5346E-12	1.17653E+0	4.65250E-3	-43.9963E-12	1.12523E+0	-18.4029E-3
-1.52826E-3	-45.6592E-12	1.17585E+0	-2.38946E-3	-44.2465E-12	1.11904E+0	-142.195E-6
-1.53327E-3	-45.8303E-12	1.15866E+0	-12.1776E-3	-44.8452E-12	1.12045E+0	5.80668E-3
-1.53827E-3	-45.9274E-12	1.14788E+0	-28.4368E-3	-45.0983E-12	1.11783E+0	-2.53900E-3
-1.54327E-3	-46.0060E-12	1.14172E+0	-36.7312E-3	-45.2235E-12	1.10291E+0	-19.4189E-3
-1.54827E-3	-46.2102E-12	1.13196E+0	-27.1690E-3	-45.5052E-12	1.09361E+0	-24.3589E-3
-1.55328E-3	-46.5227E-12	1.12386E+0	-17.8036E-3	-45.8336E-12	1.10002E+0	-20.0843E-3
-1.55828E-3	-46.4538E-12	1.11397E+0	-26.2880E-3	-46.3242E-12	1.09632E+0	-29.2001E-3
-1.56328E-3	-46.7667E-12	1.10390E+0	-36.5359E-3	-46.8078E-12	1.09570E+0	-31.2395E-3
-1.56828E-3	-47.2472E-12	1.10727E+0	-30.1300E-3	-47.1520E-12	1.09939E+0	-17.4748E-3
-1.57329E-3	-47.7057E-12	1.11068E+0	-14.8791E-3	-47.6162E-12	1.09377E+0	-5.66353E-3
-1.57829E-3	-47.8547E-12	1.10100E+0	-5.63633E-3	-48.1803E-12	1.09357E+0	-8.09625E-3
-1.58329E-3	-48.7053E-12	1.09377E+0	-7.22833E-3	-48.3010E-12	1.08426E+0	-25.9711E-3
-1.58829E-3	-49.2954E-12	1.09969E+0	-16.4557E-3	-48.5696E-12	1.07102E+0	-33.7476E-3
-1.59330E-3	-49.5422E-12	1.10969E+0	-19.6775E-3	-49.4731E-12	1.07101E+0	-31.0087E-3
-1.59830E-3	-50.1077E-12	1.11209E+0	-20.6016E-3	-49.6663E-12	1.07037E+0	-30.1392E-3
-1.60330E-3	-50.4576E-12	1.10789E+0	-22.7399E-3	-49.7994E-12	1.06869E+0	-26.9700E-3
-1.60830E-3	-50.4533E-12	1.09943E+0	-12.4023E-3	-50.4413E-12	1.07816E+0	-36.4967E-3
-1.61331E-3	-51.0942E-12	1.09023E+0	-13.6002E-3	-50.9527E-12	1.08597E+0	-41.1830E-3
-1.61831E-3	-51.1779E-12	1.08134E+0	-26.1608E-3	-51.2480E-12	1.07404E+0	-18.5675E-3
-1.62331E-3	-51.0358E-12	1.06728E+0	-14.7573E-3	-51.4854E-12	1.06170E+0	-7.20580E-3
-1.62831E-3	-51.2668E-12	1.06403E+0	-9.01423E-3	-52.3415E-12	1.05419E+0	-13.4322E-3
-1.63332E-3	-51.6551E-12	1.07685E+0	-19.7132E-3	-52.7488E-12	1.05223E+0	-15.0857E-3
-1.63832E-3	-51.4626E-12	1.06289E+0	-9.78775E-3	-52.8628E-12	1.05307E+0	-12.5015E-3
-1.64332E-3	-51.5898E-12	1.02805E+0	-6.19874E-3	-53.3989E-12	1.03332E+0	-2.15301E-3
-1.64832E-3	-51.9953E-12	1.01797E+0	-16.3826E-3	-54.0980E-12	1.01210E+0	-3.47041E-3
-1.65333E-3	-51.9684E-12	1.02189E+0	-25.4233E-3	-53.7773E-12	1.01171E+0	-21.9065E-3
-1.65833E-3	-52.7370E-12	1.00905E+0	-41.6824E-3	-54.1113E-12	1.01419E+0	-25.1931E-3
-1.66333E-3	-53.1704E-12	995.032E-3	-44.1596E-3	-54.5669E-12	1.00408E+0	-8.21858E-3
-1.66833E-3	-53.4869E-12	994.781E-3	-30.9246E-3	-54.6061E-12	991.981E-3	2.27017E-3
-1.67334E-3	-54.0983E-12	992.018E-3	-15.4630E-3	-54.9407E-12	996.687E-3	202.741E-6
-1.67834E-3	-55.2878E-12	995.238E-3	-6.42889E-3	-55.4969E-12	1.00058E+0	-8.98550E-3
-1.68334E-3	-55.8365E-12	1.00277E+0	-9.34085E-3	-55.2813E-12	977.474E-3	-23.0756E-3
-1.68834E-3	-56.3348E-12	1.00045E+0	-10.2244E-3	-55.6095E-12	955.123E-3	-30.8187E-3
-1.69335E-3	-57.8615E-12	993.845E-3	-4.79736E-3	-56.3255E-12	958.410E-3	-27.0849E-3
-1.69835E-3	-58.1447E-12	992.049E-3	1.51010E-3	-56.5173E-12	979.735E-3	-24.1133E-3
-1.70335E-3	-57.9700E-12	993.159E-3	1.09908E-3	-56.6203E-12	996.115E-3	-33.3706E-3
-1.70835E-3	-59.3656E-12	999.670E-3	-5.24077E-3	-57.8365E-12	992.290E-3	-37.0568E-3
-1.71336E-3	-59.6797E-12	1.00460E+0	82.2930E-6	-58.5811E-12	990.911E-3	-26.2271E-3
-1.71836E-3	-59.1535E-12	983.847E-3	5.52591E-3	-58.4958E-12	998.257E-3	-14.1774E-3
-1.72336E-3	-59.6016E-12	962.126E-3	672.180E-6	-59.3279E-12	990.738E-3	-4.96751E-3
-1.72836E-3	-59.7699E-12	964.477E-3	-11.7398E-3	-60.1036E-12	979.479E-3	-4.36808E-3
-1.73337E-3	-59.4286E-12	974.357E-3	-26.3290E-3	-60.2478E-12	979.677E-3	-19.4765E-3
-1.73837E-3	-59.6839E-12	976.594E-3	-23.4578E-3	-60.4212E-12	972.685E-3	-33.6447E-3
-1.74337E-3	-59.8763E-12	966.120E-3	-21.9458E-3	-61.0976E-12	958.727E-3	-27.7250E-3
-1.74837E-3	-59.6521E-12	950.872E-3	-36.2848E-3	-61.1010E-12	943.879E-3	-15.5447E-3
-1.75338E-3	-59.5940E-12	935.752E-3	-37.5193E-3	-61.1130E-12	927.983E-3	-9.08193E-3
-1.75838E-3	-60.0996E-12	935.320E-3	-24.5482E-3	-61.1907E-12	924.380E-3	-11.3189E-3
-1.76338E-3	-60.6975E-12	938.882E-3	-16.4129E-3	-61.2358E-12	923.637E-3	-30.9092E-3
-1.76838E-3	-60.8883E-12	924.792E-3	-19.3133E-3	-61.4268E-12	905.605E-3	-37.6069E-3
-1.77339E-3	-61.6390E-12	919.647E-3	-30.0422E-3	-61.5400E-12	887.940E-3	-15.8783E-3
-1.77839E-3	-62.2495E-12	935.595E-3	-36.6871E-3	-61.0825E-12	886.607E-3	-8.93497E-3
-1.78339E-3	-62.4608E-12	938.252E-3	-29.0283E-3	-60.9759E-12	887.646E-3	-19.5557E-3
-1.78839E-3	-63.4509E-12	919.180E-3	-18.8238E-3	-61.4077E-12	889.381E-3	-13.8524E-3
-1.79340E-3	-64.3852E-12	906.747E-3	-17.0064E-3	-61.6687E-12	899.821E-3	-8.84390E-3
-1.79840E-3	-64.5302E-12	906.646E-3	-10.7308E-3	-61.9027E-12	905.483E-3	-25.6012E-3
-1.80340E-3	-64.9624E-12	923.623E-3	-6.51552E-3	-62.6359E-12	893.367E-3	-40.8455E-3
-1.80840E-3	-65.4497E-12	934.187E-3	-12.0636E-3	-63.0657E-12	890.818E-3	-35.0567E-3
-1.81341E-3	-65.7137E-12	915.254E-3	-5.72219E-3	-63.8813E-12	909.834E-3	-22.9038E-3
-1.81841E-3	-65.5726E-12	904.566E-3	3.47651E-3	-64.5623E-12	915.070E-3	-12.5683E-3
-1.82341E-3	-65.7063E-12	915.421E-3	120.265E-6	-65.2480E-12	902.134E-3	478.280E-6
-1.82841E-3	-65.5469E-12	916.177E-3	-3.29459E-3	-65.7420E-12	886.914E-3	-28.4510E-6
-1.83342E-3	-65.3332E-12	906.403E-3	-3.27476E-3	-66.8640E-12	876.505E-3	-16.6374E-3
-1.83842E-3	-65.4101E-12	898.816E-3	-3.84696E-3	-66.9837E-12	875.412E-3	-34.8744E-3
-1.84342E-3	-65.0972E-12	891.456E-3	-9.79020E-3	-66.5732E-12	869.753E-3	-44.4553E-3
-1.84842E-3	-64.8785E-12	894.733E-3	-19.0637E-3	-67.5174E-12	859.437E-3	-39.0277E-3
-1.85343E-3	-65.1354E-12	891.083E-3	-19.4491E-3	-67.2471E-12	864.096E-3	-32.2369E-3
-1.85843E-3	-65.4434E-12	869.229E-3	-18.6009E-3	-66.8510E-12	874.426E-3	-25.1780E-3
-1.86343E-3	-65.2523E-12	856.384E-3	-29.9005E-3	-67.1025E-12	874.407E-3	-11.8870E-3
-1.86843E-3	-66.1081E-12	853.281E-3	-25.5600E-3	-66.7495E-12	869.482E-3	-13.0970E-3
-1.87344E-3	-66.3670E-12	843.927E-3	-4.56866E-3	-66.2768E-12	858.494E-3	-23.5136E-3
-1.87844E-3	-66.5638E-12	838.765E-3	-1.41759E-3	-66.2360E-12	846.611E-3	-28.7753E-3
-1.88344E-3	-67.7893E-12	852.062E-3	-13.0467E-3	-66.6791E-12	836.421E-3	-25.0391E-3
-1.88844E-3	-67.8237E-12	869.875E-3	-15.1724E-3	-66.8683E-12	825.567E-3	-27.6760E-3
-1.89345E-3	-68.5041E-12	866.025E-3	-14.7497E-3	-67.2439E-12	832.963E-3	-40.0312E-3
-1.89845E-3	-69.3110E-12	846.908E-3	-19.4411E-3	-67.6478E-12	857.348E-3	-40.6268E-3
-1.90345E-3	-69.8706E-12	834.655E-3	-12.2684E-3	-68.2247E-12	859.425E-3	-31.1409E-3
-1.90845E-3	-69.6756E-12	841.572E-3	-740.496E-6	-68.8633E-12	837.571E-3	-18.1348E-3
-1.91346E-3	-70.7428E-12	852.632E-3	-7.88334E-3	-69.5658E-12	836.510E-3	-13.3958E-3
-1.91846E-3	-70.7641E-12	842.361E-3	-23.9877E-3	-70.5097E-12	851.597E-3	-21.5757E-3
-1.92346E-3	-70.7151E-12	828.081E-3	-27.0758E-3	-71.4556E-12	855.548E-3	-26.5637E-3
-1.92846E-3	-70.9181E-12	831.510E-3	-24.6053E-3	-71.6523E-12	847.192E-3	-25.7985E-3
-1.93347E-3	-71.0428E-12	851.144E-3	-25.2120E-3	-71.8190E-12	830.188E-3	-25.8698E-3
-1.93847E-3	-71.1982E-12	860.557E-3	-22.8538E-3	-72.6584E-12	821.645E-3	-26.6364E-3
-1.94347E-3	-71.1429E-12	846.927E-3	-21.0428E-3	-73.0260E-12	829.287E-3	-30.1651E-3
-1.94847E-3	-71.3603E-12	830.595E-3	-13.6978E-3	-72.8074E-12	836.989E-3	-31.9182E-3
-1.95348E-3	-70.7969E-12	831.934E-3	-4.28704E-3	-72.7615E-12	829.491E-3	-35.5641E-3
-1.95848E-3	-71.5041E-12	836.533E-3	-3.23497E-3	-73.1158E-12	811.901E-3	-31.9952E-3
-1.96348E-3	-71.1561E-12	819.654E-3	1.69650E-3	-73.0832E-12	809.477E-3	-15.9588E-3
-1.96848E-3	-70.9850E-12	799.266E-3	-4.45473E-3	-73.0620E-12	819.970E-3	-20.2918E-3
-1.97349E-3	-71.3381E-12	796.694E-3	-18.2006E-3	-73.3051E-12	811.964E-3	-38.4605E-3
-1.97849E-3	-71.4973E-12	796.958E-3	-12.9499E-3	-73.1838E-12	799.555E-3	-36.0746E-3
-1.98349E-3	-71.6139E-12	785.328E-3	-7.75038E-3	-73.5288E-12	805.412E-3	-11.1361E-3
-1.98849E-3	-72.4213E-12	784.490E-3	-4.31279E-3	-73.3267E-12	819.772E-3	3.99057E-3
-1.99350E-3	-73.0066E-12	799.976E-3	-345.110E-6	-73.8533E-12	819.675E-3	-2.55153E-3
-1.99850E-3	-73.6299E-12	799.808E-3	-13.8283E-3	-74.2433E-12	800.729E-3	-12.7259E-3
-2.00350E-3	-74.3526E-12	788.786E-3	-26.1596E-3	-74.7680E-12	790.416E-3	-15.4408E-3
-2.00850E-3	-75.3021E-12	792.219E-3	-26.9995E-3	-74.6393E-12	789.666E-3	-16.2143E-3
-2.01351E-3	-75.6083E-12	795.459E-3	-31.0277E-3	-75.1111E-12	790.025E-3	-28.0085E-3
-2.01851E-3	-76.1907E-12	792.790E-3	-39.1538E-3	-76.1491E-12	792.270E-3	-29.4726E-3
-2.02351E-3	-77.1328E-12	798.526E-3	-35.1652E-3	-76.0934E-12	791.572E-3	-15.0712E-3
-2.02851E-3	-77.5001E-12	802.056E-3	-18.9300E-3	-76.6116E-12	796.568E-3	-16.0954E-3
-2.03352E-3	-77.5920E-12	801.754E-3	-11.7665E-3	-77.1451E-12	793.366E-3	-34.1414E-3
-2.03852E-3	-77.8262E-12	814.192E-3	-8.87803E-3	-77.1122E-12	782.085E-3	-37.7152E-3
-2.04352E-3	-78.6510E-12	829.571E-3	-14.7004E-3	-77.6696E-12	792.158E-3	-28.4408E-3
-2.04852E-3	-78.3651E-12	822.775E-3	-23.6442E-3	-78.2551E-12	804.422E-3	-26.8019E-3
-2.05353E-3	-77.6374E-12	800.916E-3	-9.74252E-3	-77.6663E-12	798.184E-3	-26.3448E-3
-2.05853E-3	-78.6887E-12	777.969E-3	806.457E-6	-78.1579E-12	789.347E-3	-37.5633E-3
-2.06353E-3	-77.8367E-12	766.476E-3	-3.33178E-3	-78.8137E-12	780.875E-3	-45.7902E-3
-2.06853E-3	-77.5900E-12	769.636E-3	-6.69516E-3	-78.4799E-12	777.133E-3	-23.1090E-3
-2.07354E-3	-77.7362E-12	766.282E-3	-14.9083E-3	-78.4835E-12	789.896E-3	-3.50632E-3
-2.07854E-3	-77.7836E-12	770.955E-3	-30.2162E-3	-78.9661E-12	790.619E-3	-3.66566E-3
-2.08354E-3	-77.7951E-12	788.669E-3	-41.2484E-3	-78.8759E-12	764.622E-3	-11.4649E-3
-2.08854E-3	-78.6219E-12	792.599E-3	-36.9583E-3	-78.4986E-12	743.692E-3	-21.5579E-3
-2.09355E-3	-79.4623E-12	792.537E-3	-28.0461E-3	-78.4937E-12	733.670E-3	-19.2048E-3
-2.09855E-3	-79.5046E-12	796.470E-3	-13.5613E-3	-78.6529E-12	731.302E-3	-15.2099E-3
-2.10355E-3	-80.5491E-12	790.896E-3	6.19546E-3	-78.3770E-12	747.528E-3	-20.1458E-3
-2.10855E-3	-81.7996E-12	787.433E-3	3.11979E-3	-78.5852E-12	770.101E-3	-17.2930E-3
-2.11356E-3	-82.8743E-12	800.279E-3	-22.9653E-3	-79.0293E-12	780.477E-3	-10.6357E-3
-2.11856E-3	-83.5738E-12	810.649E-3	-36.8384E-3	-79.2226E-12	775.062E-3	-11.3876E-3
-2.12356E-3	-84.8711E-12	806.669E-3	-35.9427E-3	-79.3898E-12	767.886E-3	-11.1475E-3
-2.12856E-3	-85.0889E-12	803.934E-3	-23.4848E-3	-80.3463E-12	761.890E-3	-4.60679E-3
-2.13357E-3	-85.7114E-12	808.990E-3	-5.62760E-3	-81.0519E-12	762.565E-3	-2.56833E-3
-2.13857E-3	-85.6798E-12	808.248E-3	-8.82230E-3	-81.2908E-12	774.280E-3	-11.1323E-3
-2.14357E-3	-85.5398E-12	809.084E-3	-16.6596E-3	-81.8035E-12	783.363E-3	-28.1577E-3
-2.14857E-3	-85.0437E-12	799.899E-3	-9.51788E-3	-82.6566E-12	778.683E-3	-33.8775E-3
-2.15358E-3	-84.6308E-12	777.792E-3	-19.6047E-3	-83.2476E-12	773.708E-3	-7.96196E-3
-2.15858E-3	-84.1198E-12	778.168E-3	-33.7012E-3	-83.8695E-12	781.407E-3	6.88905E-3
-2.16358E-3	-83.2299E-12	786.126E-3	-15.2629E-3	-84.9890E-12	778.549E-3	-13.4116E-3
-2.16858E-3	-82.8393E-12	780.646E-3	-11.8945E-3	-85.4639E-12	768.354E-3	-31.8952E-3
-2.17359E-3	-82.6327E-12	769.535E-3	-32.8006E-3	-85.4075E-12	767.274E-3	-20.0268E-3
-2.17859E-3	-82.4085E-12	757.052E-3	-30.4669E-3	-85.4946E-12	760.069E-3	14.1309E-3
-2.18359E-3	-81.7842E-12	744.744E-3	-13.3658E-3	-85.3649E-12	756.731E-3	25.1352E-3
-2.18859E-3	-82.0045E-12	739.562E-3	-4.65937E-3	-85.5307E-12	751.101E-3	-276.742E-6
-2.19360E-3	-82.6425E-12	749.259E-3	-989.180E-6	-85.2183E-12	731.720E-3	-19.7727E-3
-2.19860E-3	-83.3303E-12	760.713E-3	-6.98580E-3	-84.8372E-12	734.920E-3	-7.20503E-3
-2.20360E-3	-83.4817E-12	760.375E-3	-23.9826E-3	-84.5687E-12	748.519E-3	8.96784E-3
-2.20860E-3	-84.5451E-12	751.289E-3	-28.4821E-3	-84.7833E-12	748.527E-3	-1.32411E-3
-2.21361E-3	-85.2521E-12	750.010E-3	-20.6340E-3	-84.9454E-12	754.255E-3	-14.5057E-3
-2.21861E-3	-85.8295E-12	757.468E-3	-21.5340E-3	-84.6325E-12	761.507E-3	-15.6663E-3
-2.22361E-3	-86.3379E-12	754.638E-3	-24.5362E-3	-85.0151E-12	751.483E-3	-25.5398E-3
-2.22861E-3	-87.3151E-12	743.592E-3	-22.3316E-3	-85.6806E-12	739.809E-3	-35.2994E-3
-2.23362E-3	-87.2522E-12	740.575E-3	-21.8185E-3	-86.1943E-12	745.562E-3	-23.1456E-3
-2.23862E-3	-87.6720E-12	756.403E-3	-27.5274E-3	-86.9112E-12	758.509E-3	-16.2419E-3
-2.24362E-3	-87.9512E-12	769.917E-3	-38.3685E-3	-87.7893E-12	761.806E-3	-22.5066E-3
-2.24862E-3	-87.9896E-12	773.228E-3	-40.2752E-3	-88.5932E-12	755.085E-3	-14.2638E-3
-2.25363E-3	-87.3055E-12	773.224E-3	-33.4561E-3	-89.8056E-12	752.578E-3	-13.0746E-3
-2.25863E-3	-87.2042E-12	760.572E-3	-27.9361E-3	-89.9246E-12	754.009E-3	-30.9538E-3
-2.26363E-3	-87.1640E-12	746.461E-3	-22.6409E-3	-90.3745E-12	747.292E-3	-37.0284E-3
-2.26863E-3	-86.5691E-12	739.165E-3	-22.2865E-3	-90.8766E-12	751.829E-3	-24.6850E-3
-2.27364E-3	-86.1634E-12	726.697E-3	-22.2085E-3	-90.5859E-12	763.134E-3	-830.322E-6
-2.27864E-3	-86.8158E-12	709.015E-3	-18.1985E-3	-90.3625E-12	741.863E-3	13.1566E-3
-2.28364E-3	-86.5717E-12	700.736E-3	-22.1111E-3	-90.0998E-12	716.480E-3	7.88994E-3
-2.28864E-3	-86.2588E-12	704.549E-3	-24.8652E-3	-89.7150E-12	718.779E-3	-10.0641E-3
-2.29365E-3	-87.3120E-12	709.082E-3	-21.1942E-3	-89.4543E-12	723.800E-3	-32.0262E-3
-2.29865E-3	-87.9614E-12	702.322E-3	-21.7399E-3	-88.6978E-12	724.083E-3	-36.9281E-3
-2.30365E-3	-87.7440E-12	691.459E-3	-25.5495E-3	-88.4770E-12	718.005E-3	-30.9621E-3
-2.30865E-3	-88.8060E-12	705.384E-3	-29.8862E-3	-88.7552E-12	702.351E-3	-34.6132E-3
-2.31366E-3	-90.1968E-12	736.891E-3	-27.5596E-3	-88.5849E-12	716.299E-3	-48.8933E-3
-2.31866E-3	-90.3687E-12	741.221E-3	-28.4319E-3	-88.7743E-12	743.899E-3	-61.6558E-3
-2.32366E-3	-90.9335E-12	731.834E-3	-30.0139E-3	-89.0389E-12	735.487E-3	-59.2569E-3
-2.32866E-3	-91.7961E-12	741.523E-3	-8.34619E-3	-89.7567E-12	735.135E-3	-46.5656E-3
-2.33367E-3	-92.4411E-12	748.257E-3	6.58670E-3	-90.6684E-12	748.670E-3	-30.0023E-3
-2.33867E-3	-92.6842E-12	748.102E-3	-9.19773E-3	-91.4169E-12	726.152E-3	-27.4308E-3
-2.34367E-3	-93.6109E-12	752.898E-3	-20.6509E-3	-92.1280E-12	710.147E-3	-32.0116E-3
-2.34867E-3	-93.7370E-12	746.351E-3	-13.4999E-3	-93.0501E-12	736.129E-3	-17.7043E-3
-2.35368E-3	-93.8866E-12	736.453E-3	-14.9711E-3	-93.5296E-12	754.383E-3	-6.77012E-3
-2.35868E-3	-94.1918E-12	738.522E-3	-24.6277E-3	-94.0540E-12	739.419E-3	-10.9376E-3
-2.36368E-3	-93.9874E-12	738.812E-3	-23.6029E-3	-94.1604E-12	729.034E-3	-22.2990E-3
-2.36868E-3	-93.9500E-12	737.284E-3	-20.1081E-3	-94.1996E-12	733.441E-3	-24.5112E-3
-2.37369E-3	-94.3694E-12	735.194E-3	-14.7701E-3	-94.2602E-12	723.044E-3	-14.1472E-3
-2.37869E-3	-94.3127E-12	729.042E-3	-9.67209E-3	-93.7145E-12	713.912E-3	-6.91550E-3
-2.38369E-3	-93.8620E-12	729.009E-3	-7.82347E-3	-93.6808E-12	714.436E-3	-12.0761E-3
-2.38869E-3	-94.2693E-12	739.193E-3	-5.19396E-3	-93.9608E-12	710.964E-3	-31.7488E-3
-2.39370E-3	-94.4433E-12	742.069E-3	-2.83507E-3	-93.3970E-12	717.345E-3	-43.7846E-3
-2.39870E-3	-93.9793E-12	736.631E-3	-808.018E-6	-93.3266E-12	729.962E-3	-34.3120E-3
-2.40370E-3	-94.0808E-12	742.584E-3	-2.04157E-3	-93.9674E-12	715.627E-3	-21.1835E-3
-2.40870E-3	-94.6148E-12	736.414E-3	-3.01947E-3	-94.1361E-12	687.844E-3	-6.75710E-3
-2.41371E-3	-94.7053E-12	720.543E-3	-4.99826E-3	-94.0541E-12	688.846E-3	5.40484E-3
-2.41871E-3	-94.8579E-12	726.325E-3	-3.75117E-3	-94.1722E-12	698.636E-3	-1.45556E-3
-2.42371E-3	-96.1037E-12	728.343E-3	7.22119E-3	-94.7990E-12	699.851E-3	-20.7613E-3
-2.42871E-3	-96.3549E-12	724.748E-3	4.08954E-3	-95.5595E-12	712.014E-3	-33.7810E-3
-2.43372E-3	-96.6884E-12	731.704E-3	-14.1553E-3	-96.3097E-12	712.892E-3	-28.3295E-3
-2.43872E-3	-97.8340E-12	715.899E-3	-13.0078E-3	-96.5520E-12	708.449E-3	-21.7930E-3
-2.44372E-3	-98.3621E-12	698.152E-3	-8.66917E-3	-97.2176E-12	723.541E-3	-23.6856E-3
-2.44872E-3	-98.6171E-12	710.229E-3	-21.6261E-3	-97.9782E-12	724.722E-3	-7.54534E-3
-2.45373E-3	-99.2661E-12	718.254E-3	-20.9508E-3	-98.3083E-12	709.264E-3	12.7240E-3
-2.45873E-3	-99.6899E-12	702.834E-3	-16.4058E-3	-98.3710E-12	706.765E-3	13.7287E-3
-2.46373E-3	-99.4598E-12	701.337E-3	-28.2056E-3	-98.7141E-12	711.003E-3	8.29959E-3
-2.46873E-3	-100.288E-12	730.850E-3	-30.6464E-3	-98.7924E-12	714.754E-3	2.00967E-3
-2.47374E-3	-100.220E-12	738.950E-3	-28.9997E-3	-98.8652E-12	722.078E-3	-10.0018E-3
-2.47874E-3	-99.6810E-12	712.859E-3	-43.9323E-3	-98.7802E-12	731.352E-3	-8.17003E-3
-2.48374E-3	-99.8419E-12	701.049E-3	-39.0586E-3	-99.0087E-12	734.401E-3	-1.23384E-3
-2.48874E-3	-100.167E-12	713.150E-3	-2.81805E-3	-98.8968E-12	722.937E-3	-23.4996E-3
-2.49375E-3	-99.1169E-12	719.583E-3	6.97929E-3	-98.9360E-12	701.017E-3	-32.8283E-3
-2.49875E-3	-99.2228E-12	718.350E-3	-6.63667E-3	-99.0398E-12	693.362E-3	-10.3128E-3
-2.50375E-3	-99.0461E-12	707.346E-3	-8.56967E-3	-99.6242E-12	714.655E-3	1.76563E-3
-2.50875E-3	-98.7835E-12	693.609E-3	-17.7024E-3	-99.3947E-12	736.545E-3	-7.89427E-3
-2.51376E-3	-99.9233E-12	701.805E-3	-17.2255E-3	-100.114E-12	735.387E-3	-25.6436E-3
-2.51876E-3	-99.4001E-12	703.815E-3	-1.36999E-3	-99.7978E-12	726.042E-3	-35.6491E-3
-2.52376E-3	-99.6225E-12	687.630E-3	-6.02117E-3	-100.418E-12	727.829E-3	-34.1209E-3
-2.52876E-3	-101.321E-12	691.621E-3	-17.3328E-3	-100.410E-12	727.990E-3	-22.3175E-3
-2.53377E-3	-102.202E-12	707.396E-3	-20.7339E-3	-100.503E-12	709.430E-3	-4.62710E-3
-2.53877E-3	-102.732E-12	713.273E-3	-26.1459E-3	-100.563E-12	689.030E-3	-5.87170E-3
-2.54377E-3	-103.775E-12	720.942E-3	-16.2164E-3	-101.524E-12	689.275E-3	-25.2122E-3
-2.54877E-3	-104.643E-12	726.461E-3	2.45992E-3	-101.500E-12	717.024E-3	-21.4585E-3
-2.55378E-3	-104.604E-12	729.730E-3	-6.09344E-3	-101.413E-12	743.734E-3	-3.33207E-3
-2.55878E-3	-105.499E-12	737.743E-3	-24.8463E-3	-102.382E-12	731.698E-3	-7.47021E-3
-2.56378E-3	-105.898E-12	743.571E-3	-22.3710E-3	-102.634E-12	715.686E-3	-22.5514E-3
-2.56878E-3	-105.414E-12	742.668E-3	-16.7364E-3	-103.023E-12	728.763E-3	-24.7569E-3
-2.57379E-3	-104.917E-12	731.590E-3	-22.3365E-3	-103.714E-12	743.273E-3	-17.8742E-3
-2.57879E-3	-105.353E-12	720.093E-3	-12.3637E-3	-104.340E-12	742.365E-3	-17.9549E-3
-2.58379E-3	-104.146E-12	717.423E-3	8.72756E-3	-104.397E-12	738.974E-3	-26.9152E-3
-2.58879E-3	-103.383E-12	724.129E-3	13.3119E-3	-105.194E-12	733.884E-3	-26.1716E-3
-2.59380E-3	-103.021E-12	734.823E-3	-2.73241E-3	-105.016E-12	713.237E-3	-17.9390E-3
-2.59880E-3	-102.463E-12	732.203E-3	-38.8109E-3	-104.958E-12	702.108E-3	-11.2350E-3
-2.60380E-3	-101.769E-12	707.508E-3	-60.7597E-3	-105.624E-12	713.987E-3	-2.28777E-3
-2.60880E-3	-102.365E-12	683.560E-3	-45.6404E-3	-105.534E-12	723.063E-3	-1.45769E-3
-2.61381E-3	-102.512E-12	680.479E-3	-28.7024E-3	-104.987E-12	717.515E-3	-9.49175E-3
-2.61881E-3	-102.122E-12	694.680E-3	-27.4383E-3	-105.046E-12	700.947E-3	-21.2344E-3
-2.62381E-3	-103.457E-12	708.660E-3	-20.4070E-3	-105.233E-12	687.119E-3	-28.4011E-3
-2.62881E-3	-105.149E-12	700.870E-3	-7.19710E-3	-104.826E-12	689.416E-3	-23.9233E-3
-2.63382E-3	-105.124E-12	692.389E-3	-6.16071E-3	-104.721E-12	695.960E-3	-20.1376E-3
-2.63882E-3	-106.342E-12	704.003E-3	-16.3335E-3	-105.049E-12	699.351E-3	-26.8113E-3
-2.64382E-3	-108.239E-12	705.578E-3	-27.4943E-3	-104.936E-12	700.033E-3	-28.8621E-3
-2.64882E-3	-108.245E-12	704.139E-3	-40.4158E-3	-105.693E-12	705.643E-3	-11.4431E-3
-2.65383E-3	-108.587E-12	721.101E-3	-41.6042E-3	-106.108E-12	709.243E-3	8.91790E-3
-2.65883E-3	-109.597E-12	734.751E-3	-36.5976E-3	-106.723E-12	705.350E-3	10.5807E-3
-2.66383E-3	-109.397E-12	737.038E-3	-38.8679E-3	-107.623E-12	702.219E-3	-4.69196E-3
-2.66883E-3	-108.585E-12	732.226E-3	-25.7898E-3	-108.358E-12	694.834E-3	-30.8485E-3
-2.67384E-3	-109.228E-12	714.586E-3	-7.87132E-3	-108.768E-12	691.589E-3	-45.4580E-3
-2.67884E-3	-108.425E-12	698.156E-3	-21.3221E-3	-109.382E-12	690.202E-3	-36.5622E-3
-2.68384E-3	-107.599E-12	702.017E-3	-43.3388E-3	-109.712E-12	684.077E-3	-31.4472E-3
-2.68884E-3	-107.513E-12	700.608E-3	-37.2132E-3	-110.146E-12	699.468E-3	-24.9691E-3
-2.69385E-3	-107.132E-12	681.005E-3	-22.4438E-3	-109.637E-12	711.376E-3	-3.66538E-3
-2.69885E-3	-105.889E-12	676.893E-3	-24.9688E-3	-109.584E-12	688.023E-3	4.80286E-3
-2.70385E-3	-106.229E-12	682.472E-3	-32.3468E-3	-109.345E-12	667.597E-3	-15.3992E-3
-2.70885E-3	-106.653E-12	674.820E-3	-31.5626E-3	-108.893E-12	661.018E-3	-28.9701E-3
-2.71386E-3	-106.542E-12	662.089E-3	-13.0898E-3	-108.459E-12	666.855E-3	-25.3728E-3
-2.71886E-3	-107.121E-12	664.282E-3	5.50911E-3	-108.022E-12	679.607E-3	-21.4174E-3
-2.72386E-3	-108.565E-12	684.174E-3	-13.5848E-3	-107.342E-12	664.272E-3	-16.3763E-3
-2.72886E-3	-109.097E-12	702.638E-3	-34.9431E-3	-107.172E-12	642.464E-3	-22.1661E-3
-2.73387E-3	-109.881E-12	709.724E-3	-34.0481E-3	-107.475E-12	656.280E-3	-24.6737E-3
-2.73887E-3	-110.967E-12	702.468E-3	-46.1040E-3	-107.014E-12	671.874E-3	-12.2051E-3
-2.74387E-3	-111.604E-12	687.604E-3	-59.9399E-3	-107.763E-12	654.548E-3	2.40464E-3
-2.74887E-3	-112.302E-12	682.241E-3	-47.2991E-3	-108.629E-12	641.091E-3	10.8003E-3
-2.75388E-3	-113.201E-12	682.020E-3	-25.6967E-3	-109.550E-12	652.488E-3	-783.299E-6
-2.75888E-3	-113.593E-12	686.682E-3	-12.0025E-3	-110.279E-12	667.269E-3	-24.9412E-3
-2.76388E-3	-114.182E-12	706.133E-3	-3.09046E-3	-111.990E-12	687.489E-3	-32.9585E-3
-2.76888E-3	-114.125E-12	718.363E-3	8.07701E-3	-112.926E-12	704.217E-3	-24.0286E-3
-2.77389E-3	-113.309E-12	715.353E-3	10.6568E-3	-114.434E-12	711.372E-3	-17.4542E-3
-2.77889E-3	-113.454E-12	711.877E-3	-6.59739E-3	-115.218E-12	730.962E-3	-15.7657E-3
-2.78389E-3	-113.671E-12	701.587E-3	-21.0267E-3	-115.967E-12	737.138E-3	-20.1126E-3
-2.78889E-3	-113.004E-12	690.733E-3	-29.8111E-3	-115.973E-12	699.557E-3	-30.0052E-3
-2.79390E-3	-112.830E-12	687.464E-3	-28.3886E-3	-116.810E-12	675.293E-3	-21.3792E-3
-2.79890E-3	-112.468E-12	680.344E-3	-16.5349E-3	-116.428E-12	690.066E-3	957.083E-6
-2.80390E-3	-112.293E-12	671.196E-3	-13.9748E-3	-115.426E-12	694.581E-3	-10.3375E-3
-2.80890E-3	-112.849E-12	669.215E-3	-14.3202E-3	-115.465E-12	686.166E-3	-31.7282E-3
-2.81391E-3	-112.710E-12	670.882E-3	-12.8144E-3	-114.857E-12	687.891E-3	-21.6672E-3
-2.81891E-3	-112.765E-12	666.735E-3	-11.0793E-3	-114.022E-12	693.922E-3	-3.25054E-3
-2.82391E-3	-113.052E-12	673.293E-3	-15.6621E-3	-113.556E-12	695.727E-3	-6.62891E-3
-2.82891E-3	-113.793E-12	682.748E-3	-25.3113E-3	-113.398E-12	696.427E-3	-19.2087E-3
-2.83392E-3	-114.214E-12	684.082E-3	-38.6053E-3	-113.472E-12	707.805E-3	-21.1420E-3
-2.83892E-3	-114.792E-12	686.025E-3	-47.5709E-3	-113.935E-12	709.556E-3	-17.8248E-3
-2.84392E-3	-115.034E-12	667.530E-3	-43.6249E-3	-114.460E-12	691.838E-3	-7.13055E-3
-2.84892E-3	-115.558E-12	657.115E-3	-29.4820E-3	-114.842E-12	696.384E-3	-4.34607E-3
-2.85393E-3	-116.117E-12	674.853E-3	-15.8458E-3	-115.674E-12	716.893E-3	-5.57101E-3
-2.85893E-3	-116.833E-12	686.328E-3	-20.4775E-3	-116.459E-12	708.872E-3	-4.85993E-3
-2.86393E-3	-117.180E-12	695.048E-3	-34.7765E-3	-117.458E-12	700.206E-3	-10.6740E-3
-2.86893E-3	-117.166E-12	703.273E-3	-39.4494E-3	-118.515E-12	724.021E-3	-8.63671E-3
-2.87394E-3	-118.231E-12	691.310E-3	-26.2606E-3	-119.426E-12	740.919E-3	-17.3152E-3
-2.87894E-3	-118.853E-12	680.019E-3	-18.6285E-3	-119.814E-12	728.657E-3	-31.8392E-3
-2.88394E-3	-118.361E-12	674.086E-3	-29.2952E-3	-120.198E-12	719.032E-3	-19.3293E-3
-2.88894E-3	-119.025E-12	670.235E-3	-30.3887E-3	-120.513E-12	723.335E-3	-18.5884E-3
-2.89395E-3	-119.641E-12	690.952E-3	-22.7393E-3	-120.003E-12	705.610E-3	-46.6520E-3
-2.89895E-3	-119.461E-12	704.971E-3	-15.5410E-3	-120.238E-12	673.776E-3	-67.2366E-3
-2.90395E-3	-118.750E-12	687.705E-3	-3.72456E-3	-120.057E-12	661.118E-3	-53.8618E-3
-2.90895E-3	-119.087E-12	675.094E-3	-3.26717E-3	-119.577E-12	654.845E-3	-18.1203E-3
-2.91396E-3	-118.928E-12	685.140E-3	-8.07660E-3	-119.178E-12	653.448E-3	-1.17263E-3
-2.91896E-3	-118.103E-12	699.694E-3	-11.9772E-3	-118.844E-12	666.117E-3	-10.6434E-3
-2.92396E-3	-118.831E-12	693.769E-3	-27.5806E-3	-118.509E-12	681.782E-3	-20.5144E-3
-2.92896E-3	-118.621E-12	681.872E-3	-39.6187E-3	-118.066E-12	683.500E-3	-23.4920E-3
-2.93397E-3	-118.558E-12	687.946E-3	-39.7455E-3	-118.401E-12	667.956E-3	-23.2795E-3
-2.93897E-3	-119.406E-12	686.334E-3	-44.6922E-3	-118.094E-12	670.958E-3	-32.4422E-3
-2.94397E-3	-120.239E-12	678.602E-3	-46.4570E-3	-118.287E-12	686.317E-3	-38.2838E-3
-2.94897E-3	-120.112E-12	680.601E-3	-25.5405E-3	-118.480E-12	679.861E-3	-12.4900E-3
-2.95398E-3	-121.346E-12	679.893E-3	-2.80069E-3	-118.578E-12	669.369E-3	11.3410E-3
-2.95898E-3	-122.757E-12	683.150E-3	2.42311E-3	-118.904E-12	668.272E-3	10.3116E-3
-2.96398E-3	-123.247E-12	691.913E-3	981.698E-6	-119.443E-12	677.056E-3	1.11318E-3
-2.96898E-3	-124.215E-12	694.012E-3	-3.54062E-3	-120.095E-12	680.101E-3	-3.66774E-3
-2.97399E-3	-125.530E-12	700.416E-3	-16.4179E-3	-120.841E-12	668.120E-3	-20.7822E-3
-2.97899E-3	-125.501E-12	713.165E-3	-27.2706E-3	-121.139E-12	665.806E-3	-35.9247E-3
-2.98399E-3	-126.280E-12	709.550E-3	-25.4993E-3	-121.335E-12	679.202E-3	-32.6062E-3
-2.98899E-3	-126.963E-12	706.622E-3	-18.9048E-3	-122.115E-12	702.592E-3	-33.9089E-3
-2.99400E-3	-126.192E-12	715.587E-3	-8.13126E-3	-122.810E-12	709.339E-3	-34.0205E-3
-2.99900E-3	-125.426E-12	712.894E-3	-4.95306E-3	-122.912E-12	688.648E-3	-29.8662E-3
-3.00400E-3	-125.415E-12	708.472E-3	-19.8256E-3	-123.212E-12	687.826E-3	-26.7434E-3
-3.00900E-3	-124.265E-12	712.416E-3	-25.8062E-3	-123.723E-12	701.312E-3	-19.0284E-3
-3.01401E-3	-122.721E-12	712.260E-3	-13.8653E-3	-124.287E-12	693.005E-3	-10.8004E-3
-3.01901E-3	-122.247E-12	707.398E-3	-16.2430E-3	-124.877E-12	684.499E-3	-13.6112E-3
-3.02401E-3	-121.732E-12	689.460E-3	-32.5364E-3	-125.443E-12	698.276E-3	-20.9736E-3
-3.02901E-3	-121.121E-12	658.403E-3	-24.0003E-3	-125.532E-12	715.803E-3	-17.4853E-3
-3.03402E-3	-121.181E-12	646.701E-3	-7.17818E-3	-126.101E-12	708.251E-3	-6.54076E-3
-3.03902E-3	-121.485E-12	660.861E-3	-11.9130E-3	-125.684E-12	699.514E-3	-5.32903E-3
-3.04402E-3	-121.891E-12	671.734E-3	-20.7713E-3	-125.653E-12	690.838E-3	-11.5573E-3
-3.04902E-3	-122.928E-12	671.532E-3	-23.4361E-3	-125.142E-12	670.651E-3	-12.1319E-3
-3.05403E-3	-123.957E-12	675.265E-3	-27.9106E-3	-125.233E-12	668.152E-3	-7.93507E-3
-3.05903E-3	-125.038E-12	667.895E-3	-37.4797E-3	-124.712E-12	668.435E-3	-12.7743E-3
-3.06403E-3	-126.665E-12	649.844E-3	-44.1284E-3	-124.738E-12	672.967E-3	-23.7037E-3
-3.06903E-3	-127.272E-12	656.120E-3	-37.3232E-3	-124.399E-12	698.602E-3	-32.3425E-3
-3.07404E-3	-127.792E-12	668.995E-3	-13.8259E-3	-124.357E-12	708.631E-3	-39.0553E-3
-3.07904E-3	-128.896E-12	674.087E-3	1.70334E-3	-124.964E-12	687.081E-3	-33.6763E-3
-3.08404E-3	-129.002E-12	689.920E-3	-4.58072E-3	-125.149E-12	666.601E-3	-19.4469E-3
-3.08904E-3	-129.149E-12	689.671E-3	-16.9940E-3	-125.747E-12	668.290E-3	-9.88552E-3
-3.09405E-3	-128.705E-12	672.456E-3	-35.4057E-3	-126.586E-12	676.569E-3	-2.40988E-3
-3.09905E-3	-128.268E-12	674.737E-3	-45.1526E-3	-127.425E-12	684.205E-3	-5.81142E-3
-3.10405E-3	-127.422E-12	688.009E-3	-40.3526E-3	-128.339E-12	684.706E-3	-21.5458E-3
-3.10905E-3	-126.714E-12	706.173E-3	-29.3311E-3	-129.443E-12	682.708E-3	-41.3780E-3
-3.11406E-3	-126.067E-12	715.022E-3	-6.95913E-3	-129.825E-12	698.007E-3	-39.8509E-3
-3.11906E-3	-125.905E-12	691.542E-3	6.79285E-3	-131.264E-12	701.279E-3	-11.2350E-3
-3.12406E-3	-125.489E-12	676.107E-3	-10.1086E-3	-130.876E-12	683.515E-3	12.0425E-3
-3.12906E-3	-125.543E-12	687.542E-3	-27.2111E-3	-130.824E-12	674.030E-3	13.2363E-3
-3.13407E-3	-126.232E-12	677.762E-3	-13.7943E-3	-130.840E-12	674.879E-3	-9.02776E-3
-3.13907E-3	-126.387E-12	654.245E-3	-6.10776E-3	-130.347E-12	683.606E-3	-26.9684E-3
-3.14407E-3	-127.104E-12	656.613E-3	-15.0153E-3	-129.279E-12	686.680E-3	-15.7575E-3
-3.14907E-3	-128.652E-12	683.930E-3	-4.59102E-3	-129.471E-12	677.176E-3	-5.04391E-3
-3.15408E-3	-129.819E-12	690.774E-3	12.8256E-3	-128.727E-12	671.120E-3	-14.0873E-3
-3.15908E-3	-130.391E-12	669.666E-3	12.5278E-3	-127.881E-12	673.401E-3	-19.2010E-3
-3.16408E-3	-132.025E-12	661.294E-3	-6.26099E-3	-127.753E-12	671.456E-3	-15.0426E-3
-3.16908E-3	-133.179E-12	678.154E-3	-23.9222E-3	-128.014E-12	665.042E-3	-17.3638E-3
-3.17409E-3	-133.388E-12	702.921E-3	-27.8110E-3	-128.283E-12	666.918E-3	-22.4844E-3
-3.17909E-3	-133.463E-12	704.685E-3	-26.1630E-3	-129.024E-12	674.279E-3	-18.8420E-3
-3.18409E-3	-134.143E-12	683.260E-3	-19.1167E-3	-129.466E-12	667.905E-3	-6.52244E-3
-3.18909E-3	-133.449E-12	669.494E-3	-18.5862E-3	-130.679E-12	655.451E-3	5.31657E-3
-3.19410E-3	-133.690E-12	680.478E-3	-12.5399E-3	-131.333E-12	674.958E-3	-2.41233E-3
-3.19910E-3	-132.668E-12	687.433E-3	9.86925E-3	-132.806E-12	700.671E-3	-16.1264E-3
-3.20410E-3	-132.049E-12	675.625E-3	5.47112E-3	-133.638E-12	673.072E-3	-7.75468E-3
-3.20910E-3	-132.155E-12	671.259E-3	-9.19685E-3	-135.018E-12	648.543E-3	10.6286E-3
-3.21411E-3	-132.666E-12	664.319E-3	1.46656E-3	-134.900E-12	661.193E-3	12.0684E-3
-3.21911E-3	-131.064E-12	653.046E-3	-6.42808E-3	-135.355E-12	667.885E-3	-4.78553E-3
-3.22411E-3	-130.720E-12	666.334E-3	-16.7183E-3	-135.171E-12	678.275E-3	-22.9482E-3
-3.22911E-3	-131.339E-12	668.645E-3	-3.35509E-3	-135.670E-12	674.616E-3	-12.1670E-3
-3.23412E-3	-131.666E-12	658.979E-3	-187.910E-6	-134.749E-12	648.601E-3	10.7501E-3
-3.23912E-3	-131.083E-12	677.382E-3	-4.50435E-3	-134.488E-12	642.101E-3	12.5426E-3
-3.24412E-3	-131.543E-12	692.480E-3	-2.74923E-3	-134.265E-12	644.629E-3	11.5404E-3
-3.24912E-3	-131.833E-12	702.549E-3	-4.85980E-3	-133.396E-12	633.259E-3	15.4888E-3
-3.25413E-3	-132.077E-12	720.885E-3	-10.8546E-3	-133.520E-12	629.743E-3	2.61771E-3
-3.25913E-3	-132.103E-12	709.794E-3	-20.6289E-3	-133.994E-12	651.635E-3	-21.3867E-3
-3.26413E-3	-132.839E-12	680.132E-3	-44.8380E-3	-134.056E-12	658.204E-3	-24.1434E-3
-3.26913E-3	-133.057E-12	662.878E-3	-63.3466E-3	-133.856E-12	646.493E-3	-17.9279E-3
-3.27414E-3	-133.984E-12	654.966E-3	-64.1723E-3	-134.049E-12	660.315E-3	-9.05084E-3
-3.27914E-3	-134.581E-12	659.956E-3	-64.3601E-3	-134.719E-12	675.934E-3	9.80099E-3
-3.28414E-3	-135.466E-12	664.970E-3	-52.3671E-3	-135.211E-12	673.304E-3	16.9548E-3
-3.28914E-3	-136.167E-12	661.822E-3	-24.5032E-3	-135.679E-12	674.705E-3	-5.39439E-3
-3.29415E-3	-137.349E-12	664.262E-3	-9.58846E-3	-135.834E-12	680.308E-3	-30.4001E-3
-3.29915E-3	-137.659E-12	682.720E-3	-16.6201E-3	-136.615E-12	670.770E-3	-24.6934E-3
-3.30415E-3	-137.854E-12	701.416E-3	-17.5271E-3	-137.003E-12	664.061E-3	-12.1928E-3
-3.30915E-3	-137.761E-12	692.532E-3	504.830E-6	-137.491E-12	674.507E-3	-18.4932E-3
-3.31416E-3	-137.417E-12	686.146E-3	-4.41630E-3	-137.281E-12	684.770E-3	-25.7523E-3
-3.31916E-3	-137.074E-12	682.418E-3	-15.3548E-3	-137.154E-12	692.970E-3	-35.7318E-3
-3.32416E-3	-136.484E-12	668.278E-3	-13.1432E-3	-137.071E-12	687.481E-3	-46.1040E-3
-3.32916E-3	-135.964E-12	677.155E-3	-39.6250E-3	-137.087E-12	659.552E-3	-38.5381E-3
-3.33417E-3	-135.889E-12	687.006E-3	-53.1755E-3	-137.175E-12	639.591E-3	-35.2357E-3
-3.33917E-3	-135.430E-12	679.660E-3	-38.3983E-3	-136.429E-12	649.376E-3	-31.2230E-3
-3.34417E-3	-135.540E-12	680.246E-3	-28.7216E-3	-136.542E-12	673.974E-3	-17.8706E-3
-3.34917E-3	-135.659E-12	684.465E-3	-3.96011E-3	-137.184E-12	681.035E-3	-26.8364E-3
-3.35418E-3	-136.222E-12	671.762E-3	-5.54360E-3	-137.090E-12	664.297E-3	-59.6934E-3
-3.35918E-3	-136.036E-12	649.864E-3	-39.9833E-3	-137.131E-12	651.538E-3	-77.9274E-3
-3.36418E-3	-136.935E-12	628.233E-3	-38.8132E-3	-137.626E-12	657.262E-3	-59.6323E-3
-3.36918E-3	-139.013E-12	620.534E-3	-14.8569E-3	-138.102E-12	667.126E-3	-20.8417E-3
-3.37419E-3	-139.546E-12	650.064E-3	-13.7477E-3	-138.233E-12	677.691E-3	611.032E-6
-3.37919E-3	-141.233E-12	680.166E-3	-19.3728E-3	-138.974E-12	677.531E-3	-10.5569E-3
-3.38419E-3	-143.146E-12	672.203E-3	-13.4110E-3	-139.760E-12	660.386E-3	-30.7587E-3
-3.38919E-3	-144.199E-12	660.744E-3	-30.9427E-3	-139.560E-12	665.356E-3	-37.8315E-3
-3.39420E-3	-145.581E-12	671.872E-3	-60.9602E-3	-140.331E-12	696.293E-3	-28.7552E-3
-3.39920E-3	-147.076E-12	672.907E-3	-58.1145E-3	-141.363E-12	726.781E-3	-23.2329E-3
-3.40420E-3	-147.039E-12	666.647E-3	-43.8453E-3	-141.241E-12	722.195E-3	-29.6436E-3
-3.40920E-3	-147.010E-12	667.750E-3	-41.9271E-3	-140.822E-12	688.404E-3	-25.9444E-3
-3.41421E-3	-146.906E-12	654.927E-3	-26.4401E-3	-141.889E-12	670.732E-3	-18.4221E-3
-3.41921E-3	-146.154E-12	642.237E-3	-11.2604E-3	-142.237E-12	676.135E-3	-16.6173E-3
-3.42421E-3	-145.572E-12	648.102E-3	-2.68819E-3	-142.436E-12	684.002E-3	-21.7388E-3
-3.42921E-3	-145.113E-12	653.611E-3	21.7783E-3	-141.940E-12	687.266E-3	-21.7038E-3
-3.43422E-3	-143.402E-12	654.340E-3	21.8547E-3	-142.660E-12	686.972E-3	-12.4956E-3
-3.43922E-3	-141.689E-12	667.030E-3	-1.65118E-3	-143.668E-12	677.714E-3	-20.9449E-3
-3.44422E-3	-141.345E-12	665.915E-3	-4.82903E-3	-144.393E-12	665.238E-3	-34.4018E-3
-3.44922E-3	-141.025E-12	646.863E-3	-3.08340E-3	-144.508E-12	667.828E-3	-38.7247E-3
-3.45423E-3	-140.332E-12	640.516E-3	-16.4316E-3	-144.684E-12	687.421E-3	-27.9393E-3
-3.45923E-3	-140.234E-12	642.279E-3	-34.1599E-3	-145.416E-12	700.012E-3	-15.7409E-3
-3.46423E-3	-141.093E-12	639.942E-3	-34.9151E-3	-145.381E-12	683.347E-3	-19.0034E-3
-3.46923E-3	-142.431E-12	647.623E-3	-11.0993E-3	-145.469E-12	662.265E-3	-21.1397E-3
-3.47424E-3	-143.241E-12	654.724E-3	15.5777E-3	-145.607E-12	673.043E-3	-24.5024E-3
-3.47924E-3	-144.414E-12	641.974E-3	22.7863E-3	-145.237E-12	683.018E-3	-25.6092E-3
-3.48424E-3	-146.362E-12	655.497E-3	7.32598E-3	-145.566E-12	666.319E-3	-21.3748E-3
-3.48924E-3	-147.676E-12	680.315E-3	-242.127E-6	-146.171E-12	652.733E-3	-13.7162E-3
-3.49425E-3	-147.858E-12	682.337E-3	5.98955E-3	-145.380E-12	646.273E-3	-1.80948E-3
-3.49925E-3	-149.019E-12	683.575E-3	9.90848E-3	-145.057E-12	636.540E-3	-4.15295E-3
-3.50425E-3	-149.236E-12	684.570E-3	15.7112E-3	-146.008E-12	633.757E-3	-13.4317E-3
-3.50925E-3	-149.096E-12	665.292E-3	8.69108E-3	-145.425E-12	637.067E-3	-13.8839E-3
-3.51426E-3	-148.959E-12	651.059E-3	-229.797E-6	-146.240E-12	633.467E-3	-2.95275E-3
-3.51926E-3	-148.684E-12	670.630E-3	-4.56389E-3	-146.669E-12	630.223E-3	2.36732E-3
-3.52426E-3	-146.954E-12	679.691E-3	-23.8811E-3	-147.217E-12	640.059E-3	-14.4676E-3
-3.52926E-3	-146.243E-12	668.457E-3	-37.0802E-3	-147.403E-12	662.812E-3	-32.4720E-3
-3.53427E-3	-145.183E-12	660.051E-3	-19.9202E-3	-148.024E-12	689.291E-3	-49.4031E-3
-3.53927E-3	-144.231E-12	643.180E-3	7.05056E-3	-147.864E-12	685.649E-3	-59.2493E-3
-3.54427E-3	-143.392E-12	635.613E-3	14.1232E-3	-148.236E-12	659.308E-3	-35.3987E-3
-3.54927E-3	-143.336E-12	647.633E-3	1.94451E-3	-148.678E-12	655.021E-3	-19.4224E-3
-3.55428E-3	-142.993E-12	648.499E-3	-16.3910E-3	-148.772E-12	664.407E-3	-31.2259E-3
-3.55928E-3	-143.167E-12	635.936E-3	-39.5778E-3	-147.648E-12	655.933E-3	-34.7294E-3
-3.56428E-3	-143.854E-12	634.564E-3	-39.6840E-3	-147.214E-12	655.633E-3	-44.0439E-3
-3.56928E-3	-145.156E-12	638.017E-3	-17.5429E-3	-147.104E-12	676.203E-3	-53.7791E-3
-3.57429E-3	-145.363E-12	634.687E-3	-9.80842E-3	-146.626E-12	686.367E-3	-32.7501E-3
-3.57929E-3	-147.281E-12	640.387E-3	-13.3981E-3	-145.917E-12	683.054E-3	-3.39595E-3
-3.58429E-3	-148.572E-12	647.778E-3	-21.8774E-3	-146.041E-12	665.439E-3	-6.11605E-3
-3.58929E-3	-149.102E-12	663.410E-3	-31.2761E-3	-145.784E-12	647.559E-3	-30.5906E-3
-3.59430E-3	-149.536E-12	697.203E-3	-31.9799E-3	-146.057E-12	647.874E-3	-37.1995E-3
-3.59930E-3	-151.206E-12	691.563E-3	-19.0724E-3	-146.958E-12	643.174E-3	-30.5298E-3
-3.60430E-3	-151.258E-12	644.952E-3	-13.0881E-3	-148.025E-12	638.661E-3	-19.8907E-3
-3.60930E-3	-151.866E-12	639.968E-3	-17.9616E-3	-148.205E-12	672.715E-3	2.46237E-3
-3.61431E-3	-151.599E-12	674.231E-3	-2.66413E-3	-149.450E-12	711.569E-3	-6.74770E-3
-3.61931E-3	-152.299E-12	684.370E-3	-627.720E-6	-150.581E-12	706.866E-3	-38.8568E-3
-3.62431E-3	-151.662E-12	679.892E-3	-21.0360E-3	-152.234E-12	706.485E-3	-29.3076E-3
-3.62931E-3	-151.472E-12	679.248E-3	-30.1598E-3	-152.544E-12	715.688E-3	-20.2465E-3
-3.63432E-3	-150.632E-12	677.231E-3	-30.0959E-3	-153.009E-12	692.476E-3	-22.7198E-3
-3.63932E-3	-150.776E-12	677.895E-3	-29.5691E-3	-154.054E-12	666.884E-3	1.73536E-3
-3.64432E-3	-150.891E-12	664.727E-3	-34.4361E-3	-153.655E-12	648.910E-3	-8.76594E-3
-3.64932E-3	-150.165E-12	641.423E-3	-30.6467E-3	-154.114E-12	638.444E-3	-20.5508E-3
-3.65433E-3	-149.328E-12	636.546E-3	-20.8309E-3	-153.447E-12	650.894E-3	3.65221E-3
-3.65933E-3	-149.079E-12	660.203E-3	-36.4001E-3	-153.981E-12	668.045E-3	1.51649E-3
-3.66433E-3	-149.728E-12	674.301E-3	-41.3415E-3	-153.750E-12	669.736E-3	-16.1529E-3
-3.66933E-3	-149.379E-12	651.367E-3	-17.5530E-3	-153.563E-12	654.011E-3	-25.0663E-3
-3.67434E-3	-149.432E-12	632.659E-3	-9.07923E-3	-153.260E-12	642.928E-3	-31.8175E-3
-3.67934E-3	-149.902E-12	635.345E-3	-25.3574E-3	-153.171E-12	652.481E-3	-33.0779E-3
-3.68434E-3	-151.117E-12	648.796E-3	-45.3523E-3	-152.903E-12	669.827E-3	-28.7994E-3
-3.68934E-3	-152.000E-12	659.705E-3	-24.1075E-3	-152.942E-12	671.173E-3	-29.5742E-3
-3.69435E-3	-152.993E-12	664.065E-3	9.32006E-3	-153.926E-12	668.651E-3	-26.1295E-3
-3.69935E-3	-153.757E-12	683.495E-3	12.3322E-3	-154.487E-12	684.074E-3	-14.2424E-3
-3.70435E-3	-154.550E-12	693.070E-3	13.8657E-3	-154.749E-12	695.482E-3	-6.12881E-3
-3.70935E-3	-156.038E-12	672.818E-3	975.325E-6	-156.062E-12	679.477E-3	-15.1015E-3
-3.71436E-3	-156.651E-12	651.997E-3	-14.9899E-3	-157.164E-12	652.130E-3	-20.5528E-3
-3.71936E-3	-157.873E-12	654.968E-3	-12.6445E-3	-158.075E-12	648.222E-3	-8.97633E-3
-3.72436E-3	-157.997E-12	672.218E-3	-20.7391E-3	-158.133E-12	641.952E-3	-6.46731E-3
-3.72936E-3	-158.802E-12	680.510E-3	-32.4766E-3	-159.465E-12	631.748E-3	-16.2078E-3
-3.73437E-3	-158.917E-12	680.984E-3	-28.3104E-3	-159.605E-12	652.885E-3	-22.5256E-3
-3.73937E-3	-159.056E-12	681.540E-3	-24.2886E-3	-159.551E-12	670.127E-3	-27.7849E-3
-3.74437E-3	-157.873E-12	682.014E-3	-37.1447E-3	-159.113E-12	647.865E-3	-36.5473E-3
-3.74937E-3	-157.759E-12	675.451E-3	-40.6233E-3	-160.147E-12	622.558E-3	-30.6304E-3
-3.75438E-3	-157.939E-12	658.067E-3	-39.8813E-3	-159.218E-12	632.410E-3	-17.5993E-3
-3.75938E-3	-156.009E-12	636.424E-3	-45.7520E-3	-158.543E-12	654.051E-3	-10.2160E-3
-3.76438E-3	-155.828E-12	629.435E-3	-39.9486E-3	-157.740E-12	674.253E-3	-4.62150E-3
-3.76938E-3	-155.911E-12	633.300E-3	-34.6260E-3	-157.798E-12	684.627E-3	-7.11868E-3
-3.77439E-3	-156.161E-12	633.372E-3	-43.5445E-3	-157.599E-12	681.627E-3	-10.0626E-3
-3.77939E-3	-155.172E-12	651.007E-3	-37.4926E-3	-157.346E-12	676.172E-3	-15.8580E-3
-3.78439E-3	-156.348E-12	672.528E-3	-9.80217E-3	-157.203E-12	669.882E-3	-19.9876E-3
-3.78939E-3	-156.940E-12	663.231E-3	-1.51725E-3	-157.746E-12	659.980E-3	-6.53135E-3
-3.79440E-3	-157.597E-12	657.610E-3	-9.71988E-3	-157.997E-12	648.202E-3	-3.98383E-3
-3.79940E-3	-158.440E-12	671.471E-3	-12.4188E-3	-158.045E-12	656.043E-3	-19.6513E-3
-3.80440E-3	-160.626E-12	674.535E-3	-14.8072E-3	-158.174E-12	671.118E-3	-25.5005E-3
-3.80940E-3	-161.635E-12	666.147E-3	-3.79411E-3	-158.577E-12	666.633E-3	-25.0777E-3
-3.81441E-3	-162.784E-12	637.860E-3	12.4055E-3	-159.413E-12	651.901E-3	-33.6526E-3
-3.81941E-3	-164.250E-12	624.743E-3	11.8385E-3	-159.788E-12	645.281E-3	-47.9872E-3
-3.82441E-3	-164.851E-12	660.248E-3	14.1010E-3	-160.566E-12	646.705E-3	-58.6884E-3
-3.82941E-3	-165.868E-12	682.907E-3	12.2450E-3	-160.677E-12	649.151E-3	-41.1351E-3
-3.83442E-3	-165.252E-12	666.053E-3	-5.99296E-3	-160.648E-12	646.020E-3	-18.5935E-3
-3.83942E-3	-164.931E-12	660.708E-3	3.94173E-3	-161.748E-12	639.146E-3	-10.7065E-3
-3.84442E-3	-164.215E-12	656.305E-3	25.8956E-3	-162.256E-12	642.147E-3	3.74710E-3
-3.84942E-3	-163.280E-12	626.302E-3	4.97481E-3	-162.212E-12	645.762E-3	10.2806E-3
-3.85443E-3	-162.079E-12	635.417E-3	-35.3887E-3	-161.561E-12	664.856E-3	-5.82069E-3
-3.85943E-3	-161.023E-12	682.870E-3	-47.5507E-3	-161.443E-12	689.442E-3	-20.3112E-3
-3.86443E-3	-160.024E-12	709.272E-3	-30.8014E-3	-161.427E-12	682.307E-3	-9.08071E-3
-3.86943E-3	-159.199E-12	710.062E-3	-32.3089E-3	-161.169E-12	665.058E-3	-2.14025E-3
-3.87444E-3	-158.797E-12	701.183E-3	-32.6410E-3	-160.458E-12	643.599E-3	-7.14866E-3
-3.87944E-3	-158.696E-12	692.700E-3	-16.2586E-3	-160.372E-12	633.050E-3	-10.9574E-3
-3.88444E-3	-159.035E-12	697.082E-3	-26.5075E-3	-160.466E-12	658.519E-3	-11.3470E-3
-3.88944E-3	-159.504E-12	699.477E-3	-39.7501E-3	-160.276E-12	669.373E-3	-7.15199E-3
-3.89445E-3	-159.581E-12	675.536E-3	-13.6117E-3	-159.925E-12	642.905E-3	5.15340E-3
-3.89945E-3	-160.586E-12	661.576E-3	4.47635E-3	-160.504E-12	637.621E-3	17.5480E-3
-3.90445E-3	-161.594E-12	673.743E-3	-19.7378E-3	-160.366E-12	651.096E-3	8.89294E-3
-3.90945E-3	-163.690E-12	679.375E-3	-37.0759E-3	-160.889E-12	638.109E-3	-11.6898E-3
-3.91446E-3	-164.979E-12	657.853E-3	-26.6739E-3	-161.702E-12	633.526E-3	-28.0266E-3
-3.91946E-3	-165.206E-12	632.330E-3	-4.78546E-3	-161.552E-12	668.650E-3	-26.6038E-3
-3.92446E-3	-166.427E-12	628.173E-3	2.34461E-3	-161.825E-12	699.107E-3	-13.0568E-3
-3.92946E-3	-167.331E-12	657.255E-3	-21.5979E-3	-162.845E-12	691.815E-3	-3.09654E-3
-3.93447E-3	-167.230E-12	687.776E-3	-38.3286E-3	-164.580E-12	668.405E-3	-4.20369E-3
-3.93947E-3	-166.816E-12	667.251E-3	-30.7942E-3	-164.355E-12	655.525E-3	-27.4078E-3
-3.94447E-3	-166.448E-12	650.445E-3	-37.5878E-3	-165.087E-12	649.888E-3	-37.7744E-3
-3.94947E-3	-166.247E-12	671.746E-3	-34.6906E-3	-166.213E-12	642.279E-3	-25.4519E-3
-3.95448E-3	-165.285E-12	687.122E-3	5.18187E-3	-166.691E-12	644.061E-3	-27.3107E-3
-3.95948E-3	-164.951E-12	674.225E-3	21.4548E-3	-167.016E-12	656.980E-3	-16.0252E-3
-3.96448E-3	-164.330E-12	657.115E-3	-4.51386E-3	-167.037E-12	662.254E-3	838.920E-6
-3.96948E-3	-164.287E-12	655.639E-3	-20.4835E-3	-166.597E-12	646.915E-3	-20.4093E-3
-3.97449E-3	-164.537E-12	662.663E-3	-17.2948E-3	-166.661E-12	629.221E-3	-37.0703E-3
-3.97949E-3	-164.483E-12	672.771E-3	-20.5497E-3	-166.712E-12	623.941E-3	-34.8236E-3
-3.98449E-3	-165.299E-12	660.556E-3	-28.7145E-3	-165.979E-12	631.852E-3	-45.7615E-3
-3.98949E-3	-165.444E-12	633.695E-3	-26.9366E-3	-165.273E-12	655.699E-3	-48.7845E-3
-3.99450E-3	-166.725E-12	635.553E-3	-33.3056E-3	-164.972E-12	668.184E-3	-35.0607E-3
-3.99950E-3	-168.055E-12	655.500E-3	-48.4658E-3	-165.217E-12	656.995E-3	-33.8459E-3
-4.00450E-3	-168.893E-12	658.316E-3	-47.6893E-3	-165.126E-12	648.833E-3	-40.0802E-3
-4.00950E-3	-169.106E-12	649.645E-3	-28.0811E-3	-164.580E-12	657.319E-3	-26.1375E-3
-4.01451E-3	-170.796E-12	653.980E-3	-14.5030E-3	-165.078E-12	652.715E-3	-20.2127E-3
-4.01951E-3	-171.738E-12	668.054E-3	-32.2311E-3	-166.538E-12	638.779E-3	-27.2146E-3
-4.02451E-3	-171.506E-12	672.749E-3	-48.9450E-3	-167.087E-12	647.532E-3	-2.48114E-3
-4.02951E-3	-171.102E-12	667.811E-3	-36.1769E-3	-168.011E-12	675.936E-3	27.1208E-3
-4.03452E-3	-171.467E-12	671.966E-3	-15.0067E-3	-169.251E-12	680.332E-3	16.9454E-3
-4.03952E-3	-172.138E-12	678.726E-3	-9.12908E-3	-171.266E-12	649.286E-3	6.35481E-3
-4.04452E-3	-171.425E-12	666.518E-3	-12.2055E-3	-172.312E-12	646.391E-3	13.5388E-3
-4.04952E-3	-171.366E-12	651.035E-3	-18.9262E-3	-172.884E-12	667.765E-3	14.9185E-3
-4.05453E-3	-171.776E-12	639.740E-3	-28.8758E-3	-173.655E-12	669.810E-3	2.25116E-3
-4.05953E-3	-171.439E-12	624.639E-3	-32.0795E-3	-174.310E-12	664.478E-3	-18.1694E-3
-4.06453E-3	-170.495E-12	629.880E-3	-31.1530E-3	-174.599E-12	663.092E-3	-31.4516E-3
-4.06953E-3	-170.218E-12	640.311E-3	-22.7468E-3	-173.469E-12	659.587E-3	-27.8115E-3
-4.07454E-3	-169.521E-12	628.662E-3	-5.50347E-3	-172.957E-12	665.643E-3	-21.1454E-3
-4.07954E-3	-169.288E-12	639.067E-3	410.653E-6	-172.502E-12	668.486E-3	-23.3171E-3
-4.08454E-3	-169.207E-12	666.847E-3	-28.6639E-3	-171.169E-12	654.833E-3	-33.7950E-3
-4.08954E-3	-169.289E-12	668.986E-3	-46.7538E-3	-171.626E-12	651.874E-3	-50.4724E-3
-4.09455E-3	-169.058E-12	653.938E-3	-27.5389E-3	-171.014E-12	646.356E-3	-58.8063E-3
-4.09955E-3	-169.613E-12	645.378E-3	-16.1981E-3	-170.151E-12	652.822E-3	-41.9986E-3
-4.10455E-3	-170.383E-12	635.107E-3	6.79097E-3	-170.314E-12	665.534E-3	-17.2684E-3
-4.10955E-3	-170.061E-12	625.881E-3	29.4184E-3	-170.618E-12	648.992E-3	-21.3789E-3
-4.11456E-3	-171.571E-12	637.474E-3	5.11670E-3	-170.639E-12	643.116E-3	-8.97010E-3
-4.11956E-3	-171.887E-12	650.888E-3	-15.4988E-3	-170.259E-12	653.062E-3	28.3547E-3
-4.12456E-3	-172.055E-12	658.451E-3	-13.0385E-3	-170.875E-12	663.684E-3	37.9079E-3
-4.12956E-3	-173.104E-12	675.885E-3	-20.9576E-3	-172.391E-12	662.304E-3	23.1552E-3
-4.13457E-3	-174.098E-12	705.978E-3	-14.9288E-3	-173.232E-12	649.184E-3	-199.654E-6
-4.13957E-3	-174.647E-12	705.059E-3	-13.6191E-3	-173.234E-12	659.158E-3	-21.0970E-3
-4.14457E-3	-175.037E-12	674.312E-3	-44.7717E-3	-173.670E-12	675.805E-3	-26.7617E-3
-4.14957E-3	-175.765E-12	662.443E-3	-43.2762E-3	-176.031E-12	662.901E-3	-7.95406E-3
-4.15458E-3	-175.594E-12	663.174E-3	-17.2196E-3	-176.879E-12	634.394E-3	7.51004E-3
-4.15958E-3	-176.215E-12	656.778E-3	-21.3037E-3	-177.029E-12	645.842E-3	2.46807E-3
-4.16458E-3	-175.701E-12	658.017E-3	-25.4068E-3	-177.304E-12	674.353E-3	1.46529E-3
-4.16958E-3	-175.343E-12	675.418E-3	-10.5147E-3	-177.614E-12	673.220E-3	-4.83132E-3
-4.17459E-3	-174.063E-12	697.141E-3	-23.2342E-3	-177.138E-12	671.079E-3	-23.5367E-3
-4.17959E-3	-173.523E-12	708.943E-3	-42.5610E-3	-177.627E-12	675.873E-3	-37.8690E-3
-4.18459E-3	-173.632E-12	687.466E-3	-18.3321E-3	-176.326E-12	670.366E-3	-46.1677E-3
-4.18959E-3	-173.717E-12	649.444E-3	-1.97953E-3	-175.935E-12	669.290E-3	-47.8681E-3
-4.19460E-3	-173.950E-12	640.856E-3	-6.20955E-3	-175.894E-12	658.314E-3	-43.0482E-3
-4.19960E-3	-173.927E-12	663.435E-3	-8.72072E-3	-175.821E-12	627.366E-3	-42.1007E-3
-4.20460E-3	-174.030E-12	675.651E-3	-31.0021E-3	-174.826E-12	622.135E-3	-28.4038E-3
-4.20960E-3	-174.968E-12	671.708E-3	-49.3986E-3	-174.387E-12	643.404E-3	-7.38010E-3
-4.21461E-3	-176.769E-12	667.020E-3	-34.4659E-3	-174.761E-12	651.475E-3	-21.3935E-3
-4.21961E-3	-178.187E-12	645.785E-3	-17.8500E-3	-174.963E-12	645.530E-3	-34.3882E-3
-4.22461E-3	-178.965E-12	625.644E-3	-7.94815E-3	-175.342E-12	659.909E-3	-5.91384E-3
-4.22961E-3	-180.984E-12	640.473E-3	2.14759E-3	-175.527E-12	686.332E-3	2.43271E-3
-4.23462E-3	-182.425E-12	667.008E-3	-10.5683E-3	-176.059E-12	665.317E-3	-745.213E-6
-4.23962E-3	-182.335E-12	673.368E-3	-42.0795E-3	-177.103E-12	627.623E-3	34.1806E-3
-4.24462E-3	-182.890E-12	665.888E-3	-35.4956E-3	-178.601E-12	629.902E-3	41.1746E-3
-4.24962E-3	-183.450E-12	663.890E-3	1.09223E-3	-179.333E-12	645.361E-3	15.0567E-3
-4.25463E-3	-183.601E-12	678.488E-3	6.82105E-3	-180.088E-12	650.145E-3	-957.380E-6
-4.25963E-3	-183.555E-12	703.296E-3	-127.363E-6	-181.333E-12	651.158E-3	-12.7201E-3
-4.26463E-3	-182.421E-12	719.839E-3	-8.76560E-3	-182.941E-12	644.576E-3	-18.7558E-3
-4.26963E-3	-181.432E-12	721.793E-3	-27.4056E-3	-183.524E-12	650.183E-3	-31.3194E-3
-4.27464E-3	-180.400E-12	717.809E-3	-33.5227E-3	-183.904E-12	679.227E-3	-51.1400E-3
-4.27964E-3	-179.247E-12	696.717E-3	-25.8241E-3	-184.096E-12	670.544E-3	-50.7724E-3
-4.28464E-3	-178.944E-12	647.703E-3	-25.2488E-3	-183.887E-12	657.863E-3	-10.5401E-3
-4.28964E-3	-178.308E-12	606.500E-3	-33.2567E-3	-183.866E-12	676.722E-3	19.4309E-3
-4.29465E-3	-177.720E-12	615.021E-3	-30.0188E-3	-183.476E-12	677.640E-3	-12.2410E-3
-4.29965E-3	-177.621E-12	663.145E-3	-11.5180E-3	-182.885E-12	664.906E-3	-37.4990E-3
-4.30465E-3	-178.250E-12	701.954E-3	-2.18011E-3	-181.698E-12	645.564E-3	-9.43012E-3
-4.30965E-3	-178.554E-12	691.548E-3	-20.1368E-3	-180.958E-12	619.332E-3	26.7798E-3
-4.31466E-3	-180.419E-12	640.995E-3	-28.7217E-3	-180.245E-12	608.230E-3	19.4891E-3
-4.31966E-3	-181.745E-12	611.733E-3	-8.58119E-3	-180.077E-12	619.586E-3	-23.7836E-3
-4.32466E-3	-182.895E-12	638.519E-3	13.1054E-3	-179.512E-12	642.656E-3	-28.8785E-3
-4.32966E-3	-184.172E-12	673.575E-3	6.99626E-3	-179.518E-12	666.270E-3	11.6400E-3
-4.33467E-3	-186.326E-12	670.875E-3	-18.2735E-3	-179.611E-12	693.741E-3	31.5590E-3
-4.33967E-3	-186.946E-12	652.322E-3	-22.4742E-3	-180.388E-12	704.788E-3	21.7232E-3
-4.34467E-3	-187.872E-12	642.218E-3	-36.2346E-3	-180.932E-12	697.552E-3	-4.93626E-3
-4.34967E-3	-188.299E-12	643.208E-3	-67.8658E-3	-181.467E-12	679.544E-3	-41.2324E-3
-4.35468E-3	-187.837E-12	645.996E-3	-55.1372E-3	-183.091E-12	655.441E-3	-56.0476E-3
-4.35968E-3	-186.878E-12	655.191E-3	-13.5456E-3	-183.910E-12	645.006E-3	-36.3295E-3
-4.36468E-3	-186.128E-12	679.818E-3	11.8662E-3	-185.452E-12	649.413E-3	-8.01090E-3
-4.36968E-3	-184.494E-12	679.822E-3	9.68456E-3	-185.791E-12	660.064E-3	-7.57421E-3
-4.37469E-3	-183.707E-12	662.723E-3	-17.0377E-3	-185.941E-12	640.967E-3	-15.5198E-3
-4.37969E-3	-182.174E-12	660.983E-3	-42.3292E-3	-186.487E-12	614.215E-3	-774.798E-6
-4.38469E-3	-180.977E-12	662.198E-3	-44.5544E-3	-187.302E-12	624.239E-3	-12.7597E-3
-4.38969E-3	-180.092E-12	651.517E-3	-15.1170E-3	-186.572E-12	643.039E-3	-37.1991E-3
-4.39470E-3	-179.949E-12	646.162E-3	15.8444E-3	-185.454E-12	660.227E-3	-20.7292E-3
-4.39970E-3	-179.535E-12	646.672E-3	11.7691E-3	-185.316E-12	675.771E-3	-1.29466E-3
-4.40470E-3	-180.425E-12	627.379E-3	-1.82688E-3	-185.170E-12	667.967E-3	-656.312E-6
-4.40970E-3	-181.076E-12	619.086E-3	-20.0753E-3	-184.008E-12	652.706E-3	-13.7138E-3
-4.41471E-3	-181.473E-12	633.318E-3	-48.4632E-3	-183.618E-12	644.766E-3	-33.8392E-3
-4.41971E-3	-182.962E-12	638.081E-3	-48.4977E-3	-183.536E-12	639.389E-3	-38.6545E-3
-4.42471E-3	-185.207E-12	647.496E-3	-21.8189E-3	-183.590E-12	626.446E-3	-22.8106E-3
-4.42971E-3	-186.392E-12	664.019E-3	-13.3518E-3	-183.242E-12	607.449E-3	-10.3868E-3
-4.43472E-3	-187.908E-12	671.671E-3	-30.0472E-3	-183.531E-12	612.585E-3	-23.7338E-3
-4.43972E-3	-188.438E-12	682.285E-3	-40.5245E-3	-183.069E-12	636.388E-3	-38.4009E-3
-4.44472E-3	-189.264E-12	681.412E-3	-20.6486E-3	-185.163E-12	644.107E-3	-36.4141E-3
-4.44972E-3	-190.018E-12	669.402E-3	-19.4176E-3	-185.662E-12	634.481E-3	-33.3057E-3
-4.45473E-3	-190.537E-12	673.895E-3	-34.3701E-3	-186.594E-12	638.558E-3	-24.6803E-3
-4.45973E-3	-190.096E-12	680.060E-3	-24.5635E-3	-187.497E-12	647.166E-3	-29.3443E-3
-4.46473E-3	-189.958E-12	666.554E-3	-15.7816E-3	-189.296E-12	651.142E-3	-33.8309E-3
-4.46973E-3	-189.311E-12	659.838E-3	-13.4636E-3	-189.417E-12	661.158E-3	-21.2504E-3
-4.47474E-3	-189.254E-12	672.210E-3	-12.0076E-3	-189.915E-12	664.345E-3	-20.0555E-3
-4.47974E-3	-188.565E-12	674.432E-3	-13.1505E-3	-190.925E-12	656.911E-3	-11.6485E-3
-4.48474E-3	-187.624E-12	668.897E-3	-28.2001E-3	-191.606E-12	648.945E-3	-6.67836E-3
-4.48974E-3	-187.616E-12	665.493E-3	-45.6057E-3	-192.400E-12	653.047E-3	-35.0080E-3
-4.49475E-3	-186.637E-12	651.842E-3	-43.1821E-3	-192.353E-12	665.523E-3	-60.6926E-3
-4.49975E-3	-186.296E-12	635.134E-3	-29.3016E-3	-190.943E-12	667.406E-3	-43.8876E-3
-4.50475E-3	-185.836E-12	642.689E-3	-20.3499E-3	-190.696E-12	649.970E-3	-11.9484E-3
-4.50975E-3	-186.910E-12	649.077E-3	-24.5264E-3	-191.695E-12	641.378E-3	-18.8484E-3
-4.51476E-3	-186.939E-12	642.792E-3	-39.6160E-3	-190.714E-12	644.501E-3	-31.2174E-3
-4.51976E-3	-186.862E-12	670.679E-3	-47.6982E-3	-189.588E-12	636.246E-3	590.358E-6
-4.52476E-3	-187.247E-12	681.941E-3	-44.8880E-3	-189.457E-12	646.113E-3	24.6031E-3
-4.52976E-3	-189.060E-12	639.141E-3	-42.4765E-3	-189.605E-12	662.945E-3	3.75746E-3
-4.53477E-3	-189.827E-12	622.742E-3	-28.2126E-3	-189.588E-12	661.605E-3	-22.8781E-3
-4.53977E-3	-191.945E-12	637.305E-3	92.9126E-6	-190.176E-12	659.167E-3	-27.0176E-3
-4.54477E-3	-192.914E-12	639.889E-3	-12.0709E-3	-190.096E-12	647.685E-3	-18.5424E-3
-4.54977E-3	-193.800E-12	656.069E-3	-45.0819E-3	-190.648E-12	635.859E-3	-4.22855E-3
-4.55478E-3	-195.196E-12	679.972E-3	-24.3886E-3	-191.004E-12	637.677E-3	-2.06566E-3
-4.55978E-3	-196.879E-12	678.788E-3	-8.89965E-3	-192.269E-12	637.465E-3	-19.0967E-3
-4.56478E-3	-196.760E-12	669.877E-3	-22.2500E-3	-192.780E-12	643.349E-3	-31.1635E-3
-4.56978E-3	-197.529E-12	657.680E-3	-5.64297E-3	-192.518E-12	663.419E-3	-35.0491E-3
-4.57479E-3	-197.372E-12	642.370E-3	13.1937E-3	-192.666E-12	669.991E-3	-19.4042E-3
-4.57979E-3	-197.289E-12	652.542E-3	4.91492E-3	-194.608E-12	651.825E-3	9.95830E-3
-4.58479E-3	-196.859E-12	669.556E-3	2.65062E-3	-194.365E-12	637.083E-3	7.98477E-3
-4.58979E-3	-196.127E-12	670.019E-3	8.72951E-3	-193.997E-12	625.425E-3	-1.96658E-3
-4.59480E-3	-195.275E-12	673.650E-3	5.50683E-3	-194.942E-12	614.907E-3	21.7788E-3
-4.59980E-3	-194.975E-12	671.906E-3	15.8929E-3	-194.994E-12	631.269E-3	26.8753E-3
-4.60480E-3	-193.861E-12	669.879E-3	21.1919E-3	-194.659E-12	662.789E-3	-18.3936E-3
-4.60980E-3	-193.338E-12	683.512E-3	-3.49079E-3	-194.798E-12	688.432E-3	-66.2191E-3
-4.61481E-3	-192.346E-12	695.455E-3	-21.3052E-3	-193.793E-12	696.941E-3	-73.3474E-3
-4.61981E-3	-192.423E-12	689.163E-3	-22.7422E-3	-193.259E-12	676.403E-3	-45.1434E-3
-4.62481E-3	-192.439E-12	674.042E-3	-21.2765E-3	-193.313E-12	645.703E-3	-14.2200E-3
-4.62981E-3	-193.171E-12	665.557E-3	-1.65660E-3	-193.284E-12	650.715E-3	83.2254E-6
-4.63482E-3	-193.741E-12	667.878E-3	-7.32199E-3	-192.062E-12	681.236E-3	-14.4865E-3
-4.63982E-3	-195.994E-12	662.915E-3	-49.4280E-3	-191.920E-12	683.998E-3	-27.1536E-3
-4.64482E-3	-196.670E-12	651.019E-3	-40.8902E-3	-191.683E-12	688.587E-3	-23.1915E-3
-4.64982E-3	-197.784E-12	649.017E-3	-13.5653E-3	-191.810E-12	704.805E-3	-16.9082E-3
-4.65483E-3	-200.561E-12	662.954E-3	-28.9003E-3	-192.687E-12	686.581E-3	-2.21150E-3
-4.65983E-3	-201.359E-12	694.893E-3	-32.9403E-3	-193.371E-12	655.587E-3	-9.41885E-3
-4.66483E-3	-201.355E-12	695.766E-3	-30.8348E-3	-193.026E-12	644.709E-3	-21.9014E-3
-4.66983E-3	-202.989E-12	676.025E-3	-50.1459E-3	-193.841E-12	645.287E-3	-16.2415E-3
-4.67484E-3	-203.838E-12	687.207E-3	-53.5553E-3	-196.068E-12	651.424E-3	-27.9255E-3
-4.67984E-3	-203.680E-12	678.091E-3	-34.4589E-3	-197.199E-12	658.487E-3	-56.0398E-3
-4.68484E-3	-202.471E-12	656.166E-3	-33.5807E-3	-198.233E-12	658.325E-3	-56.5261E-3
-4.68984E-3	-202.316E-12	678.763E-3	-53.8404E-3	-198.958E-12	675.151E-3	-32.0518E-3
-4.69485E-3	-199.978E-12	694.498E-3	-56.2838E-3	-199.877E-12	707.762E-3	-15.0406E-3
-4.69985E-3	-198.206E-12	662.570E-3	-46.3911E-3	-201.071E-12	698.055E-3	8.32734E-3
-4.70485E-3	-196.098E-12	628.842E-3	-32.8921E-3	-201.057E-12	660.815E-3	25.4347E-3
-4.70985E-3	-194.993E-12	621.539E-3	6.81926E-3	-200.615E-12	646.176E-3	788.505E-6
-4.71486E-3	-193.255E-12	633.949E-3	16.1995E-3	-200.478E-12	638.445E-3	-34.3142E-3
-4.71986E-3	-193.219E-12	660.966E-3	-18.7326E-3	-200.937E-12	633.855E-3	-44.3989E-3
-4.72486E-3	-192.560E-12	663.190E-3	-23.4340E-3	-200.073E-12	646.638E-3	-41.1585E-3
-4.72986E-3	-192.648E-12	647.289E-3	-378.079E-6	-198.471E-12	663.837E-3	-48.4860E-3
-4.73487E-3	-193.977E-12	653.664E-3	11.6640E-3	-198.081E-12	671.678E-3	-46.9095E-3
-4.73987E-3	-195.315E-12	657.413E-3	4.12341E-3	-197.941E-12	663.507E-3	-17.8537E-3
-4.74487E-3	-196.081E-12	647.080E-3	-16.9453E-3	-198.178E-12	640.855E-3	-19.0603E-3
-4.74988E-3	-197.390E-12	634.864E-3	-31.3158E-3	-197.391E-12	644.051E-3	-30.1375E-3
-4.75488E-3	-199.331E-12	638.227E-3	-31.9491E-3	-197.610E-12	682.274E-3	-18.8021E-3
-4.75988E-3	-201.120E-12	659.473E-3	-28.4304E-3	-198.054E-12	701.331E-3	-21.0351E-3
-4.76488E-3	-202.958E-12	670.523E-3	-27.4191E-3	-199.363E-12	700.800E-3	-8.94117E-3
-4.76988E-3	-203.661E-12	668.382E-3	-17.0929E-3	-200.721E-12	700.623E-3	-6.54725E-3
-4.77489E-3	-204.488E-12	671.034E-3	-3.49221E-3	-201.616E-12	693.380E-3	-13.3528E-3
-4.77989E-3	-205.572E-12	685.137E-3	-16.5034E-3	-202.052E-12	678.130E-3	709.360E-6
-4.78489E-3	-205.918E-12	683.070E-3	-48.3588E-3	-204.532E-12	667.064E-3	-5.57968E-3
-4.78989E-3	-204.941E-12	668.063E-3	-63.3938E-3	-205.542E-12	673.505E-3	-24.3120E-3
-4.79490E-3	-204.637E-12	677.451E-3	-48.4562E-3	-205.738E-12	680.082E-3	-37.7885E-3
-4.79990E-3	-203.948E-12	688.800E-3	-28.8600E-3	-206.202E-12	677.234E-3	-37.7073E-3
-4.80490E-3	-203.062E-12	661.452E-3	-6.61850E-3	-206.715E-12	676.069E-3	-15.5289E-3
-4.80990E-3	-201.704E-12	631.881E-3	3.58234E-3	-207.175E-12	679.277E-3	-3.51791E-3
-4.81491E-3	-201.460E-12	634.902E-3	2.99251E-3	-207.748E-12	666.215E-3	-8.26295E-3
-4.81991E-3	-201.634E-12	629.889E-3	-4.21123E-3	-207.328E-12	639.589E-3	-6.24979E-3
-4.82491E-3	-201.409E-12	631.074E-3	-24.7526E-3	-205.521E-12	629.100E-3	-12.7405E-3
-4.82991E-3	-201.647E-12	666.863E-3	-11.8230E-3	-204.823E-12	621.809E-3	-37.9116E-3
-4.83492E-3	-201.551E-12	676.501E-3	-1.32540E-3	-204.000E-12	627.763E-3	-49.9687E-3
-4.83992E-3	-202.637E-12	670.339E-3	-39.3242E-3	-203.231E-12	655.153E-3	-27.0211E-3
-4.84492E-3	-203.658E-12	682.458E-3	-43.6673E-3	-202.480E-12	668.582E-3	-5.00820E-3
-4.84992E-3	-204.568E-12	678.401E-3	259.949E-6	-202.709E-12	677.551E-3	-5.79437E-3
-4.85493E-3	-205.931E-12	665.396E-3	3.32611E-3	-202.427E-12	678.008E-3	2.74484E-3
-4.85993E-3	-208.067E-12	671.499E-3	-20.4867E-3	-203.209E-12	661.683E-3	1.39967E-3
-4.86493E-3	-209.407E-12	662.618E-3	-12.2742E-3	-204.014E-12	639.714E-3	-34.3452E-3
-4.86993E-3	-211.367E-12	640.816E-3	-2.69331E-3	-204.922E-12	618.395E-3	-38.6270E-3
-4.87494E-3	-211.580E-12	656.603E-3	-8.59427E-3	-205.429E-12	628.270E-3	-194.798E-6
-4.87994E-3	-211.812E-12	669.073E-3	-8.53106E-3	-206.512E-12	669.820E-3	-4.70042E-3
-4.88494E-3	-212.516E-12	671.293E-3	-11.2837E-3	-208.103E-12	698.419E-3	-52.8320E-3
-4.88995E-3	-212.819E-12	691.241E-3	-5.43577E-3	-209.718E-12	698.895E-3	-64.5697E-3
-4.89495E-3	-211.417E-12	709.472E-3	-4.94262E-3	-209.908E-12	684.800E-3	-43.0165E-3
-4.89995E-3	-211.402E-12	727.122E-3	-51.2981E-3	-210.888E-12	666.005E-3	-23.6960E-3
-4.90495E-3	-211.450E-12	726.083E-3	-88.0406E-3	-211.044E-12	660.276E-3	2.06154E-3
-4.90995E-3	-209.199E-12	679.359E-3	-63.7359E-3	-211.625E-12	662.700E-3	-2.06518E-3
-4.91496E-3	-208.233E-12	630.764E-3	-27.2420E-3	-211.187E-12	674.102E-3	-25.0040E-3
-4.91996E-3	-208.963E-12	641.069E-3	-18.6965E-3	-210.951E-12	701.997E-3	-22.1279E-3
-4.92496E-3	-208.329E-12	667.467E-3	-11.6179E-3	-209.527E-12	706.801E-3	-28.5349E-3
-4.92996E-3	-206.161E-12	649.881E-3	-6.78470E-3	-209.039E-12	682.946E-3	-33.2405E-3
-4.93497E-3	-206.253E-12	612.604E-3	-21.5898E-3	-207.819E-12	665.894E-3	-10.7521E-3
-4.93997E-3	-206.308E-12	598.017E-3	-17.2410E-3	-206.712E-12	652.905E-3	-8.12557E-3
-4.94497E-3	-206.073E-12	614.339E-3	3.72172E-3	-206.296E-12	634.371E-3	-11.5078E-3
-4.94997E-3	-205.679E-12	632.818E-3	16.0625E-3	-206.833E-12	633.354E-3	6.08760E-3
-4.95498E-3	-206.077E-12	641.509E-3	16.2768E-3	-206.511E-12	648.059E-3	-2.56417E-3
-4.95998E-3	-207.251E-12	631.655E-3	-13.4277E-3	-206.347E-12	670.075E-3	-29.1653E-3
-4.96498E-3	-207.776E-12	630.143E-3	-38.4958E-3	-207.693E-12	687.148E-3	-22.9830E-3
-4.96998E-3	-209.196E-12	659.897E-3	-20.2105E-3	-207.555E-12	674.368E-3	-26.0323E-3
-4.97499E-3	-208.940E-12	668.377E-3	-3.71300E-3	-208.399E-12	659.929E-3	-49.3369E-3
-4.97999E-3	-210.286E-12	659.283E-3	-6.37573E-3	-209.076E-12	657.636E-3	-25.4570E-3
-4.98499E-3	-211.854E-12	658.750E-3	-2.13233E-3	-210.497E-12	672.764E-3	11.6135E-3
-4.98999E-3	-211.822E-12	641.095E-3	-6.08697E-3	-211.636E-12	688.578E-3	21.5797E-3
-4.99500E-3	-212.290E-12	626.898E-3	-7.62271E-3	-211.989E-12	675.510E-3	39.7306E-3
-5.00000E-3	-212.375E-12	649.906E-3	21.7202E-3	-212.401E-12	666.456E-3	48.8252E-3
