Experiment	bias spectroscopy	
Date	19.01.2016 21:16:12	
User		
X (m)	49.2379E-9	
Y (m)	256.775E-9	
Z (m)	-132.591E-9	
Z offset (m)	0E+0	
Settling time (s)	200E-6	
Integration time (s)	5E-3	
Z-Ctrl hold	TRUE	
Final Z (m)	N/A	
Filter type	None	
Order		
Cutoff frq		
Comment01	MnPc/Pb(111)	
Comment02	dz =00pm	
Comment03	7 Sweeps	
Comment04	MagField =0.T	
Comment05	Divider 1:10	
Comment06	Setpoint:5mV,200 pA	
Comment07	Lockin: 50uVrms,5ms,5mV	
Comment08	Gain:9; 912Hz modulation	
Comment09	T=1.06K	
Bias>Bias (V)	5E-3	
Bias>Calibration (V/V)	81.475E-3	
Bias>Offset (V)	1.046E-3	
Bias Spectroscopy>Sweep Start (V)	5E-3	
Bias Spectroscopy>Sweep End (V)	-5E-3	
Bias Spectroscopy>Num Pixel	2000	
Bias Spectroscopy>Z Avg time (s)	500E-3	
Bias Spectroscopy>Z offset (m)	0E+0	
Bias Spectroscopy>1st Settling time (s)	500E-3	
Bias Spectroscopy>Settling time (s)	200E-6	
Bias Spectroscopy>Integration time (s)	5E-3	
Bias Spectroscopy>End Settling time (s)	500E-3	
Bias Spectroscopy>Z control time (s)	500E-3	
Bias Spectroscopy>Max Slew rate (V/s)	Inf	
Bias Spectroscopy>backward sweep	TRUE	
Bias Spectroscopy>Z-controller hold	TRUE	
Bias Spectroscopy>Number of sweeps	7	
Bias Spectroscopy>Channels	Current (A);X% LockIn (V);Y% LockIn (V)	
Bias Spectroscopy>Reset Bias	TRUE	
Bias Spectroscopy>Record final Z	FALSE	
Bias Spectroscopy>Lock-In run	FALSE	
Bias Spectroscopy>Sweep mode	Linear	
Bias Spectroscopy>MultiLine Settings : Segment Start (V), Segment End (V), Settling (s), Integration (s), Steps (xn)	100E-3,3.3E-3,100E-6,10E-3,2500;3.3E-3,-3.3E-3,100E-6,10E-3,10;-3.3E-3,-100E-3,100E-6,10E-3,2500	
Current>Current (A)	200.087E-12	
Current>Calibration (A/V)	999.99900E-12	
Current>Offset (A)	-455.429E-15	
Current>Gain	LN 10^9	
Z-Controller>Z (m)	-132.591E-9	
Z-Controller>Controller name	log Current	
Z-Controller>Controller status	ON	
Z-Controller>Setpoint	200E-12	
Z-Controller>Setpoint unit	A	
Z-Controller>P gain	2.96994E-12	
Z-Controller>I gain	67.0321E-9	
Z-Controller>Time const (s)	44.3062E-6	
Z-Controller>TipLift (m)	0E+0	
Z-Controller>Switch off delay (s)	50E-3	
Current (A)	200.253E-12	
Z (m)	-132.591E-9	

[DATA]
Bias calc (V)	Current (A)	X% LockIn (V)	Y% LockIn (V)	Current [bwd] (A)	X% LockIn [bwd] (V)	Y% LockIn [bwd] (V)
5.00000E-3	199.646E-12	711.374E-3	9.58697E-3	198.540E-12	632.029E-3	24.1699E-3
4.99500E-3	199.796E-12	699.937E-3	-336.199E-6	198.657E-12	649.764E-3	25.8148E-3
4.98999E-3	200.665E-12	655.852E-3	-23.9242E-3	198.616E-12	645.205E-3	-3.12337E-3
4.98499E-3	200.592E-12	624.367E-3	-45.1172E-3	199.269E-12	622.426E-3	-22.7306E-3
4.97999E-3	199.930E-12	619.246E-3	-45.8748E-3	199.698E-12	624.569E-3	-4.50276E-3
4.97499E-3	200.191E-12	623.657E-3	-35.6916E-3	200.342E-12	651.909E-3	9.47303E-3
4.96998E-3	200.350E-12	651.572E-3	-32.4709E-3	200.552E-12	669.882E-3	-7.91632E-3
4.96498E-3	199.751E-12	658.768E-3	-28.5696E-3	200.742E-12	666.660E-3	-16.2596E-3
4.95998E-3	199.608E-12	627.220E-3	-22.2740E-3	201.512E-12	648.007E-3	-3.51138E-3
4.95498E-3	198.399E-12	627.119E-3	-24.2974E-3	202.226E-12	637.149E-3	18.7633E-3
4.94997E-3	197.818E-12	649.428E-3	1.42255E-3	201.154E-12	645.444E-3	9.69709E-3
4.94497E-3	197.232E-12	657.001E-3	10.3924E-3	201.059E-12	655.916E-3	-27.8461E-3
4.93997E-3	196.410E-12	674.494E-3	-22.5382E-3	200.517E-12	656.866E-3	-40.0173E-3
4.93497E-3	195.667E-12	687.338E-3	-35.5643E-3	198.967E-12	647.863E-3	-39.5549E-3
4.92996E-3	195.354E-12	675.830E-3	-9.94197E-3	197.389E-12	628.686E-3	-50.5316E-3
4.92496E-3	195.199E-12	678.804E-3	16.8556E-3	197.193E-12	608.191E-3	-45.3938E-3
4.91996E-3	194.773E-12	699.380E-3	8.57474E-3	195.528E-12	606.053E-3	-34.6294E-3
4.91496E-3	194.844E-12	710.642E-3	-6.05805E-3	195.040E-12	624.260E-3	-44.3990E-3
4.90995E-3	194.698E-12	683.388E-3	9.18803E-3	193.922E-12	651.179E-3	-61.1514E-3
4.90495E-3	195.188E-12	667.070E-3	18.2197E-3	193.633E-12	678.459E-3	-51.3511E-3
4.89995E-3	195.174E-12	664.099E-3	2.41467E-3	192.801E-12	698.227E-3	-15.1706E-3
4.89495E-3	195.821E-12	642.217E-3	-10.0358E-3	193.605E-12	703.358E-3	18.8262E-3
4.88995E-3	195.807E-12	661.168E-3	-23.2829E-3	194.146E-12	702.730E-3	28.6277E-3
4.88494E-3	195.609E-12	671.571E-3	-41.3978E-3	194.439E-12	707.686E-3	-3.18083E-3
4.87994E-3	195.275E-12	623.376E-3	-48.5658E-3	195.166E-12	703.351E-3	-27.2100E-3
4.87494E-3	195.639E-12	606.621E-3	-51.2876E-3	196.320E-12	683.769E-3	-26.1858E-3
4.86993E-3	195.555E-12	643.898E-3	-65.0763E-3	197.208E-12	668.089E-3	-29.3029E-3
4.86493E-3	194.691E-12	657.396E-3	-58.6191E-3	197.427E-12	657.375E-3	-30.1856E-3
4.85993E-3	194.182E-12	659.615E-3	-49.8537E-3	197.827E-12	663.834E-3	-27.5670E-3
4.85493E-3	194.127E-12	681.610E-3	-27.8207E-3	197.843E-12	664.345E-3	-27.6991E-3
4.84992E-3	193.640E-12	664.814E-3	30.2276E-3	197.705E-12	644.953E-3	-26.9874E-3
4.84492E-3	192.830E-12	651.124E-3	47.8633E-3	197.332E-12	659.718E-3	-22.5912E-3
4.83992E-3	193.095E-12	673.073E-3	30.5256E-3	195.898E-12	689.575E-3	-33.2709E-3
4.83492E-3	192.439E-12	669.248E-3	14.6753E-3	194.602E-12	692.997E-3	-42.2033E-3
4.82991E-3	192.421E-12	656.006E-3	49.4040E-6	193.907E-12	683.911E-3	-28.6272E-3
4.82491E-3	192.326E-12	653.807E-3	-6.37418E-3	193.371E-12	671.389E-3	-28.0788E-3
4.81991E-3	191.875E-12	653.712E-3	-14.3622E-3	192.078E-12	661.979E-3	-42.4765E-3
4.81491E-3	191.635E-12	657.704E-3	-25.7805E-3	191.928E-12	678.346E-3	-42.6104E-3
4.80990E-3	191.486E-12	654.326E-3	-33.1730E-3	191.047E-12	686.491E-3	-34.4100E-3
4.80490E-3	191.092E-12	654.038E-3	-36.7879E-3	190.572E-12	655.320E-3	-16.1179E-3
4.79990E-3	190.415E-12	673.046E-3	-19.8700E-3	190.648E-12	623.975E-3	5.93242E-3
4.79490E-3	190.185E-12	678.327E-3	5.95605E-3	191.097E-12	620.249E-3	-15.3826E-3
4.78989E-3	190.311E-12	653.673E-3	-1.83661E-3	190.458E-12	636.077E-3	-64.7328E-3
4.78489E-3	190.256E-12	659.389E-3	-41.5986E-3	190.709E-12	647.510E-3	-88.3848E-3
4.77989E-3	190.038E-12	690.645E-3	-75.0763E-3	192.295E-12	659.934E-3	-86.7576E-3
4.77489E-3	189.499E-12	690.394E-3	-68.7389E-3	192.367E-12	687.344E-3	-65.2840E-3
4.76988E-3	189.085E-12	680.998E-3	-36.5793E-3	192.763E-12	715.596E-3	-31.9879E-3
4.76488E-3	188.796E-12	697.293E-3	-4.81932E-3	193.553E-12	716.306E-3	-8.98581E-3
4.75988E-3	189.273E-12	684.275E-3	3.21993E-3	193.410E-12	682.156E-3	-10.5399E-3
4.75488E-3	189.393E-12	649.095E-3	-10.5461E-3	192.528E-12	671.348E-3	-15.6701E-3
4.74988E-3	189.851E-12	647.414E-3	-1.15452E-3	192.476E-12	692.514E-3	-3.55688E-3
4.74487E-3	189.979E-12	639.464E-3	16.4734E-3	191.641E-12	687.416E-3	10.0318E-3
4.73987E-3	190.841E-12	639.086E-3	8.24459E-3	191.068E-12	667.022E-3	13.5401E-3
4.73487E-3	190.453E-12	656.314E-3	-3.86023E-3	190.848E-12	672.297E-3	-5.78303E-3
4.72986E-3	190.171E-12	677.124E-3	4.90622E-3	190.005E-12	674.538E-3	-24.5682E-3
4.72486E-3	190.746E-12	708.272E-3	18.6296E-3	189.645E-12	661.108E-3	-15.1691E-3
4.71986E-3	190.280E-12	729.204E-3	8.35596E-3	189.806E-12	660.576E-3	-23.8843E-3
4.71486E-3	189.403E-12	719.910E-3	-19.0918E-3	189.470E-12	650.037E-3	-67.1578E-3
4.70985E-3	188.836E-12	691.608E-3	-27.1341E-3	189.290E-12	638.247E-3	-88.8499E-3
4.70485E-3	188.308E-12	655.910E-3	-3.93951E-3	189.163E-12	658.553E-3	-64.9129E-3
4.69985E-3	186.289E-12	655.178E-3	-3.70237E-3	188.932E-12	690.844E-3	-32.0287E-3
4.69485E-3	185.646E-12	690.076E-3	-36.7383E-3	188.237E-12	690.071E-3	-16.8965E-3
4.68984E-3	185.517E-12	690.159E-3	-45.7659E-3	188.652E-12	655.210E-3	-26.3801E-3
4.68484E-3	184.945E-12	687.781E-3	-30.8547E-3	187.713E-12	628.836E-3	-33.5453E-3
4.67984E-3	184.482E-12	685.839E-3	-36.0736E-3	186.788E-12	633.137E-3	-17.3916E-3
4.67484E-3	185.102E-12	656.626E-3	-53.9904E-3	187.090E-12	646.091E-3	10.1231E-3
4.66983E-3	185.046E-12	639.614E-3	-32.3383E-3	186.503E-12	650.044E-3	24.2675E-3
4.66483E-3	184.803E-12	649.745E-3	5.34463E-3	185.530E-12	654.001E-3	7.26004E-3
4.65983E-3	186.131E-12	674.230E-3	-4.29309E-3	185.416E-12	662.383E-3	-11.6801E-3
4.65483E-3	186.215E-12	690.866E-3	-30.0201E-3	184.787E-12	677.734E-3	-19.3341E-3
4.64982E-3	186.481E-12	697.572E-3	-20.2657E-3	183.584E-12	690.652E-3	-28.2950E-3
4.64482E-3	187.762E-12	694.264E-3	4.00494E-3	183.633E-12	687.251E-3	-28.8746E-3
4.63982E-3	187.613E-12	686.801E-3	5.80355E-3	184.787E-12	693.063E-3	-13.1722E-3
4.63482E-3	186.755E-12	674.202E-3	-3.18689E-3	184.418E-12	698.037E-3	-1.18944E-3
4.62981E-3	186.551E-12	653.374E-3	263.097E-6	184.988E-12	679.850E-3	-20.0697E-3
4.62481E-3	185.711E-12	659.912E-3	15.4410E-3	185.524E-12	673.192E-3	-34.0442E-3
4.61981E-3	184.477E-12	683.288E-3	19.1692E-3	185.977E-12	672.859E-3	-26.4192E-3
4.61481E-3	183.429E-12	688.100E-3	20.4859E-3	185.472E-12	661.411E-3	-25.2789E-3
4.60980E-3	182.329E-12	687.535E-3	29.0142E-3	185.301E-12	658.574E-3	-29.0970E-3
4.60480E-3	181.742E-12	673.831E-3	10.7505E-3	185.181E-12	677.234E-3	-35.2291E-3
4.59980E-3	180.413E-12	658.182E-3	-10.3335E-3	184.382E-12	682.235E-3	-32.1315E-3
4.59480E-3	180.062E-12	663.664E-3	14.2691E-3	183.920E-12	680.478E-3	-20.1081E-3
4.58979E-3	179.723E-12	673.967E-3	43.1273E-3	183.279E-12	688.300E-3	-19.7787E-3
4.58479E-3	179.381E-12	681.978E-3	17.1100E-3	182.006E-12	665.333E-3	-33.2476E-3
4.57979E-3	179.099E-12	682.722E-3	-9.33322E-3	180.932E-12	632.342E-3	-41.2127E-3
4.57479E-3	179.108E-12	668.561E-3	1.58008E-3	179.861E-12	627.700E-3	-33.7098E-3
4.56978E-3	179.372E-12	644.674E-3	6.44386E-3	178.873E-12	633.780E-3	-11.9441E-3
4.56478E-3	179.525E-12	649.384E-3	10.6386E-3	178.453E-12	639.343E-3	-4.09957E-3
4.55978E-3	179.724E-12	672.936E-3	17.4558E-3	178.327E-12	631.739E-3	-23.9882E-3
4.55478E-3	180.398E-12	670.536E-3	3.18868E-3	178.506E-12	625.520E-3	-37.1613E-3
4.54977E-3	180.878E-12	663.850E-3	-21.6570E-3	179.219E-12	661.284E-3	-28.6801E-3
4.54477E-3	181.403E-12	668.899E-3	-34.3091E-3	179.713E-12	696.650E-3	-15.9105E-3
4.53977E-3	181.309E-12	667.751E-3	-29.7588E-3	179.926E-12	690.450E-3	959.256E-6
4.53477E-3	181.344E-12	664.782E-3	-8.63542E-3	180.951E-12	671.180E-3	16.6467E-3
4.52976E-3	180.455E-12	664.739E-3	-4.42705E-3	182.208E-12	664.660E-3	-8.82709E-3
4.52476E-3	179.835E-12	661.553E-3	-18.8973E-3	183.107E-12	655.676E-3	-47.6944E-3
4.51976E-3	178.615E-12	655.003E-3	-6.92140E-3	182.898E-12	653.957E-3	-31.4579E-3
4.51476E-3	178.130E-12	657.877E-3	6.86433E-3	182.949E-12	672.476E-3	12.5192E-3
4.50975E-3	177.226E-12	665.329E-3	-6.73618E-3	182.778E-12	653.453E-3	29.8997E-3
4.50475E-3	176.243E-12	663.431E-3	-33.7203E-3	181.727E-12	617.740E-3	12.6925E-3
4.49975E-3	176.212E-12	664.591E-3	-48.9880E-3	180.496E-12	615.661E-3	-11.1919E-3
4.49475E-3	176.655E-12	678.093E-3	-22.7988E-3	179.669E-12	620.870E-3	-18.0171E-3
4.48974E-3	175.958E-12	704.225E-3	-8.15233E-3	178.630E-12	638.252E-3	-10.6821E-3
4.48474E-3	175.731E-12	704.785E-3	-34.9916E-3	177.114E-12	648.115E-3	-9.93726E-3
4.47974E-3	176.797E-12	665.351E-3	-50.7377E-3	176.381E-12	636.910E-3	-32.6149E-3
4.47474E-3	176.483E-12	632.640E-3	-44.0933E-3	175.878E-12	640.343E-3	-56.7323E-3
4.46973E-3	176.518E-12	619.386E-3	-30.8454E-3	175.166E-12	653.943E-3	-54.8585E-3
4.46473E-3	176.584E-12	622.058E-3	-33.4660E-3	175.077E-12	651.627E-3	-35.2972E-3
4.45973E-3	176.890E-12	646.603E-3	-50.3075E-3	175.581E-12	638.256E-3	-13.3117E-3
4.45473E-3	177.309E-12	676.965E-3	-57.4945E-3	176.085E-12	633.528E-3	7.51593E-3
4.44972E-3	177.604E-12	677.227E-3	-52.9956E-3	176.753E-12	653.053E-3	-3.97474E-3
4.44472E-3	177.069E-12	673.699E-3	-58.8966E-3	177.974E-12	685.121E-3	-31.0189E-3
4.43972E-3	176.706E-12	691.667E-3	-61.0559E-3	178.705E-12	700.653E-3	-22.6789E-3
4.43472E-3	176.790E-12	711.341E-3	-40.9058E-3	178.733E-12	698.608E-3	-6.25630E-3
4.42971E-3	176.550E-12	721.690E-3	-28.4465E-3	179.136E-12	689.655E-3	-36.2389E-3
4.42471E-3	175.884E-12	705.977E-3	-34.1776E-3	179.309E-12	677.212E-3	-94.9176E-3
4.41971E-3	175.385E-12	682.026E-3	-21.2243E-3	178.541E-12	676.821E-3	-99.0833E-3
4.41471E-3	174.491E-12	666.517E-3	2.75724E-3	178.370E-12	691.360E-3	-42.2645E-3
4.40970E-3	174.291E-12	657.223E-3	10.9376E-3	177.792E-12	683.756E-3	-8.40985E-3
4.40470E-3	174.156E-12	684.632E-3	4.92151E-3	176.377E-12	670.834E-3	-27.6531E-3
4.39970E-3	173.698E-12	722.261E-3	-24.6998E-3	175.009E-12	664.823E-3	-37.8189E-3
4.39470E-3	173.560E-12	706.140E-3	-30.1292E-3	174.207E-12	655.347E-3	-6.06124E-3
4.38969E-3	173.282E-12	670.390E-3	-92.5378E-6	173.209E-12	657.232E-3	14.0882E-3
4.38469E-3	173.181E-12	659.638E-3	534.276E-6	172.622E-12	661.967E-3	1.44393E-3
4.37969E-3	173.399E-12	666.263E-3	-19.3545E-3	171.765E-12	654.043E-3	-16.0867E-3
4.37469E-3	173.347E-12	670.381E-3	-23.9401E-3	172.231E-12	638.066E-3	-37.2210E-3
4.36968E-3	172.808E-12	671.048E-3	-23.4109E-3	171.762E-12	633.631E-3	-52.8077E-3
4.36468E-3	172.437E-12	663.745E-3	-15.9562E-3	171.932E-12	640.362E-3	-45.2886E-3
4.35968E-3	172.658E-12	665.695E-3	-2.87712E-3	171.886E-12	649.680E-3	-12.0596E-3
4.35468E-3	171.628E-12	694.602E-3	-10.2143E-3	172.556E-12	663.425E-3	24.0103E-3
4.34967E-3	171.588E-12	700.440E-3	-23.9856E-3	172.680E-12	674.289E-3	8.66819E-3
4.34467E-3	171.326E-12	676.063E-3	-37.6192E-3	173.506E-12	674.386E-3	-36.6148E-3
4.33967E-3	171.215E-12	653.613E-3	-41.0626E-3	173.149E-12	693.287E-3	-28.2467E-3
4.33467E-3	170.338E-12	643.923E-3	-28.6821E-3	172.942E-12	706.091E-3	11.6417E-3
4.32966E-3	170.298E-12	656.403E-3	-25.1846E-3	172.574E-12	674.594E-3	18.8625E-3
4.32466E-3	170.448E-12	688.925E-3	-24.8511E-3	172.282E-12	655.265E-3	5.06922E-3
4.31966E-3	170.553E-12	711.026E-3	-41.4326E-3	171.349E-12	664.780E-3	-6.28074E-3
4.31466E-3	170.661E-12	694.605E-3	-58.1139E-3	171.009E-12	670.065E-3	-19.6677E-3
4.30965E-3	170.438E-12	669.247E-3	-41.3542E-3	170.699E-12	677.412E-3	-20.2276E-3
4.30465E-3	170.632E-12	657.826E-3	-19.4184E-3	170.135E-12	675.246E-3	-9.59231E-3
4.29965E-3	170.343E-12	654.594E-3	-15.7507E-3	169.601E-12	663.925E-3	-13.1417E-3
4.29465E-3	170.373E-12	659.673E-3	-33.1829E-3	168.811E-12	656.925E-3	-23.1345E-3
4.28964E-3	169.706E-12	661.297E-3	-43.6943E-3	167.992E-12	657.204E-3	-31.6512E-3
4.28464E-3	169.528E-12	664.584E-3	-20.1095E-3	168.236E-12	671.363E-3	-38.8999E-3
4.27964E-3	169.033E-12	682.074E-3	-3.02113E-3	168.208E-12	682.437E-3	-23.2635E-3
4.27464E-3	168.630E-12	694.962E-3	-4.87421E-3	168.431E-12	679.452E-3	-1.67526E-3
4.26963E-3	167.777E-12	693.320E-3	-6.90312E-3	168.168E-12	671.914E-3	-9.19962E-3
4.26463E-3	166.830E-12	685.958E-3	-12.9822E-3	168.310E-12	672.709E-3	-40.0291E-3
4.25963E-3	166.205E-12	677.288E-3	-15.4715E-3	168.153E-12	682.987E-3	-57.6115E-3
4.25463E-3	165.554E-12	670.063E-3	-3.33745E-3	168.234E-12	679.018E-3	-34.6190E-3
4.24962E-3	165.001E-12	663.109E-3	667.689E-6	167.674E-12	662.471E-3	-15.1583E-3
4.24462E-3	164.950E-12	653.142E-3	-35.2162E-3	167.188E-12	668.621E-3	-22.5105E-3
4.23962E-3	164.687E-12	634.155E-3	-69.6875E-3	166.932E-12	687.734E-3	-25.4015E-3
4.23462E-3	164.936E-12	627.451E-3	-59.0876E-3	167.522E-12	699.602E-3	-27.2906E-3
4.22961E-3	165.239E-12	664.230E-3	-25.6428E-3	166.421E-12	695.600E-3	-30.4763E-3
4.22461E-3	165.766E-12	695.898E-3	-10.5410E-3	166.081E-12	678.576E-3	-31.8243E-3
4.21961E-3	166.370E-12	682.841E-3	-11.0011E-3	165.961E-12	666.164E-3	-38.2930E-3
4.21461E-3	166.613E-12	682.683E-3	-15.3961E-3	165.695E-12	663.808E-3	-64.2866E-3
4.20960E-3	166.214E-12	699.018E-3	-20.8450E-3	165.006E-12	673.937E-3	-84.7559E-3
4.20460E-3	166.821E-12	682.715E-3	-5.39304E-3	165.293E-12	679.764E-3	-46.2209E-3
4.19960E-3	166.114E-12	665.633E-3	8.89764E-3	165.375E-12	679.159E-3	15.5449E-3
4.19460E-3	165.684E-12	691.398E-3	2.99495E-3	165.357E-12	683.035E-3	22.8286E-3
4.18959E-3	165.040E-12	712.504E-3	-4.26241E-3	166.276E-12	671.492E-3	-30.3296E-3
4.18459E-3	164.930E-12	683.809E-3	-13.9065E-3	166.224E-12	662.000E-3	-76.5100E-3
4.17959E-3	163.919E-12	639.006E-3	-6.00580E-3	165.834E-12	690.015E-3	-73.0001E-3
4.17459E-3	163.122E-12	635.481E-3	11.0450E-3	166.222E-12	715.951E-3	-51.3811E-3
4.16958E-3	162.254E-12	671.511E-3	-3.61570E-3	166.193E-12	698.642E-3	-29.3558E-3
4.16458E-3	161.887E-12	683.541E-3	-32.9060E-3	165.827E-12	667.077E-3	-6.63290E-3
4.15958E-3	161.123E-12	655.861E-3	-51.1698E-3	165.121E-12	647.255E-3	-6.67389E-3
4.15458E-3	160.705E-12	636.030E-3	-33.4825E-3	164.450E-12	652.789E-3	-10.3625E-3
4.14957E-3	160.372E-12	654.513E-3	-3.96559E-3	164.151E-12	685.661E-3	1.40254E-3
4.14457E-3	160.777E-12	679.816E-3	-5.95753E-3	162.850E-12	706.860E-3	-1.03810E-3
4.13957E-3	161.153E-12	690.065E-3	-24.0811E-3	163.126E-12	692.729E-3	-17.1768E-3
4.13457E-3	161.900E-12	690.807E-3	-22.0999E-3	162.578E-12	669.356E-3	-13.4139E-3
4.12956E-3	162.343E-12	679.546E-3	143.833E-6	162.741E-12	648.977E-3	-1.19966E-3
4.12456E-3	162.927E-12	663.200E-3	2.70112E-3	162.119E-12	641.447E-3	-8.50365E-3
4.11956E-3	162.993E-12	645.673E-3	-3.74914E-3	163.012E-12	654.073E-3	-13.4057E-3
4.11456E-3	162.845E-12	632.850E-3	-5.29269E-3	162.274E-12	674.568E-3	6.17494E-3
4.10955E-3	162.967E-12	636.999E-3	-4.22785E-3	162.523E-12	688.905E-3	21.7454E-3
4.10455E-3	162.848E-12	654.214E-3	5.42969E-3	162.074E-12	687.040E-3	640.424E-6
4.09955E-3	162.279E-12	666.195E-3	-8.11088E-3	163.031E-12	689.229E-3	-22.8789E-3
4.09455E-3	161.607E-12	680.234E-3	-31.6188E-3	162.904E-12	708.029E-3	3.97553E-3
4.08954E-3	161.454E-12	689.374E-3	-16.5583E-3	162.624E-12	713.150E-3	30.3133E-3
4.08454E-3	160.737E-12	670.524E-3	1.13915E-3	162.210E-12	687.349E-3	1.10747E-3
4.07954E-3	159.922E-12	656.136E-3	-16.0890E-3	162.231E-12	669.130E-3	-34.7283E-3
4.07454E-3	159.358E-12	678.253E-3	-41.1303E-3	161.663E-12	687.049E-3	-43.1715E-3
4.06953E-3	159.242E-12	695.662E-3	-38.3163E-3	160.434E-12	686.610E-3	-41.0129E-3
4.06453E-3	158.902E-12	678.711E-3	-25.2588E-3	159.255E-12	649.953E-3	-37.3775E-3
4.05953E-3	158.108E-12	662.090E-3	-32.0112E-3	158.619E-12	629.002E-3	-29.5182E-3
4.05453E-3	157.694E-12	661.905E-3	-35.2842E-3	158.102E-12	630.718E-3	-10.6987E-3
4.04952E-3	157.991E-12	665.740E-3	-29.4165E-3	157.370E-12	642.161E-3	-4.29336E-3
4.04452E-3	158.455E-12	668.582E-3	-27.1184E-3	156.966E-12	664.596E-3	-14.7423E-3
4.03952E-3	158.414E-12	664.763E-3	-32.1891E-3	156.905E-12	666.010E-3	-20.6560E-3
4.03452E-3	158.851E-12	662.988E-3	-36.7130E-3	156.369E-12	649.656E-3	-37.3802E-3
4.02951E-3	159.151E-12	666.939E-3	-24.1838E-3	156.450E-12	669.289E-3	-53.9289E-3
4.02451E-3	158.668E-12	663.512E-3	-11.7394E-3	156.728E-12	696.579E-3	-55.6833E-3
4.01951E-3	158.349E-12	668.440E-3	-6.95629E-3	157.224E-12	697.250E-3	-40.5318E-3
4.01451E-3	158.497E-12	686.301E-3	6.73000E-3	157.350E-12	695.373E-3	-13.3835E-3
4.00950E-3	157.887E-12	690.112E-3	9.12914E-3	158.209E-12	690.023E-3	9.65551E-3
4.00450E-3	156.753E-12	664.104E-3	-728.307E-6	157.927E-12	673.181E-3	24.7646E-3
3.99950E-3	156.451E-12	634.557E-3	3.65520E-3	158.035E-12	683.271E-3	23.2932E-3
3.99450E-3	155.966E-12	643.355E-3	13.6773E-3	157.888E-12	718.316E-3	6.72573E-3
3.98949E-3	155.175E-12	672.661E-3	15.6606E-3	158.079E-12	723.706E-3	-18.6237E-3
3.98449E-3	154.336E-12	687.673E-3	-1.14749E-3	157.848E-12	706.274E-3	-26.8593E-3
3.97949E-3	153.782E-12	675.329E-3	-27.5031E-3	157.111E-12	701.018E-3	-12.6175E-3
3.97449E-3	153.835E-12	652.934E-3	-34.4856E-3	155.936E-12	711.892E-3	-920.742E-6
3.96948E-3	153.440E-12	644.338E-3	-24.8681E-3	155.432E-12	720.408E-3	-3.49602E-3
3.96448E-3	152.932E-12	659.954E-3	-24.2799E-3	154.686E-12	696.154E-3	4.50338E-3
3.95948E-3	153.047E-12	668.968E-3	-33.0629E-3	153.711E-12	659.396E-3	33.3410E-3
3.95448E-3	152.770E-12	666.725E-3	-38.3347E-3	152.839E-12	632.028E-3	26.1766E-3
3.94947E-3	152.830E-12	686.895E-3	-39.2337E-3	152.679E-12	624.133E-3	2.50385E-3
3.94447E-3	152.697E-12	697.189E-3	-25.7885E-3	152.733E-12	647.733E-3	5.57972E-3
3.93947E-3	152.973E-12	668.918E-3	-3.48198E-3	151.862E-12	667.575E-3	9.62637E-3
3.93447E-3	152.328E-12	647.212E-3	-1.99402E-3	152.157E-12	669.041E-3	12.1912E-3
3.92946E-3	152.755E-12	653.838E-3	-26.0062E-3	152.229E-12	669.730E-3	886.020E-6
3.92446E-3	152.533E-12	657.335E-3	-39.8960E-3	152.310E-12	672.983E-3	-22.1756E-3
3.91946E-3	151.960E-12	650.733E-3	-30.7087E-3	152.831E-12	666.402E-3	-29.0428E-3
3.91446E-3	151.343E-12	653.546E-3	-12.7646E-3	154.033E-12	662.450E-3	-26.6514E-3
3.90945E-3	151.409E-12	653.696E-3	-10.6817E-3	153.791E-12	680.871E-3	-14.8918E-3
3.90445E-3	150.642E-12	633.463E-3	-14.5558E-3	153.989E-12	696.059E-3	-2.11346E-3
3.89945E-3	151.236E-12	626.593E-3	6.58146E-3	154.294E-12	684.459E-3	-4.48604E-3
3.89445E-3	151.047E-12	638.101E-3	23.7569E-3	153.814E-12	654.298E-3	-2.48238E-3
3.88944E-3	151.115E-12	651.624E-3	18.2086E-3	153.046E-12	642.855E-3	9.45501E-3
3.88444E-3	150.231E-12	676.099E-3	3.44712E-3	152.350E-12	663.473E-3	5.05452E-3
3.87944E-3	150.804E-12	698.242E-3	177.140E-6	151.730E-12	670.177E-3	-19.0064E-3
3.87444E-3	150.877E-12	689.963E-3	3.20054E-3	151.028E-12	649.672E-3	-20.9123E-3
3.86943E-3	150.706E-12	661.397E-3	1.92377E-3	150.182E-12	638.393E-3	-10.2709E-3
3.86443E-3	150.326E-12	655.212E-3	8.82251E-3	149.720E-12	643.032E-3	-26.3214E-3
3.85943E-3	150.128E-12	670.930E-3	15.4296E-3	149.244E-12	666.371E-3	-49.8931E-3
3.85443E-3	150.344E-12	671.939E-3	-6.99909E-3	149.040E-12	701.551E-3	-38.9552E-3
3.84942E-3	149.454E-12	652.455E-3	-39.7103E-3	148.757E-12	707.678E-3	986.468E-6
3.84442E-3	149.384E-12	634.158E-3	-33.1412E-3	149.189E-12	689.979E-3	19.8554E-3
3.83942E-3	148.805E-12	640.350E-3	-18.1358E-3	149.106E-12	676.168E-3	9.41021E-3
3.83442E-3	148.837E-12	668.274E-3	-5.04213E-3	149.490E-12	663.397E-3	3.45363E-3
3.82941E-3	148.137E-12	665.686E-3	19.2999E-3	149.497E-12	669.378E-3	9.55676E-3
3.82441E-3	148.474E-12	648.310E-3	11.0981E-3	149.927E-12	691.917E-3	1.60772E-3
3.81941E-3	147.620E-12	654.991E-3	-7.51766E-3	150.365E-12	687.623E-3	-18.2248E-3
3.81441E-3	148.042E-12	654.069E-3	6.71697E-3	150.279E-12	675.455E-3	-36.6655E-3
3.80940E-3	148.190E-12	647.495E-3	11.7431E-3	150.762E-12	680.773E-3	-48.7644E-3
3.80440E-3	148.006E-12	646.925E-3	-4.93398E-3	150.360E-12	684.638E-3	-35.8796E-3
3.79940E-3	148.159E-12	648.718E-3	-11.1737E-3	149.753E-12	691.835E-3	-6.85535E-3
3.79440E-3	148.470E-12	665.021E-3	-23.4603E-3	148.890E-12	701.688E-3	3.68004E-3
3.78939E-3	148.406E-12	682.841E-3	-40.5517E-3	148.289E-12	691.329E-3	-3.31148E-3
3.78439E-3	148.167E-12	679.182E-3	-31.0961E-3	147.522E-12	682.537E-3	-10.9627E-3
3.77939E-3	148.188E-12	666.964E-3	-24.5259E-3	146.682E-12	691.140E-3	-26.4066E-3
3.77439E-3	147.913E-12	671.759E-3	-38.6591E-3	145.592E-12	693.343E-3	-33.7582E-3
3.76938E-3	147.390E-12	680.181E-3	-31.4736E-3	145.724E-12	679.551E-3	-20.9535E-3
3.76438E-3	146.199E-12	672.786E-3	3.07707E-3	145.449E-12	659.549E-3	-17.0422E-3
3.75938E-3	145.825E-12	671.337E-3	26.5806E-3	145.305E-12	648.780E-3	-28.0011E-3
3.75438E-3	145.548E-12	668.464E-3	21.5947E-3	145.061E-12	658.457E-3	-29.9441E-3
3.74937E-3	144.476E-12	662.885E-3	-9.15207E-3	145.478E-12	685.951E-3	-13.8789E-3
3.74437E-3	144.104E-12	654.843E-3	-43.1669E-3	144.705E-12	693.835E-3	-7.43774E-3
3.73937E-3	143.281E-12	636.208E-3	-40.3269E-3	144.964E-12	686.260E-3	-24.7113E-3
3.73437E-3	142.998E-12	644.024E-3	-17.6449E-3	145.349E-12	700.876E-3	-41.0792E-3
3.72936E-3	142.662E-12	663.404E-3	25.8434E-6	145.928E-12	723.972E-3	-31.6001E-3
3.72436E-3	142.601E-12	663.713E-3	7.05419E-3	145.486E-12	717.666E-3	-24.8742E-3
3.71936E-3	142.691E-12	647.082E-3	-11.0900E-3	145.692E-12	693.410E-3	-44.0225E-3
3.71436E-3	143.570E-12	627.649E-3	-21.2706E-3	145.725E-12	686.281E-3	-36.3197E-3
3.70935E-3	143.611E-12	617.591E-3	-1.23713E-3	145.246E-12	689.939E-3	4.38356E-3
3.70435E-3	143.788E-12	630.129E-3	20.1184E-3	144.089E-12	678.679E-3	15.8089E-3
3.69935E-3	143.706E-12	680.506E-3	25.5327E-3	143.966E-12	648.057E-3	7.64167E-3
3.69435E-3	144.072E-12	710.287E-3	17.9574E-3	143.811E-12	642.972E-3	9.51424E-3
3.68934E-3	143.992E-12	688.709E-3	3.30059E-3	142.938E-12	658.562E-3	-10.1161E-3
3.68434E-3	143.741E-12	681.695E-3	2.70245E-3	142.640E-12	663.055E-3	-29.3815E-3
3.67934E-3	142.795E-12	695.814E-3	13.5002E-3	142.390E-12	669.327E-3	-24.0347E-3
3.67434E-3	143.208E-12	690.180E-3	-13.1610E-3	142.372E-12	680.039E-3	-37.4464E-3
3.66933E-3	141.860E-12	682.228E-3	-65.3416E-3	142.243E-12	679.406E-3	-53.0656E-3
3.66433E-3	141.470E-12	679.395E-3	-73.5998E-3	141.925E-12	674.817E-3	-44.0468E-3
3.65933E-3	140.701E-12	667.442E-3	-55.8092E-3	141.817E-12	684.670E-3	-34.1933E-3
3.65433E-3	140.005E-12	668.019E-3	-41.0653E-3	141.165E-12	681.703E-3	-30.8834E-3
3.64932E-3	139.159E-12	679.447E-3	-14.7656E-3	140.921E-12	685.719E-3	-22.1592E-3
3.64432E-3	138.794E-12	672.769E-3	6.96026E-3	140.625E-12	711.280E-3	-7.90500E-3
3.63932E-3	138.600E-12	661.553E-3	8.15948E-3	140.338E-12	710.704E-3	-1.00289E-3
3.63432E-3	138.362E-12	650.490E-3	16.9658E-3	139.160E-12	704.503E-3	-7.16856E-3
3.62931E-3	137.966E-12	645.557E-3	19.2526E-3	139.061E-12	715.377E-3	-20.5147E-3
3.62431E-3	138.478E-12	648.785E-3	-2.22899E-3	138.479E-12	717.041E-3	-18.8392E-3
3.61931E-3	138.486E-12	655.359E-3	-7.07039E-3	138.479E-12	693.744E-3	312.526E-6
3.61431E-3	139.082E-12	657.868E-3	-39.7604E-6	138.154E-12	666.902E-3	7.82288E-3
3.60930E-3	139.731E-12	642.685E-3	-968.646E-6	137.407E-12	659.194E-3	-10.4575E-3
3.60430E-3	139.448E-12	649.600E-3	-4.62934E-3	137.439E-12	647.128E-3	-30.4507E-3
3.59930E-3	139.288E-12	671.671E-3	-2.74876E-3	137.954E-12	639.618E-3	-32.4659E-3
3.59430E-3	140.126E-12	692.650E-3	-4.10861E-3	138.065E-12	655.669E-3	-24.0476E-3
3.58929E-3	139.758E-12	707.101E-3	-17.3483E-3	137.695E-12	669.230E-3	-11.8819E-3
3.58429E-3	138.840E-12	690.008E-3	-26.9783E-3	138.716E-12	678.192E-3	-22.8890E-3
3.57929E-3	138.140E-12	685.308E-3	-17.3955E-3	138.748E-12	676.612E-3	-39.9761E-3
3.57429E-3	138.133E-12	700.665E-3	-2.00379E-3	138.903E-12	672.800E-3	-30.4990E-3
3.56928E-3	137.535E-12	698.004E-3	-8.41298E-3	138.783E-12	671.752E-3	-16.9775E-3
3.56428E-3	136.395E-12	687.592E-3	-26.9368E-3	138.812E-12	654.435E-3	-9.34799E-3
3.55928E-3	135.507E-12	685.067E-3	-26.0859E-3	138.248E-12	641.751E-3	-19.9725E-3
3.55428E-3	134.831E-12	676.495E-3	-13.6521E-3	137.986E-12	651.740E-3	-31.1313E-3
3.54927E-3	134.963E-12	662.400E-3	-11.0343E-3	136.879E-12	671.689E-3	-15.6163E-3
3.54427E-3	133.751E-12	653.534E-3	-8.60052E-3	136.353E-12	672.496E-3	19.1332E-3
3.53927E-3	133.575E-12	657.860E-3	-23.5882E-3	134.998E-12	665.367E-3	45.1626E-3
3.53427E-3	133.596E-12	657.766E-3	-50.9906E-3	134.629E-12	669.092E-3	33.7347E-3
3.52926E-3	133.577E-12	667.045E-3	-46.2050E-3	133.527E-12	660.776E-3	4.22548E-3
3.52426E-3	134.057E-12	692.204E-3	-38.6634E-3	132.616E-12	641.685E-3	-22.4432E-3
3.51926E-3	133.603E-12	692.848E-3	-43.3311E-3	132.243E-12	639.782E-3	-33.6714E-3
3.51426E-3	133.937E-12	688.615E-3	-38.3125E-3	132.979E-12	647.030E-3	-30.3510E-3
3.50925E-3	134.869E-12	690.609E-3	-13.1446E-3	132.754E-12	652.595E-3	-20.8114E-3
3.50425E-3	134.123E-12	688.477E-3	12.8377E-3	132.851E-12	671.912E-3	-13.3702E-3
3.49925E-3	134.000E-12	697.364E-3	11.4451E-3	132.926E-12	691.828E-3	-23.7481E-3
3.49425E-3	134.563E-12	711.207E-3	4.84052E-3	133.905E-12	710.707E-3	-35.7789E-3
3.48924E-3	134.346E-12	707.084E-3	-7.56356E-3	134.558E-12	707.455E-3	-26.3271E-3
3.48424E-3	133.993E-12	694.555E-3	-19.7357E-3	135.235E-12	666.458E-3	-5.26157E-3
3.47924E-3	133.379E-12	675.290E-3	-21.4078E-3	135.562E-12	653.757E-3	14.7083E-3
3.47424E-3	133.139E-12	654.157E-3	-23.2819E-3	136.346E-12	667.433E-3	19.2160E-3
3.46923E-3	132.991E-12	669.587E-3	-14.3842E-3	135.558E-12	669.932E-3	-14.8304E-3
3.46423E-3	132.389E-12	687.796E-3	287.815E-6	135.779E-12	667.187E-3	-42.5873E-3
3.45923E-3	132.294E-12	664.387E-3	-3.50555E-3	135.026E-12	673.334E-3	-28.9510E-3
3.45423E-3	131.651E-12	641.185E-3	-10.6925E-3	134.460E-12	684.240E-3	-18.1068E-3
3.44922E-3	131.847E-12	648.266E-3	-13.7817E-3	133.008E-12	678.264E-3	-17.8436E-3
3.44422E-3	132.488E-12	666.982E-3	-37.1900E-3	132.483E-12	677.620E-3	-19.6854E-3
3.43922E-3	131.785E-12	685.653E-3	-63.2800E-3	131.544E-12	684.954E-3	-17.3449E-3
3.43422E-3	130.908E-12	685.945E-3	-59.7212E-3	130.845E-12	678.774E-3	-22.0926E-3
3.42921E-3	131.264E-12	662.049E-3	-40.7381E-3	129.879E-12	671.826E-3	-32.1129E-3
3.42421E-3	130.950E-12	653.541E-3	-27.5568E-3	129.993E-12	668.237E-3	-18.1036E-3
3.41921E-3	130.331E-12	672.572E-3	-25.8724E-3	130.094E-12	676.658E-3	-1.02826E-3
3.41421E-3	130.436E-12	688.558E-3	-32.9924E-3	129.874E-12	705.450E-3	14.9727E-3
3.40920E-3	130.245E-12	697.122E-3	-31.5438E-3	129.970E-12	698.211E-3	12.6838E-3
3.40420E-3	129.394E-12	709.186E-3	-16.2740E-3	130.559E-12	660.630E-3	-26.1667E-3
3.39920E-3	128.615E-12	685.679E-3	-11.3619E-3	130.255E-12	676.792E-3	-36.0767E-3
3.39420E-3	128.865E-12	650.566E-3	-31.3156E-3	130.176E-12	717.240E-3	-12.1984E-3
3.38919E-3	128.683E-12	667.785E-3	-43.4854E-3	130.278E-12	717.472E-3	-3.58820E-3
3.38419E-3	128.157E-12	687.791E-3	-33.4881E-3	130.311E-12	702.618E-3	5.77880E-3
3.37919E-3	127.943E-12	681.286E-3	-30.7429E-3	130.164E-12	696.710E-3	7.40821E-3
3.37419E-3	128.293E-12	678.183E-3	-14.2630E-3	129.784E-12	683.281E-3	-3.65674E-3
3.36918E-3	127.969E-12	668.554E-3	10.2097E-3	129.477E-12	679.615E-3	-15.8212E-3
3.36418E-3	128.282E-12	664.767E-3	-13.3518E-3	129.033E-12	693.484E-3	-18.8040E-3
3.35918E-3	128.321E-12	675.107E-3	-45.6370E-3	128.250E-12	687.682E-3	-6.30757E-3
3.35418E-3	127.891E-12	661.054E-3	-31.8804E-3	127.425E-12	662.947E-3	-11.2738E-3
3.34917E-3	127.563E-12	659.393E-3	-8.33922E-3	126.853E-12	650.679E-3	-24.3766E-3
3.34417E-3	127.306E-12	690.377E-3	6.15335E-3	126.141E-12	656.177E-3	-10.6979E-3
3.33917E-3	126.307E-12	685.074E-3	29.8526E-3	125.844E-12	658.571E-3	3.95891E-3
3.33417E-3	125.868E-12	662.028E-3	25.1299E-3	125.467E-12	652.047E-3	-13.3325E-3
3.32916E-3	125.367E-12	663.515E-3	-21.2795E-3	125.816E-12	655.128E-3	-24.2939E-3
3.32416E-3	124.456E-12	666.904E-3	-47.6866E-3	125.478E-12	661.266E-3	-13.8861E-3
3.31916E-3	124.170E-12	675.873E-3	-41.6228E-3	125.274E-12	662.953E-3	-14.6166E-3
3.31416E-3	123.922E-12	690.817E-3	-33.1461E-3	125.091E-12	682.371E-3	-27.5374E-3
3.30915E-3	123.475E-12	689.444E-3	-16.3000E-3	125.196E-12	702.785E-3	-32.5476E-3
3.30415E-3	123.453E-12	682.394E-3	-7.18622E-3	124.931E-12	690.367E-3	-26.9037E-3
3.29915E-3	123.536E-12	684.172E-3	-17.0976E-3	125.108E-12	665.897E-3	-27.9397E-3
3.29415E-3	123.244E-12	664.958E-3	-10.6497E-3	124.839E-12	658.971E-3	-31.0016E-3
3.28914E-3	123.710E-12	643.496E-3	4.52378E-3	124.914E-12	653.788E-3	-26.0068E-3
3.28414E-3	123.847E-12	667.991E-3	1.29297E-3	124.573E-12	650.548E-3	-26.0987E-3
3.27914E-3	124.570E-12	686.515E-3	-9.98837E-3	124.588E-12	669.513E-3	-37.5721E-3
3.27414E-3	124.847E-12	670.427E-3	-33.6286E-3	123.831E-12	695.196E-3	-39.6335E-3
3.26913E-3	125.330E-12	682.928E-3	-33.6625E-3	123.408E-12	708.618E-3	-18.4286E-3
3.26413E-3	125.071E-12	723.883E-3	5.16282E-3	122.998E-12	697.357E-3	-7.79546E-3
3.25913E-3	125.511E-12	738.892E-3	18.5283E-3	123.521E-12	674.647E-3	-6.79618E-3
3.25413E-3	125.043E-12	737.978E-3	6.26389E-3	122.816E-12	666.782E-3	18.3441E-3
3.24912E-3	124.418E-12	729.286E-3	5.02019E-3	122.268E-12	653.395E-3	25.6921E-3
3.24412E-3	123.547E-12	705.461E-3	11.8448E-3	122.274E-12	628.122E-3	-517.046E-6
3.23912E-3	122.577E-12	697.263E-3	-1.28772E-3	122.895E-12	631.151E-3	-9.85453E-3
3.23412E-3	121.706E-12	701.129E-3	-15.4111E-3	122.554E-12	666.009E-3	-12.1194E-3
3.22911E-3	120.686E-12	700.267E-3	-20.1496E-3	121.776E-12	693.428E-3	-32.9391E-3
3.22411E-3	120.409E-12	704.172E-3	-35.3946E-3	121.959E-12	690.844E-3	-37.0505E-3
3.21911E-3	119.602E-12	690.998E-3	-34.4394E-3	122.251E-12	680.877E-3	-12.1145E-3
3.21411E-3	119.019E-12	662.241E-3	-26.4865E-3	121.326E-12	684.005E-3	5.50391E-3
3.20910E-3	119.144E-12	669.928E-3	-32.4429E-3	120.481E-12	685.919E-3	7.85386E-3
3.20410E-3	119.319E-12	688.263E-3	-18.1361E-3	120.270E-12	683.731E-3	-4.44340E-3
3.19910E-3	118.553E-12	672.820E-3	112.061E-6	120.202E-12	680.069E-3	-26.7287E-3
3.19410E-3	119.226E-12	661.502E-3	-13.4246E-3	119.450E-12	688.311E-3	-21.0626E-3
3.18909E-3	119.972E-12	669.519E-3	-22.9678E-3	119.437E-12	711.509E-3	158.291E-6
3.18409E-3	120.085E-12	682.631E-3	-7.97728E-3	118.954E-12	712.052E-3	446.742E-6
3.17909E-3	120.372E-12	705.589E-3	5.38357E-3	118.573E-12	678.074E-3	-4.19359E-3
3.17409E-3	120.493E-12	706.590E-3	10.1087E-3	118.832E-12	652.252E-3	-5.09772E-3
3.16908E-3	120.506E-12	679.832E-3	6.79359E-3	119.390E-12	660.165E-3	-3.00354E-3
3.16408E-3	120.130E-12	678.873E-3	-283.475E-6	118.820E-12	678.469E-3	-10.4818E-3
3.15908E-3	119.665E-12	710.153E-3	8.24559E-3	118.711E-12	695.142E-3	-22.9293E-3
3.15408E-3	118.918E-12	720.914E-3	4.56205E-3	119.220E-12	706.261E-3	-22.0912E-3
3.14907E-3	118.211E-12	709.984E-3	-18.5997E-3	119.780E-12	697.073E-3	-19.2626E-3
3.14407E-3	117.759E-12	710.734E-3	-22.7237E-3	119.852E-12	680.198E-3	-20.0697E-3
3.13907E-3	117.330E-12	704.341E-3	-23.8686E-3	119.386E-12	687.397E-3	-19.7561E-3
3.13407E-3	116.094E-12	678.728E-3	-44.5558E-3	119.260E-12	698.022E-3	-18.4034E-3
3.12906E-3	115.747E-12	667.464E-3	-43.8502E-3	119.387E-12	701.312E-3	-15.8727E-3
3.12406E-3	115.404E-12	664.380E-3	-22.1845E-3	119.149E-12	720.549E-3	-13.3371E-3
3.11906E-3	115.301E-12	652.754E-3	-21.2504E-3	118.293E-12	725.551E-3	-4.99761E-3
3.11406E-3	114.924E-12	664.231E-3	-21.6706E-3	117.359E-12	712.077E-3	11.8493E-3
3.10905E-3	114.513E-12	670.795E-3	-15.3683E-3	117.147E-12	709.927E-3	15.4804E-3
3.10405E-3	114.512E-12	659.500E-3	-12.9488E-3	116.402E-12	704.842E-3	-4.91615E-3
3.09905E-3	114.853E-12	675.792E-3	-8.17346E-3	115.508E-12	698.570E-3	-23.2091E-3
3.09405E-3	115.057E-12	681.513E-3	-9.03131E-3	115.219E-12	696.176E-3	-29.0013E-3
3.08904E-3	114.918E-12	666.802E-3	-14.9435E-3	114.975E-12	686.427E-3	-26.7679E-3
3.08404E-3	115.307E-12	675.272E-3	-14.9655E-3	114.763E-12	696.040E-3	-5.19935E-3
3.07904E-3	115.306E-12	688.945E-3	-23.4957E-3	114.732E-12	716.044E-3	522.844E-6
3.07404E-3	115.368E-12	698.068E-3	-31.1374E-3	114.707E-12	704.733E-3	-21.3879E-3
3.06903E-3	114.979E-12	710.399E-3	-16.0573E-3	114.311E-12	684.503E-3	-25.6686E-3
3.06403E-3	115.069E-12	707.504E-3	-1.69554E-3	114.534E-12	676.577E-3	-12.0666E-3
3.05903E-3	113.975E-12	696.350E-3	2.93560E-3	114.599E-12	669.289E-3	383.624E-6
3.05403E-3	113.870E-12	696.097E-3	12.4845E-3	114.672E-12	658.075E-3	770.830E-6
3.04902E-3	113.864E-12	698.274E-3	12.6058E-3	114.535E-12	656.888E-3	585.562E-6
3.04402E-3	113.412E-12	698.782E-3	-4.36575E-3	114.390E-12	672.922E-3	7.76636E-3
3.03902E-3	112.735E-12	696.338E-3	1.86632E-3	113.930E-12	687.156E-3	10.6985E-3
3.03402E-3	112.532E-12	682.831E-3	9.22279E-3	113.638E-12	682.748E-3	-939.671E-6
3.02901E-3	112.894E-12	669.459E-3	-16.4967E-3	113.307E-12	673.245E-3	-21.8449E-3
3.02401E-3	112.370E-12	692.777E-3	-19.1423E-3	112.561E-12	686.767E-3	-18.5739E-3
3.01901E-3	112.023E-12	712.235E-3	3.65547E-3	112.038E-12	700.312E-3	-8.61695E-3
3.01401E-3	112.363E-12	682.721E-3	-6.33275E-3	111.335E-12	685.322E-3	-21.8892E-3
3.00900E-3	111.747E-12	662.697E-3	-23.1321E-3	111.495E-12	667.040E-3	-23.8366E-3
3.00400E-3	111.763E-12	677.948E-3	-5.40654E-3	110.730E-12	673.674E-3	-4.06085E-3
2.99900E-3	111.390E-12	691.000E-3	-2.39116E-3	110.178E-12	695.473E-3	5.70782E-3
2.99400E-3	111.063E-12	693.911E-3	-16.4889E-3	110.029E-12	700.954E-3	-583.469E-6
2.98899E-3	110.555E-12	681.562E-3	-20.2341E-3	110.161E-12	688.523E-3	-17.5709E-3
2.98399E-3	110.837E-12	662.019E-3	-34.5282E-3	109.815E-12	682.412E-3	-18.0704E-3
2.97899E-3	110.342E-12	665.625E-3	-28.8069E-3	109.896E-12	693.548E-3	-1.45557E-3
2.97399E-3	109.989E-12	666.555E-3	4.29912E-3	109.725E-12	708.691E-3	3.29675E-3
2.96898E-3	109.662E-12	663.562E-3	6.80893E-3	109.921E-12	711.387E-3	-4.69948E-3
2.96398E-3	109.202E-12	682.274E-3	-18.1178E-3	109.901E-12	704.737E-3	-20.7833E-3
2.95898E-3	108.869E-12	691.745E-3	-17.3558E-3	109.321E-12	693.412E-3	-27.3275E-3
2.95398E-3	109.012E-12	680.257E-3	-9.39290E-3	109.239E-12	682.963E-3	-24.1225E-3
2.94897E-3	108.446E-12	678.342E-3	-14.2136E-3	109.099E-12	685.877E-3	-24.7192E-3
2.94397E-3	108.328E-12	686.234E-3	7.14936E-3	108.629E-12	705.013E-3	-30.1143E-3
2.93897E-3	108.746E-12	683.869E-3	6.41502E-3	108.316E-12	710.801E-3	-23.9990E-3
2.93397E-3	108.427E-12	680.951E-3	-39.1727E-3	108.196E-12	702.600E-3	-8.91629E-3
2.92896E-3	108.077E-12	683.052E-3	-40.8523E-3	107.436E-12	717.476E-3	-17.4718E-3
2.92396E-3	108.013E-12	687.651E-3	-10.1542E-3	107.146E-12	718.495E-3	-25.7337E-3
2.91896E-3	107.448E-12	691.981E-3	1.06333E-3	107.064E-12	690.817E-3	-13.7602E-3
2.91396E-3	107.057E-12	695.568E-3	4.37674E-3	106.450E-12	693.529E-3	-8.57937E-3
2.90895E-3	106.775E-12	706.047E-3	-288.897E-6	106.295E-12	720.039E-3	-8.83950E-3
2.90395E-3	106.253E-12	717.158E-3	-21.4199E-3	106.461E-12	729.020E-3	1.02582E-3
2.89895E-3	105.899E-12	725.782E-3	-36.6716E-3	106.373E-12	720.639E-3	4.93962E-3
2.89395E-3	105.657E-12	728.858E-3	-27.3316E-3	106.092E-12	702.102E-3	-8.08280E-3
2.88894E-3	105.232E-12	729.198E-3	-17.2696E-3	106.196E-12	690.863E-3	-24.4513E-3
2.88394E-3	104.853E-12	716.906E-3	-7.34992E-3	106.407E-12	701.815E-3	-24.2603E-3
2.87894E-3	104.822E-12	683.402E-3	9.61379E-3	106.223E-12	711.773E-3	-7.85350E-3
2.87394E-3	104.813E-12	671.236E-3	18.0205E-3	106.669E-12	710.261E-3	-6.32438E-3
2.86893E-3	104.226E-12	681.632E-3	13.2591E-3	106.680E-12	706.457E-3	-18.9643E-3
2.86393E-3	104.607E-12	682.304E-3	-10.6446E-3	106.244E-12	695.372E-3	-28.2504E-3
2.85893E-3	104.839E-12	691.191E-3	-37.3169E-3	106.477E-12	693.329E-3	-43.4877E-3
2.85393E-3	104.806E-12	709.328E-3	-22.3686E-3	106.286E-12	704.039E-3	-53.2575E-3
2.84892E-3	105.587E-12	701.066E-3	9.70789E-3	105.442E-12	695.323E-3	-43.1553E-3
2.84392E-3	105.599E-12	677.187E-3	2.03929E-3	105.198E-12	686.047E-3	-21.2572E-3
2.83892E-3	105.177E-12	676.326E-3	-20.9300E-3	105.024E-12	693.327E-3	-847.630E-6
2.83392E-3	105.248E-12	690.073E-3	-31.5091E-3	104.533E-12	698.446E-3	15.8058E-3
2.82891E-3	105.067E-12	699.049E-3	-36.6277E-3	104.389E-12	693.911E-3	28.8501E-3
2.82391E-3	104.279E-12	707.598E-3	-36.6904E-3	103.989E-12	689.952E-3	21.9426E-3
2.81891E-3	103.786E-12	710.307E-3	-32.1676E-3	103.283E-12	686.308E-3	8.76524E-3
2.81391E-3	102.945E-12	705.541E-3	-25.3298E-3	103.130E-12	683.009E-3	2.29369E-3
2.80890E-3	101.929E-12	701.594E-3	-20.2494E-3	102.810E-12	691.975E-3	-8.46610E-3
2.80390E-3	101.261E-12	694.571E-3	-23.2384E-3	102.395E-12	707.224E-3	-12.5532E-3
2.79890E-3	100.594E-12	685.416E-3	-40.0192E-3	101.914E-12	719.486E-3	-13.6913E-3
2.79390E-3	99.8995E-12	682.163E-3	-32.7420E-3	101.978E-12	725.989E-3	-23.1822E-3
2.78889E-3	99.6842E-12	671.350E-3	3.96681E-3	102.070E-12	722.485E-3	-30.5508E-3
2.78389E-3	99.7106E-12	653.689E-3	12.3095E-3	101.739E-12	712.866E-3	-30.2426E-3
2.77889E-3	99.1401E-12	664.252E-3	8.52435E-3	101.517E-12	704.305E-3	-23.4115E-3
2.77389E-3	99.4619E-12	693.060E-3	13.8664E-3	101.376E-12	695.801E-3	-20.6992E-3
2.76888E-3	99.3859E-12	712.043E-3	-2.62543E-3	100.877E-12	691.798E-3	-15.7809E-3
2.76388E-3	99.7071E-12	715.204E-3	-19.2910E-3	100.919E-12	699.406E-3	-14.3988E-3
2.75888E-3	99.6003E-12	689.329E-3	-16.3418E-3	100.756E-12	714.598E-3	-33.0027E-3
2.75388E-3	99.7416E-12	672.179E-3	-17.8276E-3	100.028E-12	715.606E-3	-22.6515E-3
2.74887E-3	99.8325E-12	682.335E-3	-16.9549E-3	99.7678E-12	702.039E-3	6.93462E-3
2.74387E-3	99.6859E-12	683.044E-3	753.112E-6	99.5292E-12	698.890E-3	-7.27405E-3
2.73887E-3	99.3909E-12	686.145E-3	8.64404E-3	99.2190E-12	695.905E-3	-37.7725E-3
2.73387E-3	99.2336E-12	703.769E-3	-5.05953E-3	99.0509E-12	688.832E-3	-48.5736E-3
2.72886E-3	98.7331E-12	720.375E-3	-8.19068E-3	98.4264E-12	698.831E-3	-58.1408E-3
2.72386E-3	97.9220E-12	723.804E-3	-3.01195E-3	98.0440E-12	718.681E-3	-61.9200E-3
2.71886E-3	97.5390E-12	716.931E-3	-4.10026E-3	97.9671E-12	721.429E-3	-35.6803E-3
2.71386E-3	97.0056E-12	700.829E-3	-9.21908E-3	97.7924E-12	701.910E-3	-17.4412E-3
2.70885E-3	96.2656E-12	683.450E-3	-12.7846E-3	97.3439E-12	688.373E-3	-31.6866E-3
2.70385E-3	95.7076E-12	691.184E-3	-8.36011E-3	97.2561E-12	693.155E-3	-36.0432E-3
2.69885E-3	95.6560E-12	700.568E-3	-10.0641E-3	97.1329E-12	695.274E-3	-32.7922E-3
2.69385E-3	95.3417E-12	675.428E-3	-26.8226E-3	96.9244E-12	691.982E-3	-31.6471E-3
2.68884E-3	95.4857E-12	660.743E-3	-36.5944E-3	96.4632E-12	687.889E-3	-24.3033E-3
2.68384E-3	95.4088E-12	668.378E-3	-32.6377E-3	95.8485E-12	687.821E-3	-21.1487E-3
2.67884E-3	95.3619E-12	675.474E-3	-32.4932E-3	95.4704E-12	696.685E-3	-13.4279E-3
2.67384E-3	95.5140E-12	707.727E-3	-25.6648E-3	95.4872E-12	701.658E-3	-10.6241E-3
2.66883E-3	95.6554E-12	735.256E-3	2.64987E-3	94.9416E-12	703.261E-3	-27.2885E-3
2.66383E-3	95.6203E-12	728.596E-3	6.82708E-3	94.7283E-12	692.519E-3	-43.2101E-3
2.65883E-3	95.5111E-12	710.669E-3	-25.1761E-3	94.8143E-12	663.615E-3	-36.8145E-3
2.65383E-3	95.4697E-12	697.295E-3	-22.5384E-3	94.6128E-12	659.684E-3	-14.0860E-3
2.64882E-3	95.4277E-12	692.836E-3	-354.527E-6	94.6202E-12	683.054E-3	437.543E-6
2.64382E-3	95.2136E-12	697.305E-3	-7.76531E-3	94.5477E-12	704.509E-3	-2.05087E-3
2.63882E-3	95.1451E-12	706.130E-3	-12.8257E-3	94.2811E-12	724.909E-3	-10.2971E-3
2.63382E-3	94.6644E-12	706.326E-3	-21.1557E-3	94.0813E-12	726.342E-3	-3.23557E-3
2.62881E-3	94.1947E-12	706.345E-3	-42.9637E-3	94.0259E-12	716.707E-3	11.3666E-3
2.62381E-3	93.8120E-12	717.132E-3	-30.3131E-3	93.9738E-12	717.468E-3	8.91303E-3
2.61881E-3	93.3939E-12	719.699E-3	2.18344E-3	94.0729E-12	712.349E-3	-5.26179E-3
2.61381E-3	92.5711E-12	715.811E-3	14.3684E-3	93.5358E-12	714.767E-3	-14.5954E-3
2.60880E-3	92.4314E-12	719.493E-3	14.2357E-3	93.0405E-12	726.912E-3	-20.7438E-3
2.60380E-3	92.0652E-12	712.727E-3	612.566E-6	92.9940E-12	716.331E-3	-25.3595E-3
2.59880E-3	92.1619E-12	699.572E-3	-24.4264E-3	92.7424E-12	704.336E-3	-26.2031E-3
2.59380E-3	92.0475E-12	696.342E-3	-21.1825E-3	91.7304E-12	706.344E-3	-28.7336E-3
2.58879E-3	91.8882E-12	700.002E-3	-11.0840E-3	91.5849E-12	691.717E-3	-30.3260E-3
2.58379E-3	91.6938E-12	698.524E-3	-21.1095E-3	91.3082E-12	682.767E-3	-31.0676E-3
2.57879E-3	91.8933E-12	697.723E-3	-23.7843E-3	91.4915E-12	700.789E-3	-26.7003E-3
2.57379E-3	91.7483E-12	704.294E-3	-27.8164E-3	91.0340E-12	710.572E-3	-8.35212E-3
2.56878E-3	91.2912E-12	709.997E-3	-32.6780E-3	91.1344E-12	702.409E-3	-8.44876E-3
2.56378E-3	90.8869E-12	711.607E-3	-29.9055E-3	91.1308E-12	711.621E-3	-31.6466E-3
2.55878E-3	90.7197E-12	699.900E-3	-29.4864E-3	91.1987E-12	733.980E-3	-36.1444E-3
2.55378E-3	90.5539E-12	691.580E-3	-21.0065E-3	91.2864E-12	754.741E-3	-27.7163E-3
2.54877E-3	89.7478E-12	706.231E-3	-9.46389E-3	90.9833E-12	778.276E-3	-20.6697E-3
2.54377E-3	89.6250E-12	714.362E-3	-9.68341E-3	91.0398E-12	769.876E-3	-13.1692E-3
2.53877E-3	89.2562E-12	715.636E-3	-22.7983E-3	90.9079E-12	726.051E-3	-13.7594E-3
2.53377E-3	88.9907E-12	733.636E-3	-35.8783E-3	90.7765E-12	709.525E-3	-17.2955E-3
2.52876E-3	88.4463E-12	738.705E-3	-41.8545E-3	90.6138E-12	728.792E-3	-11.6704E-3
2.52376E-3	88.1199E-12	722.634E-3	-46.0531E-3	90.3489E-12	738.267E-3	-13.2479E-3
2.51876E-3	87.8145E-12	717.771E-3	-37.4155E-3	90.0617E-12	739.832E-3	-18.4392E-3
2.51376E-3	87.7191E-12	727.519E-3	-16.6742E-3	89.4057E-12	742.092E-3	-2.62523E-3
2.50875E-3	87.1850E-12	733.618E-3	-12.4155E-3	88.9146E-12	736.867E-3	10.4813E-3
2.50375E-3	87.1911E-12	731.579E-3	-14.8101E-3	88.2054E-12	733.995E-3	-3.11353E-3
2.49875E-3	87.3622E-12	719.877E-3	-10.3757E-3	87.5971E-12	724.642E-3	-25.5808E-3
2.49375E-3	86.9995E-12	706.562E-3	-20.4986E-3	86.8956E-12	703.134E-3	-28.4367E-3
2.48874E-3	86.8747E-12	712.416E-3	-23.8416E-3	86.7635E-12	692.513E-3	-24.0205E-3
2.48374E-3	86.7305E-12	720.832E-3	-12.9133E-3	86.3099E-12	694.553E-3	-25.7098E-3
2.47874E-3	86.2203E-12	722.604E-3	-24.0412E-3	86.3085E-12	712.968E-3	-20.1906E-3
2.47374E-3	85.9206E-12	730.429E-3	-36.8478E-3	86.0314E-12	736.745E-3	-18.0960E-3
2.46873E-3	85.8643E-12	736.704E-3	-19.1862E-3	85.8499E-12	745.033E-3	-21.8431E-3
2.46373E-3	85.2726E-12	735.592E-3	-6.63184E-3	86.0349E-12	751.579E-3	-20.3203E-3
2.45873E-3	85.3114E-12	731.091E-3	-16.1334E-3	85.8024E-12	758.059E-3	-21.2596E-3
2.45373E-3	84.9472E-12	728.822E-3	-20.2394E-3	85.3566E-12	753.187E-3	-35.5661E-3
2.44872E-3	84.4352E-12	729.340E-3	-14.7099E-3	85.2586E-12	742.330E-3	-35.3480E-3
2.44372E-3	84.8567E-12	729.541E-3	-18.0371E-3	85.6959E-12	745.983E-3	-15.1757E-3
2.43872E-3	85.0408E-12	725.942E-3	-18.8785E-3	84.9513E-12	744.832E-3	-7.52553E-3
2.43372E-3	85.0634E-12	720.933E-3	-20.4808E-3	84.7228E-12	715.182E-3	-9.48121E-3
2.42871E-3	84.8179E-12	736.522E-3	-30.0550E-3	84.7098E-12	707.781E-3	-20.9424E-3
2.42371E-3	85.0825E-12	765.961E-3	-21.9814E-3	84.5400E-12	725.331E-3	-37.6078E-3
2.41871E-3	84.9314E-12	775.408E-3	-18.0779E-3	83.7908E-12	731.612E-3	-32.1885E-3
2.41371E-3	84.7844E-12	775.917E-3	-30.7635E-3	83.3062E-12	735.452E-3	-16.7933E-3
2.40870E-3	84.4850E-12	773.205E-3	-27.5810E-3	83.2433E-12	740.098E-3	-17.3566E-3
2.40370E-3	83.9841E-12	759.906E-3	-13.1548E-3	82.8183E-12	734.790E-3	-27.1880E-3
2.39870E-3	83.7378E-12	748.104E-3	-11.6303E-3	82.2942E-12	734.972E-3	-36.4804E-3
2.39370E-3	83.1850E-12	741.946E-3	-18.3677E-3	82.3845E-12	744.589E-3	-37.5090E-3
2.38869E-3	82.2181E-12	737.281E-3	-27.7127E-3	81.6965E-12	739.995E-3	-15.1835E-3
2.38369E-3	81.6472E-12	729.542E-3	-33.8575E-3	81.6534E-12	736.962E-3	8.97273E-3
2.37869E-3	81.2770E-12	728.057E-3	-33.6059E-3	81.3261E-12	735.988E-3	-5.59272E-3
2.37369E-3	80.8578E-12	735.135E-3	-28.6386E-3	81.1557E-12	726.286E-3	-35.6292E-3
2.36868E-3	80.0826E-12	735.572E-3	-24.7579E-3	80.9182E-12	730.357E-3	-45.9783E-3
2.36368E-3	79.8390E-12	723.625E-3	-28.8992E-3	80.5993E-12	746.755E-3	-32.3766E-3
2.35868E-3	79.6172E-12	718.828E-3	-29.3215E-3	80.2612E-12	744.941E-3	-2.00616E-3
2.35368E-3	79.4298E-12	728.502E-3	-23.7386E-3	80.4174E-12	730.019E-3	9.73375E-3
2.34867E-3	79.2785E-12	737.925E-3	-15.7712E-3	80.0169E-12	737.226E-3	-9.43031E-3
2.34367E-3	79.2190E-12	737.597E-3	-8.65914E-3	80.0784E-12	754.948E-3	-25.8204E-3
2.33867E-3	79.1984E-12	735.674E-3	-11.4623E-3	80.0617E-12	758.106E-3	-26.6141E-3
2.33367E-3	79.2423E-12	736.825E-3	-8.44895E-3	79.9042E-12	752.748E-3	-21.9007E-3
2.32866E-3	79.3877E-12	733.711E-3	-5.22386E-3	79.6525E-12	735.906E-3	-11.0820E-3
2.32366E-3	79.4269E-12	747.634E-3	-22.2990E-3	79.3470E-12	724.449E-3	-5.28443E-3
2.31866E-3	79.1991E-12	768.942E-3	-34.0656E-3	78.6956E-12	739.569E-3	-26.8624E-3
2.31366E-3	78.8826E-12	767.945E-3	-32.3789E-3	78.8286E-12	754.052E-3	-49.1477E-3
2.30865E-3	78.7929E-12	756.127E-3	-19.5359E-3	78.8278E-12	757.751E-3	-32.8552E-3
2.30365E-3	78.4355E-12	756.499E-3	2.74037E-3	78.1492E-12	751.215E-3	-11.3517E-3
2.29865E-3	77.8289E-12	762.645E-3	8.11019E-3	77.7742E-12	740.795E-3	-14.6215E-3
2.29365E-3	77.2119E-12	759.146E-3	3.25266E-3	77.9562E-12	752.204E-3	-17.3991E-3
2.28864E-3	76.9043E-12	750.258E-3	6.92315E-3	77.8095E-12	774.688E-3	-7.61591E-3
2.28364E-3	76.4623E-12	740.126E-3	-13.0391E-3	77.2648E-12	779.645E-3	-327.541E-6
2.27864E-3	75.9320E-12	736.971E-3	-41.7563E-3	76.6936E-12	766.916E-3	-2.56695E-3
2.27364E-3	75.5085E-12	742.129E-3	-42.0692E-3	76.7970E-12	762.722E-3	1.32862E-3
2.26863E-3	75.1951E-12	744.170E-3	-34.3521E-3	76.4261E-12	778.622E-3	-213.248E-6
2.26363E-3	75.2445E-12	742.546E-3	-23.8900E-3	76.3460E-12	790.574E-3	-6.83850E-3
2.25863E-3	74.9835E-12	737.661E-3	-15.0091E-3	76.0134E-12	795.367E-3	-2.13668E-3
2.25363E-3	74.7912E-12	730.738E-3	-8.44921E-3	75.8513E-12	797.901E-3	-8.43499E-3
2.24862E-3	74.6428E-12	735.770E-3	-7.08711E-3	75.5332E-12	785.188E-3	-31.7669E-3
2.24362E-3	74.6808E-12	747.972E-3	-24.1021E-3	75.4172E-12	757.853E-3	-38.7825E-3
2.23862E-3	74.6879E-12	746.144E-3	-36.0091E-3	75.0622E-12	735.017E-3	-20.3402E-3
2.23362E-3	74.9230E-12	736.049E-3	-31.4759E-3	74.8455E-12	732.634E-3	-13.4005E-3
2.22861E-3	74.7517E-12	739.143E-3	-19.7037E-3	74.8340E-12	743.430E-3	-26.9472E-3
2.22361E-3	74.8750E-12	754.676E-3	-11.8374E-3	74.7014E-12	750.704E-3	-31.5233E-3
2.21861E-3	74.5666E-12	754.912E-3	-13.7761E-3	74.3580E-12	747.473E-3	-27.2158E-3
2.21361E-3	74.3193E-12	738.968E-3	-16.0287E-3	73.9860E-12	748.763E-3	-22.1822E-3
2.20860E-3	73.7472E-12	741.833E-3	-14.0257E-3	73.5847E-12	752.888E-3	-12.6371E-3
2.20360E-3	73.4320E-12	760.155E-3	-4.86361E-3	73.1566E-12	756.928E-3	-7.32043E-3
2.19860E-3	72.7094E-12	765.833E-3	-9.85976E-3	72.9148E-12	776.205E-3	-12.9073E-3
2.19360E-3	72.4917E-12	769.690E-3	-27.6846E-3	72.5151E-12	787.834E-3	-22.6867E-3
2.18859E-3	72.0549E-12	785.200E-3	-30.9808E-3	72.1239E-12	790.251E-3	-25.1830E-3
2.18359E-3	71.7141E-12	793.854E-3	-17.7948E-3	71.5064E-12	793.192E-3	-30.7972E-3
2.17859E-3	71.1890E-12	785.842E-3	-3.01918E-3	71.6007E-12	768.589E-3	-36.8219E-3
2.17359E-3	71.1822E-12	767.924E-3	-715.140E-6	71.3424E-12	739.517E-3	-22.4473E-3
2.16858E-3	71.0753E-12	761.518E-3	-6.84707E-3	71.0507E-12	746.024E-3	-10.7587E-3
2.16358E-3	70.7087E-12	773.391E-3	-11.4026E-3	70.4943E-12	763.664E-3	-14.9126E-3
2.15858E-3	70.4378E-12	779.648E-3	-7.80506E-3	70.4597E-12	773.313E-3	-21.1333E-3
2.15358E-3	70.2962E-12	777.087E-3	-745.893E-6	70.2337E-12	773.252E-3	-18.8542E-3
2.14857E-3	70.0931E-12	767.987E-3	4.03243E-3	69.8432E-12	752.252E-3	-12.9586E-3
2.14357E-3	69.7264E-12	764.055E-3	11.6980E-3	69.6726E-12	733.697E-3	-16.3424E-3
2.13857E-3	69.4484E-12	774.001E-3	8.57465E-3	69.5572E-12	744.246E-3	-22.7057E-3
2.13357E-3	69.2516E-12	774.713E-3	-12.4864E-3	69.5319E-12	761.109E-3	-31.4666E-3
2.12856E-3	69.1421E-12	768.441E-3	-18.9441E-3	69.1843E-12	771.004E-3	-28.1746E-3
2.12356E-3	68.9682E-12	767.116E-3	-9.05748E-3	69.2291E-12	780.137E-3	-11.2846E-3
2.11856E-3	68.6286E-12	768.348E-3	-4.88532E-3	68.7998E-12	790.483E-3	-7.85997E-3
2.11356E-3	68.2655E-12	767.962E-3	-15.7531E-3	68.4449E-12	800.826E-3	-3.93977E-3
2.10855E-3	67.8087E-12	766.017E-3	-27.4641E-3	68.4445E-12	786.363E-3	3.69176E-3
2.10355E-3	67.7525E-12	771.130E-3	-27.5202E-3	68.1367E-12	771.811E-3	-6.79491E-3
2.09855E-3	67.1722E-12	774.493E-3	-25.3597E-3	67.9136E-12	791.083E-3	-12.1044E-3
2.09355E-3	66.9101E-12	776.056E-3	-17.1449E-3	67.3798E-12	815.264E-3	-13.0836E-3
2.08854E-3	66.7731E-12	777.748E-3	-7.40826E-3	67.2556E-12	821.085E-3	-25.2795E-3
2.08354E-3	66.4736E-12	764.103E-3	-3.47451E-3	66.9667E-12	814.329E-3	-15.6919E-3
2.07854E-3	66.0858E-12	761.385E-3	-454.659E-6	66.7361E-12	812.568E-3	7.30208E-3
2.07354E-3	65.8075E-12	774.393E-3	4.88716E-3	65.9948E-12	817.658E-3	2.98829E-3
2.06853E-3	65.7490E-12	780.016E-3	8.92252E-3	65.8755E-12	820.457E-3	-8.40261E-3
2.06353E-3	65.2087E-12	792.541E-3	711.051E-6	65.7135E-12	819.538E-3	-6.78490E-3
2.05853E-3	64.9121E-12	804.076E-3	-21.9535E-3	65.4685E-12	813.942E-3	-11.9956E-3
2.05353E-3	64.7938E-12	796.817E-3	-35.1280E-3	65.0045E-12	817.304E-3	-16.7522E-3
2.04852E-3	64.5228E-12	788.391E-3	-23.7069E-3	64.5458E-12	825.374E-3	-12.2342E-3
2.04352E-3	63.9026E-12	797.068E-3	-12.7159E-3	64.5223E-12	816.336E-3	-16.3260E-3
2.03852E-3	63.5895E-12	802.735E-3	-21.3139E-3	64.5190E-12	794.209E-3	-23.4341E-3
2.03352E-3	63.4312E-12	792.479E-3	-29.7544E-3	64.1409E-12	791.145E-3	-20.0734E-3
2.02851E-3	63.2447E-12	798.166E-3	-31.3817E-3	63.7464E-12	814.893E-3	-14.7496E-3
2.02351E-3	62.9844E-12	818.543E-3	-28.7688E-3	63.7206E-12	823.610E-3	-14.5837E-3
2.01851E-3	62.8830E-12	823.008E-3	-13.8752E-3	63.4609E-12	813.583E-3	-17.2714E-3
2.01351E-3	62.7701E-12	814.170E-3	-3.57909E-3	63.0424E-12	810.798E-3	-20.5909E-3
2.00850E-3	62.7222E-12	812.006E-3	-6.25367E-3	62.8243E-12	813.899E-3	-22.7077E-3
2.00350E-3	62.6020E-12	806.435E-3	-10.5417E-3	62.4913E-12	825.509E-3	-20.4608E-3
1.99850E-3	62.2488E-12	792.768E-3	-5.62932E-3	62.3714E-12	843.073E-3	-20.3395E-3
1.99350E-3	62.0668E-12	796.589E-3	6.07422E-3	62.1731E-12	849.357E-3	-23.5326E-3
1.98849E-3	61.9886E-12	813.217E-3	2.90479E-3	61.8326E-12	850.959E-3	-14.2182E-3
1.98349E-3	61.8451E-12	819.805E-3	-13.7255E-3	61.4312E-12	850.773E-3	-6.64600E-3
1.97849E-3	61.5325E-12	824.325E-3	-21.7629E-3	61.4508E-12	843.340E-3	-17.9037E-3
1.97349E-3	61.3373E-12	833.114E-3	-22.9176E-3	60.9103E-12	838.739E-3	-20.1869E-3
1.96848E-3	60.9297E-12	838.872E-3	-11.0604E-3	60.7312E-12	837.451E-3	-11.4939E-3
1.96348E-3	60.5892E-12	844.864E-3	-1.16363E-3	60.1836E-12	833.565E-3	-12.9851E-3
1.95848E-3	60.1063E-12	846.819E-3	-18.6649E-3	60.1998E-12	839.058E-3	-16.4800E-3
1.95348E-3	59.6818E-12	840.531E-3	-34.2763E-3	59.9934E-12	853.711E-3	-16.0694E-3
1.94847E-3	59.0961E-12	834.894E-3	-35.3820E-3	59.8044E-12	859.577E-3	-24.2439E-3
1.94347E-3	58.7231E-12	830.436E-3	-29.5160E-3	59.5668E-12	847.870E-3	-29.8424E-3
1.93847E-3	58.1455E-12	823.785E-3	-13.1527E-3	59.2910E-12	831.644E-3	-17.6355E-3
1.93347E-3	57.8073E-12	832.443E-3	-8.59306E-3	58.9856E-12	832.198E-3	-7.95355E-3
1.92846E-3	57.4355E-12	850.012E-3	-27.8041E-3	58.6009E-12	840.041E-3	-10.5430E-3
1.92346E-3	57.1628E-12	838.858E-3	-46.8020E-3	58.4986E-12	844.966E-3	-11.0533E-3
1.91846E-3	57.2339E-12	815.400E-3	-39.8412E-3	57.9284E-12	858.282E-3	-11.0421E-3
1.91346E-3	57.0819E-12	819.605E-3	-8.06510E-3	57.5126E-12	871.628E-3	-3.82189E-3
1.90845E-3	56.8193E-12	836.609E-3	8.03483E-3	57.3809E-12	869.786E-3	-3.43678E-3
1.90345E-3	56.6187E-12	846.729E-3	-344.840E-6	57.3604E-12	866.483E-3	-22.3802E-3
1.89845E-3	56.3912E-12	851.912E-3	-3.43808E-3	56.7725E-12	875.141E-3	-22.6075E-3
1.89345E-3	56.3828E-12	843.370E-3	-2.09564E-3	56.2249E-12	887.912E-3	-5.80409E-3
1.88844E-3	55.9172E-12	839.965E-3	-1.71883E-3	56.2694E-12	884.473E-3	-584.429E-6
1.88344E-3	55.6813E-12	863.277E-3	-3.88947E-3	55.9854E-12	872.799E-3	-7.83061E-3
1.87844E-3	55.5893E-12	887.006E-3	-20.1186E-3	55.3208E-12	882.533E-3	-12.4945E-3
1.87344E-3	55.4662E-12	897.005E-3	-32.7192E-3	54.7120E-12	893.785E-3	-9.82297E-3
1.86843E-3	55.0178E-12	891.948E-3	-23.8298E-3	54.5018E-12	883.154E-3	-6.73452E-3
1.86343E-3	54.6184E-12	880.010E-3	-7.84881E-3	54.2191E-12	874.100E-3	-9.19963E-3
1.85843E-3	54.1207E-12	886.193E-3	-2.85986E-3	53.9289E-12	875.766E-3	-18.7066E-3
1.85343E-3	53.8334E-12	894.211E-3	935.224E-6	53.2579E-12	885.444E-3	-24.1705E-3
1.84842E-3	53.1497E-12	883.509E-3	13.3387E-3	53.2324E-12	901.277E-3	-27.3725E-3
1.84342E-3	52.8854E-12	870.048E-3	5.35333E-3	53.0880E-12	910.308E-3	-28.8124E-3
1.83842E-3	52.6191E-12	868.442E-3	-18.5809E-3	52.8201E-12	901.855E-3	-19.9991E-3
1.83342E-3	52.3738E-12	874.876E-3	-20.3792E-3	52.7446E-12	886.787E-3	-15.6264E-3
1.82841E-3	52.3042E-12	883.874E-3	-9.65316E-3	52.6920E-12	891.421E-3	-30.5141E-3
1.82341E-3	52.1188E-12	882.045E-3	-12.3375E-3	52.2167E-12	909.224E-3	-46.0905E-3
1.81841E-3	51.9043E-12	867.587E-3	-20.7893E-3	51.9051E-12	916.870E-3	-35.6040E-3
1.81341E-3	51.6559E-12	863.959E-3	-20.3641E-3	51.8795E-12	916.768E-3	-6.00723E-3
1.80840E-3	51.5282E-12	881.394E-3	-4.43811E-3	51.6208E-12	921.002E-3	12.5558E-3
1.80340E-3	51.2894E-12	905.345E-3	3.27911E-3	51.1525E-12	923.697E-3	-405.073E-6
1.79840E-3	50.9470E-12	923.742E-3	-15.0352E-3	50.8214E-12	920.252E-3	-23.0765E-3
1.79340E-3	50.6325E-12	937.287E-3	-30.2499E-3	50.5750E-12	919.793E-3	-20.9824E-3
1.78839E-3	50.1292E-12	937.985E-3	-32.3225E-3	50.2351E-12	929.661E-3	-5.64284E-3
1.78339E-3	50.0147E-12	931.116E-3	-32.8115E-3	49.7081E-12	927.575E-3	1.07654E-3
1.77839E-3	49.7753E-12	939.293E-3	-38.1176E-3	49.1807E-12	915.935E-3	-2.62462E-3
1.77339E-3	49.3011E-12	956.934E-3	-39.9314E-3	48.8106E-12	933.669E-3	-6.12282E-3
1.76838E-3	48.8178E-12	956.707E-3	-26.6140E-3	48.6813E-12	952.500E-3	209.865E-6
1.76338E-3	48.3796E-12	946.939E-3	-10.2721E-3	48.1273E-12	936.513E-3	7.47689E-3
1.75838E-3	47.9912E-12	951.331E-3	3.52694E-3	47.4868E-12	926.922E-3	10.3287E-3
1.75338E-3	47.6217E-12	965.854E-3	11.5722E-3	47.2151E-12	942.901E-3	602.756E-6
1.74837E-3	47.1255E-12	974.010E-3	-943.604E-6	47.1703E-12	957.121E-3	-22.7911E-3
1.74337E-3	46.7417E-12	964.749E-3	-24.6412E-3	46.6875E-12	966.186E-3	-26.7598E-3
1.73837E-3	46.5543E-12	947.701E-3	-34.2701E-3	46.2721E-12	967.872E-3	-6.30248E-3
1.73337E-3	46.0980E-12	938.768E-3	-23.8455E-3	46.2266E-12	954.827E-3	5.83327E-3
1.72836E-3	45.8411E-12	938.188E-3	-4.25136E-3	46.0090E-12	952.977E-3	-8.59688E-3
1.72336E-3	45.3847E-12	939.485E-3	-2.41305E-3	45.9537E-12	977.135E-3	-33.4656E-3
1.71836E-3	45.1799E-12	949.529E-3	-15.3725E-3	45.6886E-12	1.01205E+0	-37.6500E-3
1.71336E-3	44.8583E-12	955.994E-3	-11.2712E-3	45.3874E-12	1.03207E+0	-25.7344E-3
1.70835E-3	44.6949E-12	958.195E-3	-3.92477E-3	45.1699E-12	1.02813E+0	-23.2336E-3
1.70335E-3	44.3034E-12	977.603E-3	-6.55540E-3	45.0083E-12	1.02199E+0	-21.6441E-3
1.69835E-3	44.0326E-12	996.285E-3	3.29091E-3	44.4897E-12	1.02150E+0	-11.7495E-3
1.69335E-3	43.7200E-12	1.00096E+0	11.4235E-3	44.0691E-12	1.01879E+0	-9.48349E-3
1.68834E-3	43.6243E-12	1.00326E+0	-922.110E-6	43.6784E-12	1.01702E+0	-12.0980E-3
1.68334E-3	43.2724E-12	1.00017E+0	-13.0379E-3	43.2250E-12	1.02344E+0	-18.1963E-3
1.67834E-3	42.7173E-12	1.00306E+0	-26.2343E-3	42.8073E-12	1.02866E+0	-23.3776E-3
1.67334E-3	42.1982E-12	1.02151E+0	-33.5693E-3	42.4162E-12	1.02710E+0	-18.1390E-3
1.66833E-3	42.1104E-12	1.02880E+0	-13.1416E-3	41.9269E-12	1.03434E+0	-9.82102E-3
1.66333E-3	41.7487E-12	1.02927E+0	1.01721E-3	41.4063E-12	1.05187E+0	-6.92995E-3
1.65833E-3	41.1977E-12	1.03286E+0	-6.30232E-3	41.0812E-12	1.04929E+0	-9.56256E-3
1.65333E-3	40.8568E-12	1.03358E+0	-12.0965E-3	40.7176E-12	1.03205E+0	-10.2376E-3
1.64832E-3	40.6050E-12	1.03936E+0	-18.4007E-3	40.3308E-12	1.03552E+0	-14.1378E-3
1.64332E-3	40.4750E-12	1.05113E+0	-29.1925E-3	39.8853E-12	1.05291E+0	-13.7844E-3
1.63832E-3	39.9875E-12	1.05464E+0	-26.4782E-3	39.5955E-12	1.06339E+0	-2.59635E-3
1.63332E-3	39.5806E-12	1.04255E+0	-16.9809E-3	39.5975E-12	1.06962E+0	-1.78108E-3
1.62831E-3	39.3975E-12	1.03574E+0	-18.8069E-3	39.3113E-12	1.08465E+0	-5.02855E-3
1.62331E-3	39.2372E-12	1.05259E+0	-11.3993E-3	38.8396E-12	1.10528E+0	-1.41528E-3
1.61831E-3	38.7041E-12	1.07883E+0	-6.19196E-3	38.6044E-12	1.12058E+0	-8.03156E-3
1.61331E-3	38.1184E-12	1.09015E+0	-21.8799E-3	38.4415E-12	1.12677E+0	-17.6385E-3
1.60830E-3	37.9058E-12	1.08749E+0	-27.1985E-3	38.1577E-12	1.12194E+0	-15.8524E-3
1.60330E-3	37.6040E-12	1.08253E+0	-14.1230E-3	37.6594E-12	1.12065E+0	-12.3547E-3
1.59830E-3	37.3125E-12	1.08213E+0	-7.73841E-3	37.3475E-12	1.12635E+0	-18.6608E-3
1.59330E-3	36.7874E-12	1.09110E+0	-15.1824E-3	36.9752E-12	1.13049E+0	-31.1846E-3
1.58829E-3	36.5523E-12	1.09846E+0	-19.2469E-3	36.5696E-12	1.13611E+0	-36.2891E-3
1.58329E-3	36.3286E-12	1.09688E+0	-21.1858E-3	36.2051E-12	1.13036E+0	-20.1140E-3
1.57829E-3	35.9193E-12	1.10063E+0	-29.2738E-3	35.7792E-12	1.11144E+0	149.483E-6
1.57329E-3	35.5345E-12	1.10870E+0	-24.2014E-3	35.4425E-12	1.10370E+0	-10.0824E-3
1.56828E-3	35.1257E-12	1.11614E+0	-19.1466E-3	34.9720E-12	1.11263E+0	-26.4530E-3
1.56328E-3	34.7979E-12	1.12866E+0	-22.3507E-3	34.6820E-12	1.13223E+0	-16.6803E-3
1.55828E-3	34.4089E-12	1.13661E+0	-19.3647E-3	34.3002E-12	1.16051E+0	-8.33269E-3
1.55328E-3	34.1330E-12	1.13211E+0	-17.4618E-3	33.8010E-12	1.17944E+0	-19.7109E-3
1.54827E-3	33.7598E-12	1.13242E+0	-13.9564E-3	33.3526E-12	1.18093E+0	-26.0975E-3
1.54327E-3	33.3019E-12	1.15218E+0	-5.55287E-3	33.0290E-12	1.17357E+0	-31.8616E-3
1.53827E-3	32.8102E-12	1.17403E+0	-1.35356E-3	32.9314E-12	1.16082E+0	-41.3996E-3
1.53327E-3	32.6137E-12	1.17913E+0	1.00884E-3	32.4308E-12	1.16234E+0	-30.5678E-3
1.52826E-3	32.1275E-12	1.17291E+0	-4.50472E-3	31.8860E-12	1.17535E+0	-16.5654E-3
1.52326E-3	31.4857E-12	1.17108E+0	-15.8171E-3	31.5410E-12	1.18010E+0	-13.7910E-3
1.51826E-3	30.9485E-12	1.17613E+0	-17.0364E-3	31.5218E-12	1.18642E+0	-20.5193E-3
1.51326E-3	30.6065E-12	1.17605E+0	-12.4086E-3	30.9099E-12	1.19499E+0	-31.8442E-3
1.50825E-3	30.3323E-12	1.16067E+0	-20.1055E-3	30.4207E-12	1.18652E+0	-27.4192E-3
1.50325E-3	29.7471E-12	1.14861E+0	-30.7772E-3	30.0836E-12	1.17459E+0	-13.4247E-3
1.49825E-3	29.2650E-12	1.15809E+0	-27.2359E-3	29.9776E-12	1.18041E+0	-13.8304E-3
1.49325E-3	28.9666E-12	1.17455E+0	-20.9419E-3	29.4779E-12	1.19610E+0	-27.6562E-3
1.48824E-3	28.6993E-12	1.17921E+0	-20.1656E-3	29.0548E-12	1.20651E+0	-33.8318E-3
1.48324E-3	28.2451E-12	1.16747E+0	-28.1860E-3	28.7153E-12	1.21116E+0	-32.2526E-3
1.47824E-3	27.8126E-12	1.16203E+0	-33.8319E-3	28.3459E-12	1.21233E+0	-29.4350E-3
1.47324E-3	27.4173E-12	1.17143E+0	-26.7992E-3	27.9512E-12	1.19611E+0	-23.1661E-3
1.46823E-3	27.1001E-12	1.17546E+0	-11.3328E-3	27.5034E-12	1.18298E+0	-24.3938E-3
1.46323E-3	26.6382E-12	1.17427E+0	-10.4115E-3	26.9974E-12	1.18785E+0	-31.2623E-3
1.45823E-3	26.2783E-12	1.17186E+0	-26.4216E-3	26.4088E-12	1.19145E+0	-29.0134E-3
1.45323E-3	25.7273E-12	1.16339E+0	-23.6318E-3	26.0862E-12	1.19445E+0	-13.6086E-3
1.44822E-3	25.3338E-12	1.15850E+0	-15.0451E-3	25.5938E-12	1.18702E+0	-8.56924E-3
1.44322E-3	24.9272E-12	1.16863E+0	-17.6444E-3	25.0076E-12	1.16965E+0	-19.2434E-3
1.43822E-3	24.5879E-12	1.18072E+0	-11.7414E-3	24.5535E-12	1.15980E+0	-28.8947E-3
1.43322E-3	24.2306E-12	1.18663E+0	-11.6278E-3	24.2768E-12	1.15743E+0	-29.8870E-3
1.42821E-3	23.8041E-12	1.18775E+0	-26.6456E-3	23.8488E-12	1.17072E+0	-18.6338E-3
1.42321E-3	23.4751E-12	1.17422E+0	-28.6350E-3	23.3291E-12	1.19045E+0	-14.7373E-3
1.41821E-3	22.9156E-12	1.16070E+0	-16.6707E-3	22.8782E-12	1.18747E+0	-22.1143E-3
1.41321E-3	22.5645E-12	1.16804E+0	-8.61381E-3	22.4440E-12	1.17644E+0	-17.7898E-3
1.40820E-3	22.2207E-12	1.17655E+0	-15.3586E-3	22.2469E-12	1.17038E+0	-5.69895E-3
1.40320E-3	21.8986E-12	1.17245E+0	-29.9482E-3	22.0921E-12	1.15602E+0	-9.95301E-3
1.39820E-3	21.5515E-12	1.16756E+0	-32.8037E-3	21.6645E-12	1.14895E+0	-22.8915E-3
1.39320E-3	21.3608E-12	1.16116E+0	-25.7710E-3	21.2712E-12	1.15656E+0	-28.6117E-3
1.38819E-3	20.9970E-12	1.16374E+0	-16.7692E-3	21.0519E-12	1.15670E+0	-30.2433E-3
1.38319E-3	20.6543E-12	1.17444E+0	-13.6544E-3	20.9156E-12	1.14110E+0	-21.8561E-3
1.37819E-3	20.3416E-12	1.17111E+0	-15.9442E-3	20.3867E-12	1.12415E+0	-16.4107E-3
1.37319E-3	20.0719E-12	1.15531E+0	-18.3287E-3	19.9194E-12	1.11518E+0	-23.6492E-3
1.36818E-3	19.6209E-12	1.14457E+0	-31.0892E-3	19.5627E-12	1.10186E+0	-17.6682E-3
1.36318E-3	19.1365E-12	1.14006E+0	-43.4532E-3	19.2446E-12	1.09012E+0	-4.53425E-3
1.35818E-3	18.7930E-12	1.13449E+0	-29.4096E-3	18.8994E-12	1.08594E+0	-6.71808E-3
1.35318E-3	18.5233E-12	1.13175E+0	-8.66378E-3	18.3339E-12	1.07018E+0	-21.4542E-3
1.34817E-3	18.1277E-12	1.12576E+0	-4.88514E-3	17.8019E-12	1.05798E+0	-32.7295E-3
1.34317E-3	17.5621E-12	1.11360E+0	-4.93182E-3	17.4897E-12	1.06049E+0	-35.5897E-3
1.33817E-3	17.2460E-12	1.10469E+0	-9.83470E-3	17.1075E-12	1.04884E+0	-31.4797E-3
1.33317E-3	16.9243E-12	1.09000E+0	-14.2242E-3	16.6842E-12	1.03230E+0	-20.9450E-3
1.32816E-3	16.5918E-12	1.07058E+0	-19.4664E-3	16.1808E-12	1.01295E+0	-18.6800E-3
1.32316E-3	16.1492E-12	1.06781E+0	-35.3020E-3	15.8750E-12	984.449E-3	-22.3872E-3
1.31816E-3	15.8002E-12	1.06088E+0	-41.8007E-3	15.6049E-12	976.618E-3	-23.5860E-3
1.31316E-3	15.4971E-12	1.03121E+0	-33.5014E-3	15.2368E-12	971.866E-3	-28.3365E-3
1.30815E-3	15.2103E-12	1.01455E+0	-30.2095E-3	14.9506E-12	956.536E-3	-21.6826E-3
1.30315E-3	14.9298E-12	1.01521E+0	-29.6405E-3	14.6272E-12	948.122E-3	-8.31410E-3
1.29815E-3	14.6062E-12	1.00475E+0	-16.8846E-3	14.4560E-12	939.452E-3	-12.0712E-3
1.29315E-3	14.2591E-12	988.090E-3	-8.65843E-3	14.1088E-12	931.070E-3	-18.5569E-3
1.28814E-3	13.9824E-12	983.678E-3	-17.6698E-3	13.9439E-12	928.121E-3	-20.8040E-3
1.28314E-3	13.7629E-12	979.239E-3	-29.4104E-3	13.5933E-12	914.527E-3	-22.3747E-3
1.27814E-3	13.4081E-12	964.651E-3	-29.3853E-3	13.2966E-12	884.983E-3	-10.9320E-3
1.27314E-3	13.0205E-12	947.446E-3	-16.6163E-3	13.0270E-12	862.177E-3	1.52404E-3
1.26813E-3	12.6560E-12	920.804E-3	-10.9341E-3	12.8204E-12	848.630E-3	-4.42087E-3
1.26313E-3	12.4805E-12	895.945E-3	-22.1569E-3	12.4782E-12	835.267E-3	-11.9689E-3
1.25813E-3	12.1931E-12	892.775E-3	-30.8407E-3	12.0914E-12	826.419E-3	-7.73502E-3
1.25313E-3	11.7999E-12	892.758E-3	-20.8569E-3	11.8164E-12	817.681E-3	-9.11639E-3
1.24812E-3	11.4855E-12	875.426E-3	-8.62643E-3	11.5968E-12	799.130E-3	-10.8175E-3
1.24312E-3	11.2672E-12	853.595E-3	-14.8759E-3	11.2216E-12	781.263E-3	-13.3281E-3
1.23812E-3	11.0929E-12	832.839E-3	-23.0881E-3	10.8064E-12	767.770E-3	-28.2646E-3
1.23312E-3	10.7402E-12	813.926E-3	-23.2987E-3	10.5974E-12	747.308E-3	-28.9268E-3
1.22811E-3	10.4151E-12	795.362E-3	-20.7363E-3	10.4539E-12	734.020E-3	-11.6997E-3
1.22311E-3	10.1516E-12	771.800E-3	-20.0412E-3	10.1726E-12	724.846E-3	-10.4237E-3
1.21811E-3	9.97867E-12	752.740E-3	-27.9815E-3	9.80260E-12	695.316E-3	-23.2937E-3
1.21311E-3	9.68867E-12	739.124E-3	-23.1309E-3	9.52543E-12	676.247E-3	-29.3423E-3
1.20810E-3	9.37556E-12	722.451E-3	-8.73138E-3	9.44360E-12	682.617E-3	-25.5103E-3
1.20310E-3	9.16951E-12	703.147E-3	-3.06519E-3	9.21134E-12	668.272E-3	-18.3929E-3
1.19810E-3	8.96687E-12	685.838E-3	668.405E-6	9.03166E-12	639.435E-3	-10.0608E-3
1.19310E-3	8.80020E-12	668.564E-3	-2.49485E-3	8.72908E-12	620.046E-3	-8.67219E-3
1.18809E-3	8.56671E-12	648.144E-3	-15.4434E-3	8.57939E-12	597.324E-3	-12.1711E-3
1.18309E-3	8.33050E-12	637.731E-3	-15.6412E-3	8.45778E-12	592.059E-3	-11.6711E-3
1.17809E-3	8.16021E-12	638.426E-3	2.45264E-3	8.21053E-12	597.503E-3	-6.86706E-3
1.17309E-3	8.01798E-12	623.280E-3	4.48849E-3	7.94736E-12	574.100E-3	8.52993E-3
1.16808E-3	7.83062E-12	602.890E-3	-10.4217E-3	7.71522E-12	538.230E-3	15.1005E-3
1.16308E-3	7.61787E-12	579.053E-3	-15.0896E-3	7.52235E-12	514.610E-3	593.410E-6
1.15808E-3	7.38413E-12	550.085E-3	-16.0126E-3	7.38453E-12	501.308E-3	-15.9259E-3
1.15308E-3	7.22605E-12	543.974E-3	-23.8890E-3	7.25377E-12	496.748E-3	-22.7134E-3
1.14807E-3	7.07741E-12	541.657E-3	-21.7866E-3	6.96275E-12	489.211E-3	-23.8210E-3
1.14307E-3	6.95203E-12	526.733E-3	-12.2652E-3	6.76769E-12	457.450E-3	-25.5718E-3
1.13807E-3	6.68813E-12	518.899E-3	-18.3689E-3	6.74711E-12	428.165E-3	-23.5395E-3
1.13307E-3	6.54080E-12	514.174E-3	-21.9642E-3	6.58951E-12	433.951E-3	-12.6981E-3
1.12806E-3	6.36879E-12	486.882E-3	-4.58948E-3	6.34590E-12	429.138E-3	-10.5572E-3
1.12306E-3	6.31939E-12	462.319E-3	3.77958E-3	6.09041E-12	396.466E-3	-17.4837E-3
1.11806E-3	6.06826E-12	465.282E-3	-6.16186E-3	6.03828E-12	382.463E-3	-15.0960E-3
1.11306E-3	5.86269E-12	455.885E-3	-13.4615E-3	5.95476E-12	376.735E-3	-18.0795E-3
1.10805E-3	5.74927E-12	425.691E-3	-18.3991E-3	5.81635E-12	364.003E-3	-29.0431E-3
1.10305E-3	5.70081E-12	410.133E-3	-17.9781E-3	5.56433E-12	352.917E-3	-30.9704E-3
1.09805E-3	5.50509E-12	409.614E-3	-12.4988E-3	5.45837E-12	329.396E-3	-30.0366E-3
1.09305E-3	5.33568E-12	399.108E-3	-14.1318E-3	5.38133E-12	306.736E-3	-25.7607E-3
1.08804E-3	5.22303E-12	381.729E-3	-12.8809E-3	5.30537E-12	303.681E-3	-24.1550E-3
1.08304E-3	5.17487E-12	363.114E-3	-1.64812E-3	5.09956E-12	303.045E-3	-31.3372E-3
1.07804E-3	5.15523E-12	339.949E-3	756.443E-6	4.95860E-12	286.779E-3	-19.0639E-3
1.07304E-3	4.96546E-12	323.317E-3	-7.39380E-3	4.91471E-12	275.370E-3	792.812E-6
1.06803E-3	4.81040E-12	321.214E-3	-12.2827E-3	4.76152E-12	272.042E-3	-5.40824E-3
1.06303E-3	4.73369E-12	322.609E-3	-12.1136E-3	4.70730E-12	263.353E-3	-21.0234E-3
1.05803E-3	4.72806E-12	315.373E-3	-12.0734E-3	4.60828E-12	265.208E-3	-28.7535E-3
1.05303E-3	4.62622E-12	302.403E-3	-6.93508E-3	4.52512E-12	262.652E-3	-18.3287E-3
1.04802E-3	4.46279E-12	288.054E-3	3.38387E-3	4.49765E-12	245.577E-3	2.40587E-3
1.04302E-3	4.40913E-12	270.466E-3	-1.82701E-3	4.51926E-12	233.502E-3	1.03941E-3
1.03802E-3	4.39225E-12	248.302E-3	-11.6444E-3	4.38523E-12	215.749E-3	-16.3867E-3
1.03302E-3	4.29349E-12	228.719E-3	-8.69460E-3	4.21795E-12	197.196E-3	-26.7564E-3
1.02801E-3	4.03161E-12	218.749E-3	-6.80170E-3	4.01531E-12	199.120E-3	-25.9975E-3
1.02301E-3	3.76296E-12	214.835E-3	-17.7095E-3	3.88821E-12	199.203E-3	-20.7223E-3
1.01801E-3	3.74095E-12	209.829E-3	-31.1850E-3	3.84551E-12	181.647E-3	-11.8658E-3
1.01301E-3	3.76954E-12	203.944E-3	-30.5795E-3	3.65653E-12	174.958E-3	-8.52107E-3
1.00800E-3	3.65494E-12	195.521E-3	-25.0916E-3	3.59435E-12	169.758E-3	-22.9009E-3
1.00300E-3	3.48494E-12	182.559E-3	-24.4667E-3	3.58571E-12	152.182E-3	-31.6489E-3
997.999E-6	3.48474E-12	174.621E-3	-17.5195E-3	3.54356E-12	151.132E-3	-22.6435E-3
992.997E-6	3.48744E-12	171.022E-3	-9.43021E-3	3.37444E-12	149.922E-3	-15.0585E-3
987.994E-6	3.42010E-12	165.296E-3	-14.9538E-3	3.26561E-12	135.850E-3	-5.91427E-3
982.991E-6	3.28983E-12	161.490E-3	-26.2067E-3	3.34148E-12	140.883E-3	1.42987E-3
977.989E-6	3.18343E-12	159.926E-3	-21.8914E-3	3.34612E-12	143.835E-3	-13.1404E-3
972.986E-6	3.21935E-12	153.013E-3	-7.56240E-3	3.27280E-12	133.000E-3	-22.1328E-3
967.984E-6	3.23365E-12	143.536E-3	-8.75866E-3	3.15613E-12	142.444E-3	-7.50058E-3
962.981E-6	3.17516E-12	138.863E-3	-13.7687E-3	3.08832E-12	148.637E-3	-12.4664E-3
957.979E-6	3.07909E-12	146.159E-3	-8.04170E-3	3.16487E-12	130.076E-3	-32.7825E-3
952.976E-6	3.08710E-12	144.942E-3	-9.82575E-3	3.18232E-12	120.007E-3	-29.8653E-3
947.974E-6	2.95587E-12	115.049E-3	-21.0187E-3	3.11244E-12	123.459E-3	-28.2415E-3
942.971E-6	3.01907E-12	87.7964E-3	-19.6101E-3	2.98346E-12	117.578E-3	-33.8854E-3
937.969E-6	2.96140E-12	91.8930E-3	-15.2393E-3	2.99550E-12	108.398E-3	-25.2918E-3
932.966E-6	2.92153E-12	113.255E-3	-23.4321E-3	2.99076E-12	98.0553E-3	-19.7431E-3
927.964E-6	2.79230E-12	120.668E-3	-27.0692E-3	2.94573E-12	79.2518E-3	-16.0969E-3
922.961E-6	2.83696E-12	106.452E-3	-24.0288E-3	2.81749E-12	78.9363E-3	-6.32901E-3
917.959E-6	2.81877E-12	91.3670E-3	-26.5597E-3	2.78266E-12	97.4116E-3	-11.5305E-3
912.956E-6	2.81592E-12	94.7315E-3	-25.7359E-3	2.72159E-12	87.9455E-3	-19.4520E-3
907.954E-6	2.72391E-12	105.015E-3	-13.2589E-3	2.80809E-12	67.4487E-3	-9.33330E-3
902.951E-6	2.67938E-12	102.367E-3	-7.07918E-3	2.75077E-12	70.7976E-3	-17.1738E-3
897.949E-6	2.73026E-12	92.8553E-3	-13.0768E-3	2.60234E-12	72.0999E-3	-40.5880E-3
892.946E-6	2.61824E-12	88.6671E-3	-19.2712E-3	2.59629E-12	68.3717E-3	-36.3950E-3
887.944E-6	2.61282E-12	83.4859E-3	-20.3494E-3	2.69072E-12	61.3790E-3	-16.9389E-3
882.941E-6	2.54844E-12	67.0121E-3	-15.6546E-3	2.62800E-12	41.5437E-3	-1.25345E-3
877.939E-6	2.56639E-12	55.3220E-3	-13.4200E-3	2.54473E-12	41.7927E-3	3.03596E-3
872.936E-6	2.54138E-12	63.8566E-3	-21.3347E-3	2.41407E-12	67.7205E-3	-9.64496E-3
867.934E-6	2.57526E-12	74.8839E-3	-19.2217E-3	2.58009E-12	72.5114E-3	-17.1555E-3
862.931E-6	2.58946E-12	83.1220E-3	-5.10495E-3	2.64331E-12	53.4725E-3	-8.00943E-3
857.929E-6	2.53914E-12	85.3361E-3	-9.55244E-3	2.49551E-12	44.9621E-3	-8.62145E-3
852.926E-6	2.42696E-12	70.4789E-3	-16.4749E-3	2.36746E-12	48.8258E-3	-28.1094E-3
847.924E-6	2.49362E-12	53.4399E-3	-8.82587E-3	2.42771E-12	57.2603E-3	-36.6674E-3
842.921E-6	2.58341E-12	47.3060E-3	-5.54756E-3	2.52792E-12	64.1857E-3	-30.0275E-3
837.919E-6	2.46802E-12	46.7267E-3	-3.78076E-3	2.39809E-12	47.6246E-3	-28.4773E-3
832.916E-6	2.35150E-12	47.4204E-3	2.78555E-3	2.28517E-12	22.3935E-3	-21.1500E-3
827.914E-6	2.42671E-12	59.1657E-3	-2.84165E-3	2.25533E-12	19.8349E-3	-12.9468E-3
822.911E-6	2.37348E-12	69.7285E-3	-18.2875E-3	2.35297E-12	30.7086E-3	-10.0176E-3
817.909E-6	2.36712E-12	55.8085E-3	-27.7759E-3	2.28874E-12	46.0996E-3	-5.78808E-3
812.906E-6	2.26246E-12	35.8982E-3	-30.3968E-3	2.19245E-12	62.2453E-3	-17.9643E-3
807.904E-6	2.23540E-12	32.6979E-3	-20.3806E-3	2.19712E-12	59.5371E-3	-35.6946E-3
802.901E-6	2.31821E-12	24.9147E-3	-13.9488E-3	2.15735E-12	39.1315E-3	-30.8040E-3
797.899E-6	2.24903E-12	12.0306E-3	-31.7558E-3	2.21512E-12	29.6619E-3	-18.7533E-3
792.896E-6	2.16410E-12	25.6978E-3	-42.3371E-3	2.16966E-12	36.6517E-3	-16.8617E-3
787.894E-6	2.15555E-12	44.6681E-3	-26.1092E-3	2.14857E-12	47.5808E-3	-8.47797E-3
782.891E-6	2.23354E-12	51.5995E-3	-9.41016E-3	2.10291E-12	54.3737E-3	4.45257E-3
777.889E-6	2.25561E-12	62.0293E-3	-5.74125E-3	2.15284E-12	48.2645E-3	-7.58805E-3
772.886E-6	2.09333E-12	62.4475E-3	-5.15942E-3	2.13717E-12	40.0264E-3	-27.9330E-3
767.884E-6	2.10568E-12	48.0683E-3	-5.24000E-3	2.20130E-12	41.6039E-3	-19.8317E-3
762.881E-6	2.20230E-12	29.9615E-3	-5.08612E-3	2.07089E-12	43.6912E-3	-3.63832E-3
757.879E-6	2.16318E-12	15.4891E-3	-10.6225E-3	1.99102E-12	36.1584E-3	2.80477E-3
752.876E-6	2.11254E-12	19.0785E-3	-21.8880E-3	2.15700E-12	33.7067E-3	-3.23964E-3
747.874E-6	2.09066E-12	35.1046E-3	-20.0822E-3	2.11582E-12	32.2582E-3	-13.0268E-3
742.871E-6	2.10310E-12	44.4161E-3	-9.30825E-3	2.01799E-12	30.4619E-3	-10.8341E-3
737.869E-6	2.09363E-12	42.6607E-3	-8.56432E-3	1.93346E-12	48.1736E-3	-6.95122E-3
732.866E-6	2.08634E-12	40.0960E-3	-10.6340E-3	1.99457E-12	52.5410E-3	-9.12391E-3
727.864E-6	2.05869E-12	33.6762E-3	-5.60927E-3	2.07405E-12	32.3832E-3	-14.2131E-3
722.861E-6	2.04229E-12	26.3688E-3	-12.1204E-3	2.02143E-12	24.7187E-3	-20.2417E-3
717.859E-6	2.03452E-12	33.5242E-3	-29.9873E-3	1.91123E-12	32.8290E-3	-31.9914E-3
712.856E-6	2.03571E-12	39.1776E-3	-34.2498E-3	1.94555E-12	38.8338E-3	-27.4195E-3
707.854E-6	1.97925E-12	33.2994E-3	-27.8959E-3	2.06223E-12	35.8027E-3	-3.77760E-3
702.851E-6	1.97696E-12	34.9739E-3	-16.9597E-3	1.94768E-12	22.4904E-3	-2.09794E-3
697.849E-6	1.95328E-12	44.1492E-3	-5.66051E-3	1.89256E-12	15.5485E-3	-11.1002E-3
692.846E-6	1.96875E-12	45.9797E-3	-13.4161E-3	1.90602E-12	27.8191E-3	-14.7820E-3
687.844E-6	1.98707E-12	48.7970E-3	-23.1598E-3	1.94870E-12	36.7102E-3	-27.4098E-3
682.841E-6	1.87105E-12	45.0920E-3	-13.5403E-3	1.91541E-12	35.6571E-3	-29.0269E-3
677.839E-6	1.82981E-12	36.8915E-3	-2.36487E-3	1.86350E-12	43.1092E-3	-18.0223E-3
672.836E-6	1.92647E-12	40.2424E-3	-5.13230E-3	1.91067E-12	43.6521E-3	-13.0636E-3
667.834E-6	1.89449E-12	37.6044E-3	-12.3638E-3	1.83087E-12	30.7895E-3	-8.84634E-3
662.831E-6	1.81956E-12	22.1354E-3	-17.1944E-3	1.84772E-12	24.9770E-3	-3.04506E-3
657.829E-6	1.74762E-12	15.2349E-3	-26.3868E-3	1.87869E-12	31.2447E-3	-3.66552E-3
652.826E-6	1.82377E-12	27.7137E-3	-28.4145E-3	1.87331E-12	39.6588E-3	-10.1583E-3
647.824E-6	1.90164E-12	38.3788E-3	-25.1945E-3	1.79392E-12	46.2024E-3	-17.8093E-3
642.821E-6	1.82097E-12	37.2575E-3	-27.5453E-3	1.76879E-12	51.7759E-3	-24.9824E-3
637.819E-6	1.68263E-12	30.0873E-3	-16.3704E-3	1.80367E-12	41.5079E-3	-18.3047E-3
632.816E-6	1.77836E-12	17.0200E-3	-4.34683E-3	1.85767E-12	30.7545E-3	-3.54608E-3
627.814E-6	1.83718E-12	22.0903E-3	-11.2307E-3	1.78383E-12	29.4276E-3	-6.18133E-3
622.811E-6	1.79438E-12	45.9126E-3	-16.3070E-3	1.65185E-12	23.0262E-3	-18.9645E-3
617.809E-6	1.72374E-12	54.3551E-3	-23.3017E-3	1.76493E-12	31.3227E-3	-21.0861E-3
612.806E-6	1.70547E-12	48.2636E-3	-26.5329E-3	1.74593E-12	44.2123E-3	-21.4301E-3
607.804E-6	1.72347E-12	40.1276E-3	-10.3690E-3	1.68712E-12	39.0744E-3	-24.5565E-3
602.801E-6	1.76042E-12	33.8356E-3	-1.22738E-3	1.58876E-12	40.7807E-3	-19.1667E-3
597.799E-6	1.65490E-12	37.1848E-3	-11.9936E-3	1.65536E-12	50.3542E-3	-17.3987E-3
592.796E-6	1.65862E-12	40.7260E-3	-23.6906E-3	1.73790E-12	44.6683E-3	-15.4684E-3
587.794E-6	1.64108E-12	40.6920E-3	-28.1257E-3	1.66503E-12	42.1526E-3	-6.87893E-3
582.791E-6	1.63255E-12	49.3851E-3	-22.7748E-3	1.52498E-12	48.6710E-3	-2.46449E-3
577.789E-6	1.67166E-12	54.9839E-3	-4.79433E-3	1.60010E-12	39.0358E-3	675.886E-6
572.786E-6	1.63153E-12	40.4972E-3	-886.004E-6	1.66485E-12	37.9235E-3	-4.66303E-3
567.784E-6	1.48347E-12	24.6503E-3	-15.0105E-3	1.60241E-12	49.6648E-3	-23.3001E-3
562.781E-6	1.51380E-12	23.6660E-3	-11.2716E-3	1.54381E-12	43.1920E-3	-35.5942E-3
557.779E-6	1.61173E-12	26.6692E-3	-2.21204E-3	1.52026E-12	38.7061E-3	-27.9572E-3
552.776E-6	1.60974E-12	30.7612E-3	-13.5685E-3	1.57665E-12	43.2484E-3	-25.2054E-3
547.774E-6	1.49593E-12	43.7428E-3	-21.3458E-3	1.54316E-12	37.3403E-3	-33.9188E-3
542.771E-6	1.41558E-12	55.4330E-3	-13.3545E-3	1.49859E-12	40.7926E-3	-29.8875E-3
537.769E-6	1.54081E-12	57.1782E-3	-14.0594E-3	1.49770E-12	61.6630E-3	-28.6134E-3
532.766E-6	1.54399E-12	57.1945E-3	-20.9403E-3	1.47201E-12	67.0245E-3	-33.6917E-3
527.764E-6	1.46488E-12	47.8396E-3	-26.6193E-3	1.43262E-12	65.3878E-3	-26.6173E-3
522.761E-6	1.37481E-12	42.5511E-3	-30.3612E-3	1.48192E-12	70.6330E-3	-19.3333E-3
517.759E-6	1.41121E-12	45.8973E-3	-20.2065E-3	1.40300E-12	62.6008E-3	-12.7920E-3
512.756E-6	1.49935E-12	44.3029E-3	-10.1181E-3	1.31389E-12	54.6031E-3	-8.08398E-3
507.754E-6	1.46704E-12	44.1795E-3	-15.4604E-3	1.30519E-12	55.5255E-3	-12.8263E-3
502.751E-6	1.35386E-12	47.0319E-3	-23.1220E-3	1.34250E-12	48.4283E-3	-10.2304E-3
497.749E-6	1.33272E-12	46.1460E-3	-26.4946E-3	1.30210E-12	47.3758E-3	-227.138E-6
492.746E-6	1.38264E-12	46.2816E-3	-34.2925E-3	1.26324E-12	53.1260E-3	-4.24912E-3
487.744E-6	1.41129E-12	53.5021E-3	-45.1673E-3	1.15186E-12	47.6756E-3	-13.3019E-3
482.741E-6	1.31599E-12	43.4347E-3	-42.8865E-3	1.29775E-12	42.7086E-3	-13.1026E-3
477.739E-6	1.19396E-12	24.6143E-3	-34.7440E-3	1.25935E-12	43.7933E-3	-16.4635E-3
472.736E-6	1.28592E-12	27.3159E-3	-33.0449E-3	1.18679E-12	43.2785E-3	-16.0255E-3
467.734E-6	1.29768E-12	43.3100E-3	-19.1069E-3	1.11033E-12	43.6182E-3	-1.33913E-3
462.731E-6	1.24474E-12	57.6361E-3	-13.4992E-3	1.23415E-12	49.9294E-3	-5.97055E-3
457.729E-6	1.20692E-12	60.7793E-3	-31.9314E-3	1.26275E-12	57.7914E-3	-26.4236E-3
452.726E-6	1.20722E-12	57.8613E-3	-30.4638E-3	1.15030E-12	63.5477E-3	-26.4995E-3
447.724E-6	1.20233E-12	49.5827E-3	-17.5733E-3	1.05721E-12	62.4378E-3	-16.4574E-3
442.721E-6	1.15882E-12	40.5633E-3	-22.8341E-3	1.15051E-12	48.6775E-3	-13.3901E-3
437.719E-6	1.15171E-12	44.1920E-3	-27.4803E-3	1.22062E-12	44.4617E-3	-13.0210E-3
432.716E-6	1.06643E-12	51.3096E-3	-31.7281E-3	1.13773E-12	62.6147E-3	-18.7326E-3
427.714E-6	1.04825E-12	58.3243E-3	-36.8155E-3	1.06960E-12	73.4795E-3	-24.6516E-3
422.711E-6	1.07435E-12	56.7544E-3	-21.4028E-3	1.04374E-12	64.0405E-3	-13.5595E-3
417.709E-6	1.07988E-12	45.7700E-3	-8.00901E-3	1.08631E-12	62.3363E-3	-5.12728E-3
412.706E-6	950.202E-15	51.2367E-3	-18.3509E-3	1.06068E-12	64.7540E-3	-14.8736E-3
407.704E-6	959.584E-15	62.9560E-3	-30.1847E-3	1.01312E-12	58.7005E-3	-17.0577E-3
402.701E-6	953.062E-15	65.3864E-3	-28.7275E-3	933.461E-15	64.5982E-3	-12.7119E-3
397.699E-6	1.01406E-12	62.9889E-3	-19.7114E-3	896.822E-15	67.4099E-3	-21.8301E-3
392.696E-6	905.376E-15	52.3626E-3	-12.7740E-3	954.038E-15	60.5050E-3	-21.1502E-3
387.694E-6	825.254E-15	43.0217E-3	-11.6490E-3	980.161E-15	68.2838E-3	-18.0277E-3
382.691E-6	880.447E-15	54.4263E-3	-16.6154E-3	896.840E-15	80.4328E-3	-36.4900E-3
377.689E-6	936.321E-15	71.5002E-3	-22.3620E-3	780.245E-15	77.9089E-3	-40.7806E-3
372.686E-6	843.425E-15	62.5251E-3	-24.2369E-3	809.246E-15	70.3445E-3	-31.6928E-3
367.684E-6	782.076E-15	51.9603E-3	-19.0829E-3	908.393E-15	59.6151E-3	-29.9607E-3
362.681E-6	788.337E-15	59.8780E-3	-11.4898E-3	870.603E-15	54.5988E-3	-17.4588E-3
357.679E-6	821.156E-15	58.7914E-3	-14.5946E-3	729.656E-15	65.2544E-3	-16.6010E-3
352.676E-6	798.416E-15	51.8472E-3	-23.6068E-3	717.300E-15	61.6532E-3	-32.1635E-3
347.674E-6	713.917E-15	48.8288E-3	-20.3972E-3	787.805E-15	43.1106E-3	-21.3977E-3
342.671E-6	723.125E-15	41.6339E-3	-19.5900E-3	871.493E-15	43.0539E-3	-2.17391E-3
337.669E-6	747.565E-15	49.5640E-3	-32.1941E-3	730.990E-15	50.9506E-3	-13.1492E-3
332.666E-6	705.006E-15	65.8871E-3	-32.1976E-3	625.905E-15	50.2585E-3	-30.5798E-3
327.664E-6	731.818E-15	60.4408E-3	-25.3181E-3	669.048E-15	58.2700E-3	-26.6160E-3
322.661E-6	629.619E-15	53.8494E-3	-24.1254E-3	730.092E-15	69.1067E-3	-10.8223E-3
317.659E-6	648.392E-15	58.7661E-3	-13.9277E-3	642.428E-15	64.0512E-3	147.941E-6
312.656E-6	668.673E-15	58.6778E-3	-847.874E-6	557.493E-15	62.4066E-3	-4.12782E-3
307.654E-6	669.763E-15	56.8673E-3	48.5750E-6	575.612E-15	60.8676E-3	-22.0674E-3
302.651E-6	612.093E-15	56.9771E-3	-11.6058E-3	623.115E-15	50.3927E-3	-32.6201E-3
297.649E-6	569.709E-15	51.2458E-3	-19.1771E-3	591.516E-15	55.2582E-3	-26.0389E-3
292.646E-6	517.829E-15	48.1112E-3	-15.2169E-3	480.737E-15	54.5330E-3	-22.0201E-3
287.644E-6	576.719E-15	61.5818E-3	-11.6547E-3	534.343E-15	35.1689E-3	-31.3656E-3
282.641E-6	614.692E-15	64.9523E-3	-11.2498E-3	495.943E-15	39.1184E-3	-31.5187E-3
277.639E-6	457.936E-15	49.4395E-3	-19.4331E-3	488.236E-15	47.9358E-3	-15.5499E-3
272.636E-6	475.043E-15	41.9616E-3	-27.6176E-3	498.141E-15	32.4754E-3	-8.08622E-3
267.634E-6	463.307E-15	38.4887E-3	-21.3581E-3	448.737E-15	30.1811E-3	-15.1273E-3
262.631E-6	551.119E-15	41.3320E-3	-14.8703E-3	421.254E-15	41.6709E-3	-21.7308E-3
257.629E-6	453.969E-15	58.6436E-3	-18.4561E-3	369.705E-15	42.2910E-3	-17.7375E-3
252.626E-6	287.038E-15	67.8552E-3	-28.4561E-3	459.872E-15	49.5345E-3	-9.65162E-3
247.624E-6	445.467E-15	63.5208E-3	-50.3316E-3	459.941E-15	58.3009E-3	-14.0995E-3
242.621E-6	475.558E-15	59.9049E-3	-61.3106E-3	353.357E-15	50.9723E-3	-19.4191E-3
237.619E-6	393.701E-15	56.5478E-3	-40.0383E-3	309.577E-15	49.7216E-3	-15.9815E-3
232.616E-6	313.047E-15	52.0796E-3	-21.0642E-3	411.314E-15	49.8584E-3	-23.1039E-3
227.614E-6	323.781E-15	61.3331E-3	-15.7203E-3	396.770E-15	33.3866E-3	-38.0061E-3
222.611E-6	351.988E-15	71.7337E-3	-16.7753E-3	267.323E-15	32.5122E-3	-41.6096E-3
217.609E-6	342.248E-15	60.8438E-3	-32.1461E-3	218.643E-15	47.6231E-3	-33.7436E-3
212.606E-6	292.452E-15	48.7090E-3	-38.8650E-3	278.667E-15	38.3930E-3	-18.4248E-3
207.604E-6	266.303E-15	44.3953E-3	-23.6717E-3	335.839E-15	25.5816E-3	-11.7874E-3
202.601E-6	247.121E-15	39.7947E-3	-18.9299E-3	235.838E-15	36.7161E-3	-35.5298E-3
197.599E-6	272.058E-15	41.7654E-3	-30.6942E-3	137.057E-15	42.4097E-3	-52.9621E-3
192.596E-6	270.384E-15	40.1386E-3	-35.4106E-3	216.420E-15	38.0395E-3	-38.8826E-3
187.594E-6	183.775E-15	24.7263E-3	-38.5188E-3	246.318E-15	34.6175E-3	-24.8607E-3
182.591E-6	169.885E-15	27.4651E-3	-32.6051E-3	197.630E-15	28.2743E-3	-18.8174E-3
177.589E-6	178.561E-15	45.0809E-3	-13.7239E-3	126.437E-15	36.5426E-3	-13.9352E-3
172.586E-6	224.442E-15	35.1031E-3	-15.4089E-3	131.189E-15	57.2054E-3	-12.9406E-3
167.584E-6	201.545E-15	22.0023E-3	-29.6287E-3	133.142E-15	49.8543E-3	-12.3339E-3
162.581E-6	161.253E-15	24.5566E-3	-24.3634E-3	155.899E-15	31.2820E-3	-12.7571E-3
157.579E-6	67.6684E-15	25.3030E-3	-16.4135E-3	112.808E-15	39.2130E-3	-20.3111E-3
152.576E-6	150.223E-15	29.8076E-3	-21.6550E-3	129.985E-15	40.9920E-3	-22.3661E-3
147.574E-6	195.241E-15	31.0128E-3	-24.1748E-3	69.8831E-15	31.8123E-3	-19.6976E-3
142.571E-6	133.482E-15	30.0269E-3	-26.7181E-3	80.0847E-15	30.8326E-3	-23.7732E-3
137.569E-6	13.9575E-15	35.7596E-3	-37.5228E-3	117.116E-15	18.4269E-3	-29.6345E-3
132.566E-6	85.9441E-15	41.3166E-3	-38.7745E-3	71.4613E-15	7.50918E-3	-21.4398E-3
127.564E-6	149.953E-15	39.1253E-3	-24.7223E-3	48.5383E-15	16.6168E-3	-11.0263E-3
122.561E-6	86.7114E-15	35.2080E-3	-8.85481E-3	10.5831E-15	26.3054E-3	-13.8445E-3
117.559E-6	-1.85931E-15	38.7039E-3	-7.03242E-3	60.9546E-15	33.4000E-3	-7.88517E-3
112.556E-6	-11.6685E-15	39.6475E-3	-18.7630E-3	66.0815E-15	36.8030E-3	-2.34855E-3
107.554E-6	69.9355E-15	29.3543E-3	-26.4139E-3	-17.2576E-15	21.6147E-3	-8.42728E-3
102.551E-6	44.1263E-15	22.1052E-3	-23.8667E-3	-33.0396E-15	3.35989E-3	-10.1419E-3
97.5488E-6	-48.2460E-15	22.2235E-3	-12.3506E-3	78.5850E-15	8.90455E-3	-17.0569E-3
92.5463E-6	-48.0280E-15	23.5986E-3	-3.83811E-3	110.149E-15	15.6023E-3	-25.3282E-3
87.5438E-6	-307.281E-18	28.6666E-3	-3.88930E-3	26.0338E-15	13.2293E-3	-18.6122E-3
82.5413E-6	11.2807E-15	23.7308E-3	-18.0567E-3	-111.130E-15	26.6384E-3	-18.4996E-3
77.5388E-6	-49.1528E-15	15.4483E-3	-33.8944E-3	-64.5947E-15	30.4085E-3	-31.7047E-3
72.5363E-6	-62.2056E-15	21.2490E-3	-26.6315E-3	71.6706E-15	18.1386E-3	-27.2330E-3
67.5338E-6	-86.2099E-15	23.0371E-3	-11.4288E-3	-34.7050E-15	22.5458E-3	-14.9603E-3
62.5313E-6	-46.7463E-15	21.5236E-3	-6.93273E-3	-129.588E-15	26.8907E-3	-18.1864E-3
57.5288E-6	-25.4276E-15	16.8080E-3	-5.01052E-3	-88.8257E-15	24.1345E-3	-25.9127E-3
52.5263E-6	-110.624E-15	9.83233E-3	-8.95855E-3	-24.2592E-15	24.0451E-3	-33.5238E-3
47.5238E-6	-140.052E-15	24.6352E-3	-26.6550E-3	-35.1932E-15	15.6215E-3	-29.3145E-3
42.5213E-6	-114.408E-15	44.2907E-3	-34.5291E-3	-124.653E-15	15.7117E-3	-13.5278E-3
37.5188E-6	-54.4542E-15	39.3339E-3	-26.1233E-3	-104.433E-15	28.9094E-3	-15.5948E-3
32.5163E-6	-51.6291E-15	35.2636E-3	-22.0747E-3	-102.663E-15	29.8754E-3	-31.4375E-3
27.5138E-6	-149.207E-15	48.8794E-3	-26.8301E-3	-131.960E-15	22.3355E-3	-26.7644E-3
22.5113E-6	-193.702E-15	38.1477E-3	-24.3104E-3	-92.6622E-15	18.6100E-3	-13.3797E-3
17.5088E-6	-89.0524E-15	12.5661E-3	-16.9039E-3	-133.503E-15	16.7141E-3	-6.93594E-3
12.5063E-6	-66.0247E-15	14.0167E-3	-9.25353E-3	-149.451E-15	22.2668E-3	2.19019E-3
7.50375E-6	-108.549E-15	17.9318E-3	-1.07591E-3	-173.185E-15	33.1472E-3	-4.66075E-3
2.50125E-6	-239.164E-15	12.0239E-3	-11.7118E-3	-163.463E-15	31.5139E-3	-17.3980E-3
-2.50125E-6	-188.296E-15	15.4789E-3	-21.5335E-3	-141.647E-15	20.9083E-3	-9.50931E-3
-7.50375E-6	-113.092E-15	22.5627E-3	-15.6601E-3	-220.252E-15	19.6376E-3	150.496E-6
-12.5063E-6	-168.712E-15	25.0641E-3	-22.2989E-3	-232.642E-15	30.2600E-3	-1.44610E-3
-17.5088E-6	-254.432E-15	24.6910E-3	-32.4995E-3	-193.640E-15	38.6330E-3	-547.546E-6
-22.5113E-6	-226.652E-15	26.1709E-3	-27.2362E-3	-156.653E-15	35.9738E-3	4.19888E-3
-27.5138E-6	-169.723E-15	24.3143E-3	-20.5249E-3	-256.855E-15	27.8293E-3	-5.95956E-3
-32.5163E-6	-139.380E-15	17.7469E-3	-10.6574E-3	-275.846E-15	28.7923E-3	-16.7083E-3
-37.5188E-6	-256.341E-15	11.6326E-3	-5.79868E-3	-230.575E-15	37.3127E-3	-19.5476E-3
-42.5213E-6	-271.129E-15	17.8712E-3	-22.0701E-3	-167.570E-15	31.3264E-3	-26.1562E-3
-47.5238E-6	-197.834E-15	39.7721E-3	-25.6580E-3	-247.892E-15	6.49894E-3	-28.1069E-3
-52.5263E-6	-266.752E-15	42.4175E-3	-11.3837E-3	-345.845E-15	-7.03377E-3	-23.5016E-3
-57.5288E-6	-288.114E-15	29.8513E-3	-15.7701E-3	-285.978E-15	-487.218E-6	-19.0219E-3
-62.5313E-6	-314.699E-15	28.2298E-3	-27.3134E-3	-192.141E-15	14.5997E-3	-9.83568E-3
-67.5338E-6	-336.105E-15	26.2202E-3	-23.6010E-3	-311.900E-15	30.2246E-3	6.08177E-3
-72.5363E-6	-301.254E-15	22.2716E-3	-18.8934E-3	-393.487E-15	19.7274E-3	4.69559E-3
-77.5388E-6	-267.641E-15	25.7239E-3	-20.0766E-3	-338.146E-15	7.75584E-3	-9.37169E-3
-82.5413E-6	-279.639E-15	28.9451E-3	-22.1773E-3	-292.814E-15	27.8111E-3	-16.4756E-3
-87.5438E-6	-366.928E-15	32.7776E-3	-28.9639E-3	-326.985E-15	40.9164E-3	-22.9530E-3
-92.5463E-6	-456.815E-15	46.2647E-3	-29.4354E-3	-387.401E-15	30.3881E-3	-22.4312E-3
-97.5488E-6	-347.397E-15	49.8332E-3	-20.9052E-3	-382.998E-15	33.3941E-3	-13.0404E-3
-102.551E-6	-292.169E-15	34.4643E-3	-19.9773E-3	-391.298E-15	50.9917E-3	-11.9045E-3
-107.554E-6	-408.946E-15	28.5571E-3	-17.6939E-3	-395.946E-15	48.1993E-3	-10.8697E-3
-112.556E-6	-480.532E-15	38.6143E-3	-5.02674E-3	-402.764E-15	27.9730E-3	1.64784E-3
-117.559E-6	-396.085E-15	44.8616E-3	1.04757E-3	-412.382E-15	23.3158E-3	2.61673E-3
-122.561E-6	-356.133E-15	50.8517E-3	-2.23824E-3	-487.106E-15	29.3951E-3	-8.73792E-3
-127.564E-6	-433.805E-15	56.5611E-3	-1.51684E-3	-482.938E-15	34.1332E-3	-13.7525E-3
-132.566E-6	-550.862E-15	45.7975E-3	-7.27897E-3	-468.874E-15	42.4704E-3	-17.9808E-3
-137.569E-6	-501.711E-15	36.8527E-3	-21.3404E-3	-481.151E-15	42.4007E-3	-24.6319E-3
-142.571E-6	-440.929E-15	47.9454E-3	-20.7208E-3	-542.343E-15	40.7311E-3	-23.0325E-3
-147.574E-6	-463.616E-15	44.4578E-3	-15.7373E-3	-586.916E-15	45.4454E-3	-21.8358E-3
-152.576E-6	-596.856E-15	33.9723E-3	-19.4170E-3	-520.205E-15	39.8654E-3	-23.8568E-3
-157.579E-6	-575.058E-15	37.8468E-3	-18.0586E-3	-509.271E-15	39.0317E-3	-18.0662E-3
-162.581E-6	-543.538E-15	30.1078E-3	-13.9251E-3	-584.649E-15	46.6245E-3	-18.0882E-3
-167.584E-6	-530.223E-15	24.0724E-3	-13.2075E-3	-706.998E-15	47.0361E-3	-20.9386E-3
-172.586E-6	-631.010E-15	32.3825E-3	-12.2778E-3	-599.507E-15	54.6057E-3	-11.5244E-3
-177.589E-6	-639.494E-15	31.3144E-3	-17.8017E-3	-598.670E-15	62.1018E-3	-12.4850E-3
-182.591E-6	-673.045E-15	35.7134E-3	-28.9368E-3	-654.421E-15	61.2732E-3	-26.3557E-3
-187.594E-6	-633.939E-15	51.2711E-3	-21.4578E-3	-766.220E-15	66.7176E-3	-29.7996E-3
-192.596E-6	-677.170E-15	54.4429E-3	-1.12564E-3	-685.174E-15	77.7291E-3	-35.8722E-3
-197.599E-6	-736.775E-15	52.9506E-3	826.198E-6	-689.935E-15	83.1701E-3	-33.4630E-3
-202.601E-6	-769.664E-15	57.1295E-3	-4.44207E-3	-733.828E-15	80.3234E-3	-13.4103E-3
-207.604E-6	-791.881E-15	59.9492E-3	-6.16890E-3	-811.316E-15	74.5990E-3	-5.96798E-3
-212.606E-6	-737.560E-15	63.5431E-3	-23.1837E-3	-800.382E-15	66.8914E-3	-10.8536E-3
-217.609E-6	-705.961E-15	67.8698E-3	-39.1619E-3	-806.826E-15	75.7555E-3	-14.3320E-3
-222.611E-6	-829.269E-15	66.3103E-3	-28.4182E-3	-795.691E-15	94.0130E-3	-15.9262E-3
-227.614E-6	-914.134E-15	56.1977E-3	-5.83923E-3	-866.797E-15	89.4104E-3	-11.8188E-3
-232.616E-6	-836.140E-15	53.0377E-3	3.60388E-3	-841.075E-15	78.0068E-3	-6.29106E-3
-237.619E-6	-774.407E-15	60.1238E-3	-9.77624E-3	-896.521E-15	74.9265E-3	-12.3782E-3
-242.621E-6	-886.982E-15	69.0787E-3	-28.8556E-3	-933.517E-15	71.9060E-3	-22.7182E-3
-247.624E-6	-994.212E-15	79.6346E-3	-28.4131E-3	-938.060E-15	82.0338E-3	-15.9491E-3
-252.626E-6	-961.637E-15	86.1962E-3	-18.8267E-3	-972.876E-15	87.9323E-3	-6.32129E-3
-257.629E-6	-896.687E-15	90.5685E-3	-19.5650E-3	-1.06593E-12	72.7620E-3	-13.1720E-3
-262.631E-6	-999.427E-15	95.2278E-3	-25.7785E-3	-1.10295E-12	62.7830E-3	-15.2418E-3
-267.634E-6	-1.14038E-12	90.4551E-3	-31.3417E-3	-1.07304E-12	69.2658E-3	-11.8459E-3
-272.636E-6	-1.12751E-12	81.6235E-3	-36.6005E-3	-1.02091E-12	78.9617E-3	-9.34203E-3
-277.639E-6	-1.09394E-12	77.5777E-3	-33.0158E-3	-1.13264E-12	81.7321E-3	-1.11590E-3
-282.641E-6	-1.16735E-12	68.7260E-3	-17.1302E-3	-1.19417E-12	87.0398E-3	775.992E-6
-287.644E-6	-1.19894E-12	66.0945E-3	-5.32042E-3	-1.14875E-12	97.2613E-3	-13.1131E-3
-292.646E-6	-1.30667E-12	76.7181E-3	-3.99862E-3	-1.10378E-12	103.079E-3	-17.8822E-3
-297.649E-6	-1.28042E-12	82.9471E-3	-6.24187E-3	-1.26894E-12	109.497E-3	-8.99084E-3
-302.651E-6	-1.31020E-12	82.7681E-3	-17.0606E-3	-1.37468E-12	114.690E-3	-11.4427E-3
-307.654E-6	-1.38185E-12	94.8688E-3	-24.5579E-3	-1.32521E-12	107.431E-3	-9.71271E-3
-312.656E-6	-1.39171E-12	111.034E-3	-23.9446E-3	-1.25971E-12	101.088E-3	415.336E-6
-317.659E-6	-1.39762E-12	105.649E-3	-31.8546E-3	-1.39293E-12	110.957E-3	-1.33974E-3
-322.661E-6	-1.38788E-12	94.9405E-3	-33.2886E-3	-1.50822E-12	118.383E-3	-6.02841E-3
-327.664E-6	-1.42470E-12	89.8408E-3	-26.5391E-3	-1.40809E-12	107.935E-3	-14.8252E-3
-332.666E-6	-1.44699E-12	85.1294E-3	-32.4989E-3	-1.44626E-12	92.1782E-3	-30.9724E-3
-337.669E-6	-1.59071E-12	96.6014E-3	-35.2248E-3	-1.51317E-12	88.9945E-3	-35.7842E-3
-342.671E-6	-1.59813E-12	105.035E-3	-27.1473E-3	-1.55587E-12	92.4175E-3	-30.3982E-3
-347.674E-6	-1.57478E-12	99.7123E-3	-18.6558E-3	-1.57487E-12	90.0390E-3	-26.3824E-3
-352.676E-6	-1.59849E-12	108.840E-3	-12.2174E-3	-1.58440E-12	90.6116E-3	-21.5477E-3
-357.679E-6	-1.71866E-12	112.761E-3	-11.2194E-3	-1.60023E-12	93.3866E-3	-18.4873E-3
-362.681E-6	-1.77871E-12	97.2587E-3	-19.0119E-3	-1.63154E-12	97.1459E-3	-24.3387E-3
-367.684E-6	-1.80581E-12	92.4381E-3	-32.6118E-3	-1.70509E-12	102.931E-3	-26.1404E-3
-372.686E-6	-1.68150E-12	102.947E-3	-33.4189E-3	-1.74823E-12	97.8706E-3	-24.0180E-3
-377.689E-6	-1.83339E-12	110.368E-3	-25.8033E-3	-1.76909E-12	91.4213E-3	-33.4661E-3
-382.691E-6	-1.95141E-12	115.485E-3	-25.2848E-3	-1.74871E-12	96.3688E-3	-35.8353E-3
-387.694E-6	-1.94311E-12	113.835E-3	-25.1654E-3	-1.83283E-12	112.403E-3	-29.8106E-3
-392.696E-6	-1.88715E-12	106.917E-3	-26.1080E-3	-1.93258E-12	128.705E-3	-32.8885E-3
-397.699E-6	-1.94303E-12	105.512E-3	-29.6557E-3	-2.00973E-12	127.378E-3	-23.9455E-3
-402.701E-6	-2.05511E-12	106.985E-3	-28.0064E-3	-1.95079E-12	123.154E-3	-5.32807E-3
-407.704E-6	-2.08930E-12	118.274E-3	-25.4157E-3	-1.94396E-12	120.383E-3	-3.55969E-3
-412.706E-6	-1.99661E-12	132.851E-3	-22.4964E-3	-2.07740E-12	111.814E-3	-8.83746E-3
-417.709E-6	-2.03502E-12	126.409E-3	-10.1756E-3	-2.15342E-12	114.996E-3	-14.1994E-3
-422.711E-6	-2.17196E-12	103.152E-3	-4.84879E-3	-2.08123E-12	114.668E-3	-15.9822E-3
-427.714E-6	-2.29753E-12	96.7058E-3	-16.5791E-3	-2.10602E-12	98.8496E-3	-3.29483E-3
-432.716E-6	-2.23004E-12	112.515E-3	-22.3346E-3	-2.25466E-12	95.4188E-3	-714.329E-6
-437.719E-6	-2.22542E-12	118.309E-3	-15.9371E-3	-2.34002E-12	104.024E-3	-16.8439E-3
-442.721E-6	-2.23813E-12	104.438E-3	-12.4987E-3	-2.25906E-12	102.989E-3	-20.6232E-3
-447.724E-6	-2.33342E-12	89.2816E-3	-16.6926E-3	-2.25322E-12	102.853E-3	-11.5724E-3
-452.726E-6	-2.42190E-12	83.3882E-3	-12.5805E-3	-2.40800E-12	103.082E-3	-10.9830E-3
-457.729E-6	-2.38390E-12	88.4321E-3	-3.40458E-3	-2.50386E-12	90.6115E-3	-13.2560E-3
-462.731E-6	-2.39024E-12	94.7436E-3	-3.86883E-3	-2.46159E-12	94.5303E-3	-15.7416E-3
-467.734E-6	-2.47122E-12	97.4358E-3	-5.92334E-3	-2.45980E-12	115.999E-3	-22.7833E-3
-472.736E-6	-2.61380E-12	99.0743E-3	-9.95986E-3	-2.55635E-12	124.300E-3	-20.5982E-3
-477.739E-6	-2.63635E-12	103.384E-3	-16.0184E-3	-2.63225E-12	120.364E-3	-17.4741E-3
-482.741E-6	-2.56140E-12	106.333E-3	-17.8283E-3	-2.60389E-12	111.479E-3	-17.5683E-3
-487.744E-6	-2.55976E-12	96.0397E-3	-19.8420E-3	-2.57069E-12	107.660E-3	-7.26128E-3
-492.746E-6	-2.62967E-12	90.1671E-3	-20.4249E-3	-2.64017E-12	112.554E-3	-951.538E-6
-497.749E-6	-2.73976E-12	99.5493E-3	-19.6828E-3	-2.64615E-12	111.736E-3	-10.0218E-3
-502.751E-6	-2.70947E-12	104.497E-3	-22.5223E-3	-2.68832E-12	104.166E-3	-22.3945E-3
-507.754E-6	-2.70985E-12	105.080E-3	-24.6447E-3	-2.70530E-12	94.9274E-3	-29.0594E-3
-512.756E-6	-2.76815E-12	108.066E-3	-20.6753E-3	-2.77649E-12	86.2426E-3	-29.1258E-3
-517.759E-6	-2.88174E-12	108.017E-3	-15.6172E-3	-2.76527E-12	82.9087E-3	-21.5339E-3
-522.761E-6	-2.88342E-12	103.217E-3	-10.4003E-3	-2.73654E-12	89.3322E-3	-11.4375E-3
-527.764E-6	-2.84938E-12	94.6879E-3	-10.2902E-3	-2.82504E-12	97.1400E-3	-11.6586E-3
-532.766E-6	-2.86189E-12	91.7353E-3	-21.0371E-3	-2.89724E-12	89.1406E-3	-21.5223E-3
-537.769E-6	-2.91157E-12	99.6276E-3	-20.9577E-3	-2.89382E-12	78.6088E-3	-26.4858E-3
-542.771E-6	-2.96962E-12	100.226E-3	-6.35470E-3	-2.79586E-12	76.8225E-3	-15.0543E-3
-547.774E-6	-2.91872E-12	87.0045E-3	-4.80506E-3	-2.89979E-12	84.7361E-3	10.4961E-3
-552.776E-6	-2.94693E-12	76.2438E-3	-8.26569E-3	-3.02242E-12	97.7926E-3	22.1234E-3
-557.779E-6	-3.02398E-12	65.4519E-3	-10.0019E-3	-3.01174E-12	92.4818E-3	5.56572E-3
-562.781E-6	-3.06339E-12	64.7015E-3	-23.1487E-3	-2.95120E-12	79.5031E-3	-9.61577E-3
-567.784E-6	-3.04398E-12	77.8665E-3	-23.5297E-3	-3.07671E-12	79.7331E-3	-15.1926E-3
-572.786E-6	-3.08965E-12	83.7099E-3	-13.0954E-3	-3.23575E-12	83.3024E-3	-20.7928E-3
-577.789E-6	-3.13738E-12	78.7507E-3	-14.9457E-3	-3.10853E-12	78.6107E-3	-17.3136E-3
-582.791E-6	-3.16994E-12	73.7102E-3	-17.0412E-3	-3.06960E-12	73.2246E-3	-11.0231E-3
-587.794E-6	-3.20196E-12	83.2214E-3	-15.3001E-3	-3.20437E-12	72.5883E-3	-18.1289E-3
-592.796E-6	-3.21561E-12	93.5583E-3	-19.2085E-3	-3.29274E-12	66.0934E-3	-19.7984E-3
-597.799E-6	-3.17985E-12	88.7629E-3	-21.7028E-3	-3.33579E-12	62.2604E-3	-13.0912E-3
-602.801E-6	-3.28561E-12	88.1592E-3	-12.6700E-3	-3.32079E-12	69.4460E-3	-16.8517E-3
-607.804E-6	-3.37138E-12	88.9501E-3	-6.42003E-3	-3.32299E-12	70.4520E-3	-17.1029E-3
-612.806E-6	-3.35267E-12	74.5339E-3	-16.3252E-3	-3.28051E-12	74.3693E-3	-10.1935E-3
-617.809E-6	-3.31143E-12	61.7492E-3	-20.0772E-3	-3.35732E-12	77.2639E-3	-2.68591E-3
-622.811E-6	-3.33752E-12	62.1985E-3	-9.80101E-3	-3.37619E-12	68.8057E-3	-1.35934E-3
-627.814E-6	-3.49108E-12	64.0791E-3	-8.99730E-3	-3.40158E-12	75.1356E-3	-13.6890E-3
-632.816E-6	-3.53274E-12	56.9910E-3	-12.9896E-3	-3.35838E-12	79.1714E-3	-18.4797E-3
-637.819E-6	-3.43363E-12	46.3490E-3	-16.5565E-3	-3.37997E-12	59.0641E-3	-8.17312E-3
-642.821E-6	-3.42318E-12	49.1548E-3	-26.5355E-3	-3.48951E-12	46.5320E-3	-6.96286E-3
-647.824E-6	-3.54221E-12	60.4711E-3	-28.3473E-3	-3.54659E-12	55.4100E-3	-16.3112E-3
-652.826E-6	-3.61130E-12	58.0269E-3	-22.4003E-3	-3.41919E-12	74.6487E-3	-22.9971E-3
-657.829E-6	-3.57987E-12	51.0498E-3	-20.5255E-3	-3.41080E-12	84.6777E-3	-27.1297E-3
-662.831E-6	-3.52096E-12	51.1299E-3	-22.6316E-3	-3.60972E-12	75.8013E-3	-26.0021E-3
-667.834E-6	-3.59469E-12	56.2647E-3	-29.2368E-3	-3.70854E-12	65.6787E-3	-16.3076E-3
-672.836E-6	-3.73066E-12	71.5782E-3	-27.8655E-3	-3.58658E-12	60.1448E-3	-5.99256E-3
-677.839E-6	-3.66127E-12	81.7516E-3	-9.37881E-3	-3.52580E-12	51.9470E-3	-9.96432E-3
-682.841E-6	-3.56895E-12	71.8375E-3	2.53735E-3	-3.71391E-12	46.0643E-3	-21.7545E-3
-687.844E-6	-3.64830E-12	61.0121E-3	-4.97498E-3	-3.86613E-12	51.1759E-3	-26.7095E-3
-692.846E-6	-3.78211E-12	58.0761E-3	-14.3441E-3	-3.69613E-12	57.5385E-3	-24.8875E-3
-697.849E-6	-3.78675E-12	51.2907E-3	-17.4194E-3	-3.62996E-12	64.0101E-3	-17.8195E-3
-702.851E-6	-3.79480E-12	48.3211E-3	-18.8672E-3	-3.78982E-12	65.0415E-3	-13.1881E-3
-707.854E-6	-3.85594E-12	55.1251E-3	-23.9640E-3	-4.00820E-12	63.0050E-3	-19.0473E-3
-712.856E-6	-3.88716E-12	56.9069E-3	-28.3589E-3	-3.92924E-12	65.7184E-3	-25.2999E-3
-717.859E-6	-3.94680E-12	47.6417E-3	-25.1458E-3	-3.84466E-12	62.7264E-3	-17.3232E-3
-722.861E-6	-3.98743E-12	47.4606E-3	-21.0859E-3	-3.88416E-12	60.8014E-3	-8.24855E-3
-727.864E-6	-4.00631E-12	58.3875E-3	-23.5993E-3	-4.11229E-12	57.4216E-3	-7.00636E-3
-732.866E-6	-4.00172E-12	60.7782E-3	-22.2327E-3	-4.18091E-12	49.6323E-3	-1.34515E-3
-737.869E-6	-3.95358E-12	52.6853E-3	-14.2484E-3	-4.00666E-12	50.4547E-3	-1.46388E-3
-742.871E-6	-4.06867E-12	43.5431E-3	-11.9061E-3	-3.85553E-12	47.0880E-3	-12.1380E-3
-747.874E-6	-4.12517E-12	38.5589E-3	-9.39254E-3	-3.97339E-12	39.3131E-3	-17.7185E-3
-752.876E-6	-4.06493E-12	41.4970E-3	-6.91280E-3	-4.19631E-12	45.9222E-3	-16.0373E-3
-757.879E-6	-3.98760E-12	50.7773E-3	-14.5715E-3	-4.11096E-12	55.9017E-3	-18.6377E-3
-762.881E-6	-4.09020E-12	52.4633E-3	-18.7328E-3	-3.99675E-12	59.4632E-3	-17.0847E-3
-767.884E-6	-4.13846E-12	52.4112E-3	-12.3783E-3	-3.84146E-12	63.1073E-3	-9.16444E-3
-772.886E-6	-3.99185E-12	52.6257E-3	-7.28071E-3	-3.99151E-12	60.2255E-3	-10.3553E-3
-777.889E-6	-3.95153E-12	47.7897E-3	-19.3396E-3	-4.15364E-12	52.0821E-3	-16.6188E-3
-782.891E-6	-4.10265E-12	47.3932E-3	-33.7112E-3	-4.11510E-12	59.0660E-3	-17.2865E-3
-787.894E-6	-4.33792E-12	45.0829E-3	-31.8382E-3	-3.95071E-12	69.5256E-3	-10.6024E-3
-792.896E-6	-4.24079E-12	44.0098E-3	-33.1525E-3	-4.04848E-12	63.5314E-3	-10.3418E-3
-797.899E-6	-4.15911E-12	49.1029E-3	-39.8430E-3	-4.24926E-12	63.7719E-3	-20.7337E-3
-802.901E-6	-4.24882E-12	52.6107E-3	-39.5199E-3	-4.28233E-12	75.3899E-3	-29.2082E-3
-807.904E-6	-4.34541E-12	50.7338E-3	-34.2241E-3	-4.19363E-12	79.7689E-3	-30.3747E-3
-812.906E-6	-4.27772E-12	51.1830E-3	-24.8811E-3	-4.19265E-12	74.9518E-3	-30.2929E-3
-817.909E-6	-4.26234E-12	60.2462E-3	-16.9240E-3	-4.37052E-12	66.0621E-3	-24.0097E-3
-822.911E-6	-4.31564E-12	67.1105E-3	-18.1843E-3	-4.52053E-12	63.5582E-3	-5.59781E-3
-827.914E-6	-4.41763E-12	66.7735E-3	-19.3006E-3	-4.36002E-12	70.5667E-3	4.90748E-3
-832.916E-6	-4.51713E-12	61.6276E-3	-23.7827E-3	-4.34168E-12	72.9355E-3	-3.75168E-3
-837.919E-6	-4.41247E-12	58.0257E-3	-44.6682E-3	-4.42963E-12	65.2324E-3	-6.44122E-3
-842.921E-6	-4.37140E-12	61.4283E-3	-53.1591E-3	-4.47908E-12	63.1145E-3	-4.44907E-3
-847.924E-6	-4.43587E-12	68.9455E-3	-26.8572E-3	-4.41617E-12	71.3614E-3	-12.8932E-3
-852.926E-6	-4.47900E-12	70.9621E-3	-8.62192E-3	-4.36685E-12	73.7633E-3	-17.0585E-3
-857.929E-6	-4.56587E-12	73.9621E-3	-26.4883E-3	-4.38206E-12	72.8544E-3	-13.0478E-3
-862.931E-6	-4.49643E-12	79.6828E-3	-42.5428E-3	-4.47767E-12	86.2173E-3	-8.14878E-3
-867.934E-6	-4.46874E-12	84.0849E-3	-36.8678E-3	-4.52709E-12	95.2710E-3	-2.40029E-3
-872.936E-6	-4.48924E-12	89.7390E-3	-23.4752E-3	-4.44454E-12	92.2823E-3	3.45267E-3
-877.939E-6	-4.57262E-12	85.9477E-3	-10.9439E-3	-4.45975E-12	98.0482E-3	5.59256E-3
-882.941E-6	-4.72543E-12	80.0410E-3	-15.0613E-3	-4.47100E-12	98.8682E-3	3.59662E-3
-887.944E-6	-4.57959E-12	81.4724E-3	-32.1090E-3	-4.57487E-12	92.3588E-3	783.038E-6
-892.946E-6	-4.61500E-12	87.3293E-3	-41.1490E-3	-4.57318E-12	92.8311E-3	-6.69809E-3
-897.949E-6	-4.78872E-12	90.6967E-3	-40.8237E-3	-4.69101E-12	100.388E-3	-13.9008E-3
-902.951E-6	-4.86473E-12	87.3805E-3	-32.1748E-3	-4.68694E-12	113.065E-3	-19.8815E-3
-907.954E-6	-4.83899E-12	96.0543E-3	-24.5672E-3	-4.73735E-12	119.075E-3	-34.4414E-3
-912.956E-6	-4.79213E-12	116.860E-3	-28.1366E-3	-4.79498E-12	115.677E-3	-29.5088E-3
-917.959E-6	-4.87750E-12	120.512E-3	-27.0926E-3	-4.95548E-12	124.595E-3	-9.69136E-3
-922.961E-6	-4.92844E-12	105.810E-3	-19.3968E-3	-4.95425E-12	143.550E-3	-16.7751E-3
-927.964E-6	-4.93408E-12	96.8045E-3	-13.9928E-3	-4.87081E-12	139.261E-3	-26.5358E-3
-932.966E-6	-4.89369E-12	101.616E-3	-3.13752E-3	-5.05063E-12	132.783E-3	-19.4522E-3
-937.969E-6	-4.99733E-12	110.295E-3	1.80635E-3	-5.19745E-12	143.853E-3	-15.7687E-3
-942.971E-6	-5.15739E-12	117.004E-3	-2.81312E-3	-5.17101E-12	151.041E-3	-13.7771E-3
-947.974E-6	-5.17465E-12	130.164E-3	-675.040E-6	-5.06625E-12	158.514E-3	-9.90457E-3
-952.976E-6	-5.17359E-12	141.741E-3	-443.804E-6	-5.10088E-12	161.129E-3	-11.5296E-3
-957.979E-6	-5.13474E-12	141.621E-3	-10.1503E-3	-5.35995E-12	156.099E-3	-14.3156E-3
-962.981E-6	-5.25209E-12	150.882E-3	-14.5554E-3	-5.30211E-12	162.561E-3	-20.3157E-3
-967.984E-6	-5.38554E-12	164.295E-3	-8.62103E-3	-5.28301E-12	165.668E-3	-31.1225E-3
-972.986E-6	-5.45000E-12	162.970E-3	2.11526E-3	-5.25997E-12	156.253E-3	-26.7254E-3
-977.989E-6	-5.42033E-12	164.573E-3	8.25834E-3	-5.43000E-12	157.222E-3	-14.3965E-3
-982.991E-6	-5.41083E-12	170.947E-3	2.29894E-3	-5.53787E-12	174.678E-3	-16.1829E-3
-987.994E-6	-5.54182E-12	168.552E-3	-7.51458E-3	-5.46916E-12	185.896E-3	-30.7754E-3
-992.997E-6	-5.68269E-12	172.913E-3	-10.1428E-3	-5.57271E-12	192.436E-3	-42.5233E-3
-997.999E-6	-5.72429E-12	184.847E-3	-9.68290E-3	-5.68099E-12	202.201E-3	-39.3711E-3
-1.00300E-3	-5.68557E-12	183.585E-3	-17.7191E-3	-5.73875E-12	207.623E-3	-25.3657E-3
-1.00800E-3	-5.77765E-12	185.155E-3	-23.2092E-3	-5.86156E-12	217.109E-3	-17.1505E-3
-1.01301E-3	-5.99250E-12	199.477E-3	-21.9879E-3	-5.89291E-12	223.601E-3	-22.4347E-3
-1.01801E-3	-6.00096E-12	211.539E-3	-26.8633E-3	-6.02469E-12	232.949E-3	-12.1548E-3
-1.02301E-3	-5.93775E-12	210.203E-3	-30.1950E-3	-6.11390E-12	249.393E-3	12.7743E-3
-1.02801E-3	-6.11354E-12	203.238E-3	-18.4436E-3	-6.24395E-12	253.411E-3	10.0741E-3
-1.03302E-3	-6.25372E-12	211.102E-3	3.32295E-3	-6.29041E-12	254.972E-3	-9.06280E-3
-1.03802E-3	-6.41279E-12	233.771E-3	11.9431E-3	-6.34245E-12	263.108E-3	-10.7604E-3
-1.04302E-3	-6.50999E-12	247.659E-3	-4.87252E-3	-6.48864E-12	263.811E-3	-4.40122E-3
-1.04802E-3	-6.42870E-12	242.026E-3	-17.3960E-3	-6.56551E-12	261.182E-3	-5.94290E-3
-1.05303E-3	-6.62361E-12	238.342E-3	-10.5312E-3	-6.68702E-12	280.146E-3	-10.8061E-3
-1.05803E-3	-6.78931E-12	251.699E-3	-6.51610E-3	-6.76956E-12	307.871E-3	-15.9371E-3
-1.06303E-3	-6.77728E-12	267.234E-3	-11.7648E-3	-6.88069E-12	314.487E-3	-26.7968E-3
-1.06803E-3	-6.81037E-12	274.896E-3	-16.9142E-3	-6.97424E-12	319.540E-3	-26.6067E-3
-1.07304E-3	-7.03982E-12	286.340E-3	-14.4070E-3	-7.01527E-12	332.819E-3	-10.5826E-3
-1.07804E-3	-7.04018E-12	298.334E-3	-12.2102E-3	-7.01873E-12	334.734E-3	-7.73734E-3
-1.08304E-3	-7.12233E-12	298.851E-3	-25.6755E-3	-7.12574E-12	336.364E-3	-10.1560E-3
-1.08804E-3	-7.14861E-12	296.660E-3	-35.6818E-3	-7.27455E-12	349.946E-3	-11.6304E-3
-1.09305E-3	-7.25867E-12	299.653E-3	-31.6175E-3	-7.36000E-12	362.755E-3	-16.7858E-3
-1.09805E-3	-7.38561E-12	312.955E-3	-33.1379E-3	-7.43320E-12	371.278E-3	-13.3723E-3
-1.10305E-3	-7.50934E-12	338.949E-3	-31.6111E-3	-7.56746E-12	387.320E-3	-16.2093E-3
-1.10805E-3	-7.65009E-12	356.926E-3	-21.7256E-3	-7.78751E-12	405.001E-3	-15.8051E-3
-1.11306E-3	-7.73307E-12	362.536E-3	-18.7951E-3	-7.89984E-12	415.258E-3	1.95221E-3
-1.11806E-3	-7.86313E-12	363.786E-3	-18.2964E-3	-8.00352E-12	425.999E-3	4.78858E-3
-1.12306E-3	-8.16212E-12	370.563E-3	-20.3776E-3	-8.13084E-12	434.354E-3	-5.85697E-3
-1.12806E-3	-8.26962E-12	394.525E-3	-19.9385E-3	-8.25841E-12	441.423E-3	-9.14185E-3
-1.13307E-3	-8.47399E-12	418.980E-3	-15.5002E-3	-8.41681E-12	458.193E-3	-10.2054E-3
-1.13807E-3	-8.69359E-12	425.770E-3	-20.5206E-3	-8.61026E-12	466.778E-3	-8.34199E-3
-1.14307E-3	-8.81398E-12	427.214E-3	-20.6808E-3	-8.81102E-12	475.236E-3	2.12115E-3
-1.14807E-3	-9.06496E-12	439.744E-3	-13.8526E-3	-8.94592E-12	500.947E-3	3.59724E-3
-1.15308E-3	-9.19029E-12	453.678E-3	-3.77387E-3	-9.12325E-12	514.669E-3	-12.2121E-3
-1.15808E-3	-9.27971E-12	462.662E-3	7.18957E-3	-9.36688E-12	526.140E-3	-25.5245E-3
-1.16308E-3	-9.46977E-12	483.211E-3	-958.357E-6	-9.54231E-12	557.263E-3	-31.0769E-3
-1.16808E-3	-9.65957E-12	512.100E-3	-19.8247E-3	-9.66747E-12	575.898E-3	-33.9954E-3
-1.17309E-3	-9.78325E-12	528.050E-3	-23.7673E-3	-9.82014E-12	571.491E-3	-24.0268E-3
-1.17809E-3	-9.88533E-12	528.279E-3	-17.9768E-3	-10.0171E-12	584.223E-3	-12.5038E-3
-1.18309E-3	-9.98814E-12	525.879E-3	-20.5470E-3	-10.2383E-12	603.832E-3	-20.0227E-3
-1.18809E-3	-10.2837E-12	532.019E-3	-22.8401E-3	-10.3640E-12	605.384E-3	-21.2556E-3
-1.19310E-3	-10.4491E-12	549.843E-3	-17.7655E-3	-10.5141E-12	617.180E-3	-11.5576E-3
-1.19810E-3	-10.6147E-12	575.340E-3	-13.7438E-3	-10.6734E-12	631.755E-3	-10.2450E-3
-1.20310E-3	-10.6958E-12	593.672E-3	-14.4094E-3	-10.9100E-12	648.886E-3	-11.6742E-3
-1.20810E-3	-10.9637E-12	602.822E-3	-17.7914E-3	-11.1608E-12	680.414E-3	-12.5270E-3
-1.21311E-3	-11.2772E-12	618.431E-3	-12.5952E-3	-11.3400E-12	692.448E-3	-15.5738E-3
-1.21811E-3	-11.5621E-12	640.484E-3	-3.70503E-3	-11.4741E-12	691.622E-3	-17.8465E-3
-1.22311E-3	-11.9150E-12	657.086E-3	1.06048E-3	-11.6632E-12	711.263E-3	-20.9918E-3
-1.22811E-3	-12.0843E-12	665.794E-3	-7.58642E-3	-11.9607E-12	740.504E-3	-27.6415E-3
-1.23312E-3	-12.3559E-12	672.016E-3	-30.9413E-3	-12.3157E-12	764.767E-3	-22.3167E-3
-1.23812E-3	-12.6512E-12	683.206E-3	-32.5961E-3	-12.6174E-12	792.444E-3	-14.2161E-3
-1.24312E-3	-12.9217E-12	703.890E-3	-13.0689E-3	-12.8478E-12	809.966E-3	-20.3609E-3
-1.24812E-3	-13.1113E-12	734.677E-3	-4.55551E-3	-13.1556E-12	811.778E-3	-17.0838E-3
-1.25313E-3	-13.2869E-12	765.457E-3	-11.0729E-3	-13.5774E-12	831.132E-3	-11.7309E-3
-1.25813E-3	-13.5898E-12	780.781E-3	-18.1225E-3	-13.9178E-12	863.677E-3	-19.0851E-3
-1.26313E-3	-13.8945E-12	788.805E-3	-23.2668E-3	-14.1112E-12	874.337E-3	-13.4570E-3
-1.26813E-3	-14.1232E-12	810.336E-3	-30.4546E-3	-14.3546E-12	881.346E-3	-371.486E-6
-1.27314E-3	-14.3088E-12	830.278E-3	-30.7983E-3	-14.7734E-12	903.782E-3	-6.54756E-3
-1.27814E-3	-14.6261E-12	837.691E-3	-26.3324E-3	-15.1494E-12	922.423E-3	-18.5956E-3
-1.28314E-3	-14.8642E-12	851.388E-3	-24.5141E-3	-15.2625E-12	935.804E-3	-16.3742E-3
-1.28814E-3	-15.0912E-12	866.427E-3	-24.1704E-3	-15.4130E-12	945.880E-3	-7.35660E-3
-1.29315E-3	-15.3600E-12	874.125E-3	-28.8052E-3	-15.7289E-12	944.722E-3	-3.59354E-3
-1.29815E-3	-15.6677E-12	886.287E-3	-30.3507E-3	-15.9937E-12	954.717E-3	-7.55547E-3
-1.30315E-3	-15.9982E-12	898.842E-3	-20.9917E-3	-16.2239E-12	980.625E-3	-20.7350E-3
-1.30815E-3	-16.3331E-12	909.738E-3	-18.6473E-3	-16.4911E-12	988.639E-3	-27.6468E-3
-1.31316E-3	-16.7268E-12	930.438E-3	-18.6601E-3	-16.7753E-12	986.433E-3	-19.0979E-3
-1.31816E-3	-17.0810E-12	949.600E-3	-12.8077E-3	-17.1125E-12	1.00345E+0	-17.9130E-3
-1.32316E-3	-17.3274E-12	961.730E-3	-16.8206E-3	-17.5164E-12	1.02649E+0	-22.8874E-3
-1.32816E-3	-17.6182E-12	983.942E-3	-25.4909E-3	-17.8015E-12	1.04367E+0	-23.8338E-3
-1.33317E-3	-18.0193E-12	1.00861E+0	-30.7056E-3	-18.1760E-12	1.05610E+0	-24.0403E-3
-1.33817E-3	-18.3651E-12	1.02106E+0	-31.9403E-3	-18.6726E-12	1.05935E+0	-19.6771E-3
-1.34317E-3	-18.6412E-12	1.03209E+0	-22.4802E-3	-19.0560E-12	1.08171E+0	-10.3433E-3
-1.34817E-3	-18.9085E-12	1.04818E+0	-7.67629E-3	-19.2870E-12	1.11168E+0	-5.89955E-3
-1.35318E-3	-19.1758E-12	1.05325E+0	-7.88401E-3	-19.6204E-12	1.11608E+0	-5.66778E-3
-1.35818E-3	-19.6443E-12	1.06265E+0	-23.3164E-3	-20.1971E-12	1.12436E+0	-643.660E-6
-1.36318E-3	-20.2159E-12	1.07848E+0	-23.3373E-3	-20.6288E-12	1.14367E+0	-1.95443E-3
-1.36818E-3	-20.4851E-12	1.08592E+0	-11.3202E-3	-20.9412E-12	1.14825E+0	-16.1649E-3
-1.37319E-3	-20.9047E-12	1.09891E+0	-7.24789E-3	-21.2041E-12	1.15111E+0	-21.6084E-3
-1.37819E-3	-21.2600E-12	1.11697E+0	-2.02150E-3	-21.5191E-12	1.16245E+0	-13.6635E-3
-1.38319E-3	-21.6038E-12	1.13773E+0	-1.72686E-3	-21.8661E-12	1.15936E+0	-9.89062E-3
-1.38819E-3	-21.9789E-12	1.14589E+0	-12.7234E-3	-22.2900E-12	1.15105E+0	-5.57118E-3
-1.39320E-3	-22.3702E-12	1.14205E+0	-16.5018E-3	-22.5798E-12	1.15453E+0	-8.40556E-3
-1.39820E-3	-22.7405E-12	1.14671E+0	-10.2979E-3	-22.8375E-12	1.15470E+0	-23.9230E-3
-1.40320E-3	-23.0896E-12	1.16422E+0	-8.60854E-3	-23.3088E-12	1.16245E+0	-19.8636E-3
-1.40820E-3	-23.3588E-12	1.18268E+0	-13.1740E-3	-23.5964E-12	1.17759E+0	-12.2763E-3
-1.41321E-3	-23.8296E-12	1.18730E+0	-17.1107E-3	-23.9898E-12	1.18495E+0	-23.1390E-3
-1.41821E-3	-24.2366E-12	1.18912E+0	-13.3900E-3	-24.4220E-12	1.20157E+0	-27.1408E-3
-1.42321E-3	-24.5185E-12	1.19310E+0	-3.08096E-3	-24.9216E-12	1.21836E+0	-25.9336E-3
-1.42821E-3	-24.9097E-12	1.19065E+0	1.45761E-3	-25.4664E-12	1.21955E+0	-19.3458E-3
-1.43322E-3	-25.3570E-12	1.19056E+0	-5.63212E-3	-25.9457E-12	1.23198E+0	-3.99725E-3
-1.43822E-3	-25.8504E-12	1.19887E+0	-15.6472E-3	-26.3063E-12	1.26016E+0	-7.68644E-3
-1.44322E-3	-26.3003E-12	1.20139E+0	-17.5849E-3	-26.6465E-12	1.26249E+0	-28.4152E-3
-1.44822E-3	-26.7093E-12	1.20419E+0	-19.4622E-3	-27.0937E-12	1.24392E+0	-27.5969E-3
-1.45323E-3	-27.2562E-12	1.22025E+0	-22.7615E-3	-27.5655E-12	1.24837E+0	-25.2400E-3
-1.45823E-3	-27.8215E-12	1.22781E+0	-19.5733E-3	-27.9010E-12	1.25298E+0	-34.0600E-3
-1.46323E-3	-28.2850E-12	1.23136E+0	-24.2560E-3	-28.2114E-12	1.24316E+0	-14.6383E-3
-1.46823E-3	-28.7978E-12	1.24227E+0	-34.5496E-3	-28.5093E-12	1.24507E+0	2.20394E-3
-1.47324E-3	-29.2969E-12	1.24509E+0	-28.3469E-3	-28.9981E-12	1.24168E+0	-6.53873E-3
-1.47824E-3	-29.7672E-12	1.24873E+0	-15.3606E-3	-29.3955E-12	1.23599E+0	-1.42316E-3
-1.48324E-3	-30.0745E-12	1.26221E+0	-7.63541E-3	-29.7285E-12	1.24521E+0	14.8910E-3
-1.48824E-3	-30.4799E-12	1.26575E+0	-2.29814E-3	-30.0483E-12	1.24099E+0	13.0722E-3
-1.49325E-3	-30.9079E-12	1.25265E+0	-6.94514E-3	-30.4965E-12	1.22287E+0	-402.327E-6
-1.49825E-3	-31.2708E-12	1.24834E+0	-15.9515E-3	-30.8763E-12	1.22790E+0	-18.8743E-3
-1.50325E-3	-31.4790E-12	1.25615E+0	-11.2480E-3	-31.3276E-12	1.23949E+0	-35.5804E-3
-1.50825E-3	-31.9616E-12	1.26031E+0	-3.85646E-3	-31.7496E-12	1.22923E+0	-25.6946E-3
-1.51326E-3	-32.3418E-12	1.26650E+0	-4.39716E-3	-32.1566E-12	1.21828E+0	-12.2301E-3
-1.51826E-3	-32.7731E-12	1.26317E+0	-4.15432E-3	-32.5294E-12	1.21935E+0	-24.0549E-3
-1.52326E-3	-32.8527E-12	1.24698E+0	-11.2392E-3	-32.9300E-12	1.21824E+0	-27.6124E-3
-1.52826E-3	-33.1727E-12	1.25024E+0	-19.7724E-3	-33.3982E-12	1.21508E+0	-15.8557E-3
-1.53327E-3	-33.7965E-12	1.24528E+0	-17.5925E-3	-33.9059E-12	1.22252E+0	-10.9101E-3
-1.53827E-3	-34.2064E-12	1.22157E+0	-11.1595E-3	-34.2728E-12	1.23077E+0	-662.092E-6
-1.54327E-3	-34.5570E-12	1.21291E+0	-9.77140E-3	-34.7883E-12	1.22386E+0	5.12909E-3
-1.54827E-3	-34.9591E-12	1.21524E+0	-13.5948E-3	-35.2338E-12	1.20403E+0	-7.28290E-3
-1.55328E-3	-35.4376E-12	1.22303E+0	-12.9995E-3	-35.4498E-12	1.19113E+0	-10.8907E-3
-1.55828E-3	-36.1633E-12	1.22964E+0	-10.0522E-3	-35.8320E-12	1.19661E+0	-11.1245E-3
-1.56328E-3	-36.5756E-12	1.22093E+0	-20.9535E-3	-36.5455E-12	1.19517E+0	-26.7697E-3
-1.56828E-3	-36.8439E-12	1.20517E+0	-39.8895E-3	-36.8637E-12	1.17353E+0	-25.1102E-3
-1.57329E-3	-37.2946E-12	1.20373E+0	-33.7674E-3	-37.2871E-12	1.17142E+0	-8.66219E-3
-1.57829E-3	-37.6658E-12	1.21497E+0	-15.0722E-3	-37.5386E-12	1.18238E+0	-7.10098E-3
-1.58329E-3	-37.9065E-12	1.21707E+0	-10.7517E-3	-38.0370E-12	1.16388E+0	-12.7114E-3
-1.58829E-3	-38.1847E-12	1.20254E+0	-8.21854E-3	-38.4975E-12	1.15853E+0	-10.9768E-3
-1.59330E-3	-38.5297E-12	1.18516E+0	-5.99840E-3	-38.8139E-12	1.18202E+0	-4.26725E-3
-1.59830E-3	-38.7865E-12	1.17220E+0	-8.30273E-3	-39.1000E-12	1.17430E+0	-5.79733E-3
-1.60330E-3	-39.0894E-12	1.16871E+0	-2.87238E-3	-39.6318E-12	1.14593E+0	-10.3503E-3
-1.60830E-3	-39.4595E-12	1.16637E+0	-142.657E-6	-40.1857E-12	1.13797E+0	-17.3858E-3
-1.61331E-3	-39.7464E-12	1.16065E+0	-12.5183E-3	-40.3605E-12	1.13821E+0	-20.9958E-3
-1.61831E-3	-39.9587E-12	1.16016E+0	-20.5673E-3	-40.7279E-12	1.14059E+0	-11.7122E-3
-1.62331E-3	-40.2967E-12	1.15271E+0	-22.5059E-3	-41.1131E-12	1.14925E+0	-10.3951E-3
-1.62831E-3	-40.7177E-12	1.13154E+0	-23.5895E-3	-41.5760E-12	1.14028E+0	-17.1118E-3
-1.63332E-3	-41.0386E-12	1.11152E+0	-22.1467E-3	-41.7489E-12	1.12176E+0	-17.1917E-3
-1.63832E-3	-41.5209E-12	1.10777E+0	-23.1589E-3	-42.3201E-12	1.11799E+0	-23.2426E-3
-1.64332E-3	-41.9608E-12	1.10569E+0	-31.7106E-3	-42.5643E-12	1.10561E+0	-34.2994E-3
-1.64832E-3	-42.4348E-12	1.10012E+0	-39.9923E-3	-42.8355E-12	1.09891E+0	-27.8086E-3
-1.65333E-3	-42.9843E-12	1.10745E+0	-29.8200E-3	-43.2293E-12	1.11215E+0	-12.6072E-3
-1.65833E-3	-43.3729E-12	1.11179E+0	-10.5839E-3	-43.8966E-12	1.10962E+0	-9.73269E-3
-1.66333E-3	-43.9295E-12	1.09879E+0	226.048E-6	-44.2087E-12	1.09543E+0	-13.5238E-3
-1.66833E-3	-44.4685E-12	1.08605E+0	13.9024E-3	-44.5296E-12	1.08727E+0	-9.17178E-3
-1.67334E-3	-44.8236E-12	1.08739E+0	17.8695E-3	-45.1545E-12	1.07150E+0	-3.28694E-3
-1.67834E-3	-45.1954E-12	1.09110E+0	2.59334E-3	-45.6063E-12	1.05922E+0	-4.01905E-3
-1.68334E-3	-45.5737E-12	1.08667E+0	-8.43709E-3	-46.0362E-12	1.07249E+0	-11.3582E-3
-1.68834E-3	-45.9235E-12	1.07919E+0	-14.5731E-3	-46.1128E-12	1.07226E+0	-11.8849E-3
-1.69335E-3	-46.2042E-12	1.07093E+0	-14.7392E-3	-46.4014E-12	1.04443E+0	-1.78234E-3
-1.69835E-3	-46.5278E-12	1.05627E+0	-11.8942E-3	-46.6427E-12	1.03000E+0	-8.00365E-3
-1.70335E-3	-46.7804E-12	1.04274E+0	-9.49158E-3	-46.7266E-12	1.02528E+0	-23.4283E-3
-1.70835E-3	-47.0963E-12	1.04185E+0	-1.22973E-3	-46.8656E-12	1.01811E+0	-25.1160E-3
-1.71336E-3	-47.4875E-12	1.04228E+0	1.30295E-3	-47.1545E-12	1.01336E+0	-29.3549E-3
-1.71836E-3	-47.7518E-12	1.04525E+0	-12.9877E-3	-47.4325E-12	1.00201E+0	-38.5257E-3
-1.72336E-3	-48.1251E-12	1.04606E+0	-33.2129E-3	-47.6755E-12	992.407E-3	-29.3106E-3
-1.72836E-3	-48.5441E-12	1.02492E+0	-36.6357E-3	-47.8212E-12	994.770E-3	-19.5085E-3
-1.73337E-3	-48.8123E-12	1.00623E+0	-24.8193E-3	-47.8585E-12	993.365E-3	-28.8635E-3
-1.73837E-3	-49.0891E-12	1.01619E+0	-11.2756E-3	-48.3355E-12	992.027E-3	-33.4702E-3
-1.74337E-3	-49.6082E-12	1.02274E+0	5.09610E-3	-48.6878E-12	997.143E-3	-28.7588E-3
-1.74837E-3	-50.0682E-12	1.01049E+0	16.0315E-3	-49.2201E-12	987.376E-3	-33.0130E-3
-1.75338E-3	-50.3567E-12	1.00257E+0	15.0862E-3	-49.4606E-12	973.772E-3	-37.2623E-3
-1.75838E-3	-50.6227E-12	997.141E-3	6.63570E-3	-50.1908E-12	980.763E-3	-38.9924E-3
-1.76338E-3	-51.2976E-12	986.865E-3	-10.9306E-3	-50.8410E-12	979.993E-3	-40.5791E-3
-1.76838E-3	-51.9844E-12	975.139E-3	-31.5840E-3	-51.3896E-12	966.104E-3	-24.7362E-3
-1.77339E-3	-51.9965E-12	968.563E-3	-41.4681E-3	-51.8272E-12	965.240E-3	-8.85238E-3
-1.77839E-3	-52.1159E-12	966.403E-3	-37.3944E-3	-52.2452E-12	965.836E-3	-15.8352E-3
-1.78339E-3	-52.6560E-12	975.453E-3	-31.2510E-3	-52.8290E-12	962.317E-3	-23.3053E-3
-1.78839E-3	-53.1320E-12	992.936E-3	-33.8451E-3	-53.0455E-12	967.140E-3	-22.0797E-3
-1.79340E-3	-53.1818E-12	994.240E-3	-33.3680E-3	-53.3297E-12	962.538E-3	-19.7319E-3
-1.79840E-3	-53.2589E-12	976.661E-3	-21.5120E-3	-53.5277E-12	941.169E-3	-9.81056E-3
-1.80340E-3	-53.6069E-12	955.165E-3	-16.5554E-3	-53.7323E-12	926.221E-3	2.47462E-3
-1.80840E-3	-53.9517E-12	944.219E-3	-10.9930E-3	-53.7278E-12	917.256E-3	143.869E-6
-1.81341E-3	-54.0900E-12	940.146E-3	-3.03380E-3	-53.9564E-12	917.367E-3	-12.4383E-3
-1.81841E-3	-54.1339E-12	934.010E-3	-6.68229E-3	-54.2238E-12	930.421E-3	-11.7101E-3
-1.82341E-3	-54.4920E-12	931.091E-3	-1.45221E-3	-54.5580E-12	926.641E-3	-8.49615E-3
-1.82841E-3	-54.9918E-12	929.753E-3	-695.321E-6	-54.8697E-12	905.105E-3	-16.1253E-3
-1.83342E-3	-55.1721E-12	930.776E-3	-16.9163E-3	-54.8673E-12	903.152E-3	-15.6341E-3
-1.83842E-3	-55.4679E-12	939.225E-3	-20.1574E-3	-55.3257E-12	920.550E-3	-9.27629E-3
-1.84342E-3	-55.8911E-12	938.296E-3	-22.9186E-3	-55.7217E-12	932.508E-3	-6.37517E-3
-1.84842E-3	-56.4249E-12	924.488E-3	-32.6320E-3	-56.2872E-12	933.150E-3	-3.24051E-3
-1.85343E-3	-56.4908E-12	921.120E-3	-31.3512E-3	-56.7569E-12	927.703E-3	-3.89112E-3
-1.85843E-3	-56.9288E-12	922.203E-3	-29.1327E-3	-57.5274E-12	925.816E-3	-675.503E-6
-1.86343E-3	-57.3336E-12	909.825E-3	-17.4219E-3	-58.0825E-12	926.016E-3	4.13198E-3
-1.86843E-3	-57.7618E-12	901.749E-3	1.92882E-3	-58.4845E-12	926.745E-3	-1.26991E-3
-1.87344E-3	-58.1949E-12	906.295E-3	-1.13145E-3	-58.9107E-12	919.511E-3	-11.4890E-3
-1.87844E-3	-58.5154E-12	899.481E-3	-24.5393E-3	-59.3528E-12	902.213E-3	-17.8134E-3
-1.88344E-3	-58.7707E-12	895.516E-3	-29.0555E-3	-59.5529E-12	890.296E-3	-14.4818E-3
-1.88844E-3	-58.9043E-12	912.394E-3	-12.7152E-3	-59.5894E-12	884.991E-3	-7.84816E-3
-1.89345E-3	-59.3700E-12	928.566E-3	-19.0230E-3	-60.0960E-12	892.584E-3	-16.4879E-3
-1.89845E-3	-59.4881E-12	924.935E-3	-41.3604E-3	-60.1505E-12	896.502E-3	-39.0130E-3
-1.90345E-3	-59.6675E-12	902.228E-3	-46.7742E-3	-60.1356E-12	877.337E-3	-38.2753E-3
-1.90845E-3	-59.8880E-12	886.248E-3	-37.4298E-3	-60.1056E-12	861.914E-3	-15.7071E-3
-1.91346E-3	-59.8919E-12	889.121E-3	-26.6755E-3	-60.1851E-12	861.296E-3	-8.02058E-3
-1.91846E-3	-60.3611E-12	886.344E-3	-22.0228E-3	-60.2009E-12	864.578E-3	-8.38783E-3
-1.92346E-3	-60.3809E-12	878.956E-3	-21.5598E-3	-60.4358E-12	878.038E-3	4.99799E-3
-1.92846E-3	-60.5775E-12	874.757E-3	-19.2554E-3	-60.4639E-12	882.599E-3	9.82012E-3
-1.93347E-3	-60.5664E-12	867.185E-3	-12.8770E-3	-60.7317E-12	865.303E-3	-1.30779E-3
-1.93847E-3	-61.1328E-12	867.523E-3	-14.6683E-3	-61.1078E-12	855.198E-3	-6.86049E-3
-1.94347E-3	-61.3332E-12	877.414E-3	-30.1976E-3	-61.1284E-12	856.366E-3	-19.0107E-3
-1.94847E-3	-61.3919E-12	874.223E-3	-39.2504E-3	-61.6003E-12	852.408E-3	-35.3502E-3
-1.95348E-3	-61.6901E-12	854.924E-3	-37.3837E-3	-61.9893E-12	851.075E-3	-21.6611E-3
-1.95848E-3	-62.4132E-12	847.244E-3	-24.4110E-3	-62.5414E-12	864.591E-3	-2.01934E-3
-1.96348E-3	-62.9596E-12	849.356E-3	-16.3736E-3	-62.9312E-12	871.189E-3	-3.40305E-3
-1.96848E-3	-63.0712E-12	849.676E-3	-26.0183E-3	-63.3468E-12	863.526E-3	3.19611E-3
-1.97349E-3	-63.7555E-12	854.421E-3	-27.7568E-3	-63.9028E-12	846.285E-3	4.57154E-3
-1.97849E-3	-64.2602E-12	849.403E-3	-14.6662E-3	-64.0702E-12	823.035E-3	-12.6392E-3
-1.98349E-3	-64.6473E-12	836.184E-3	-962.403E-6	-64.4168E-12	821.792E-3	-13.9059E-3
-1.98849E-3	-64.8196E-12	834.041E-3	9.07826E-3	-64.7648E-12	839.722E-3	-5.05928E-3
-1.99350E-3	-65.2274E-12	836.721E-3	12.5277E-3	-65.1507E-12	842.200E-3	-8.87562E-3
-1.99850E-3	-65.4491E-12	835.352E-3	9.95961E-3	-65.0941E-12	827.467E-3	-9.60414E-3
-2.00350E-3	-65.3849E-12	838.088E-3	5.47909E-3	-65.3817E-12	814.668E-3	-5.97740E-3
-2.00850E-3	-65.5202E-12	844.419E-3	123.779E-6	-65.2912E-12	807.652E-3	-6.40659E-3
-2.01351E-3	-65.7803E-12	843.046E-3	-9.48905E-3	-65.6702E-12	817.029E-3	-2.27368E-3
-2.01851E-3	-65.9525E-12	839.399E-3	-23.0030E-3	-65.5734E-12	830.678E-3	4.22298E-3
-2.02351E-3	-65.8378E-12	835.441E-3	-30.6561E-3	-65.8525E-12	819.122E-3	-3.66282E-3
-2.02851E-3	-65.8751E-12	829.920E-3	-18.3915E-3	-66.0755E-12	808.951E-3	-18.3592E-3
-2.03352E-3	-65.9095E-12	824.492E-3	-8.50043E-3	-66.2283E-12	821.689E-3	-21.6804E-3
-2.03852E-3	-66.5156E-12	818.407E-3	-13.4386E-3	-66.4524E-12	831.495E-3	-21.8974E-3
-2.04352E-3	-66.4041E-12	805.076E-3	-12.5076E-3	-66.8224E-12	824.568E-3	-13.2967E-3
-2.04852E-3	-66.6553E-12	788.688E-3	-13.9780E-3	-67.0910E-12	808.063E-3	1.98036E-3
-2.05353E-3	-67.3906E-12	785.902E-3	-16.6893E-3	-67.2711E-12	800.210E-3	542.681E-6
-2.05853E-3	-67.9099E-12	788.277E-3	-14.0874E-3	-67.7221E-12	812.455E-3	-7.28637E-3
-2.06353E-3	-68.1109E-12	794.798E-3	-27.7532E-3	-68.0095E-12	824.121E-3	-6.97259E-3
-2.06853E-3	-68.8661E-12	790.969E-3	-42.3352E-3	-68.6768E-12	817.532E-3	-2.88776E-3
-2.07354E-3	-69.5117E-12	773.491E-3	-34.7067E-3	-68.9347E-12	807.938E-3	3.04428E-3
-2.07854E-3	-70.2147E-12	778.741E-3	-26.4934E-3	-69.4653E-12	806.368E-3	-4.05325E-3
-2.08354E-3	-70.1819E-12	799.470E-3	-27.1658E-3	-69.8542E-12	810.337E-3	-17.3676E-3
-2.08854E-3	-70.8034E-12	821.990E-3	-30.9176E-3	-70.0979E-12	819.069E-3	-28.2480E-3
-2.09355E-3	-71.2392E-12	837.035E-3	-36.1854E-3	-70.4073E-12	814.288E-3	-25.4592E-3
-2.09855E-3	-71.2377E-12	822.407E-3	-33.4874E-3	-70.8478E-12	798.368E-3	-7.61047E-3
-2.10355E-3	-71.2900E-12	799.114E-3	-29.0815E-3	-71.3006E-12	793.595E-3	-4.24858E-3
-2.10855E-3	-71.5291E-12	785.700E-3	-28.0010E-3	-71.7119E-12	798.742E-3	-8.59888E-3
-2.11356E-3	-71.9508E-12	786.829E-3	-22.7041E-3	-72.0817E-12	796.557E-3	-3.58567E-3
-2.11856E-3	-71.6730E-12	801.998E-3	-23.1931E-3	-72.1819E-12	787.266E-3	-1.08376E-3
-2.12356E-3	-71.6972E-12	807.636E-3	-25.5124E-3	-72.6760E-12	783.393E-3	4.17478E-3
-2.12856E-3	-71.9513E-12	801.326E-3	-18.3326E-3	-72.6471E-12	780.725E-3	4.66295E-3
-2.13357E-3	-71.9283E-12	792.219E-3	-6.94170E-3	-72.6667E-12	788.577E-3	-15.4204E-3
-2.13857E-3	-72.1060E-12	790.853E-3	-2.16417E-3	-72.8702E-12	806.769E-3	-26.8839E-3
-2.14357E-3	-72.0875E-12	786.968E-3	-3.06345E-3	-72.8306E-12	813.326E-3	-12.4226E-3
-2.14857E-3	-72.1985E-12	775.254E-3	-1.39053E-3	-72.7984E-12	790.639E-3	6.49064E-3
-2.15358E-3	-72.7169E-12	782.304E-3	-4.20140E-3	-72.8788E-12	762.328E-3	7.82037E-3
-2.15858E-3	-73.2616E-12	794.576E-3	-2.52933E-3	-73.2099E-12	770.573E-3	-5.40171E-3
-2.16358E-3	-73.5345E-12	792.050E-3	449.140E-6	-73.4269E-12	790.863E-3	-18.7625E-3
-2.16858E-3	-74.1836E-12	797.612E-3	-21.1409E-3	-73.7091E-12	788.270E-3	-33.6414E-3
-2.17359E-3	-74.8249E-12	799.072E-3	-40.8934E-3	-73.6489E-12	777.643E-3	-29.5125E-3
-2.17859E-3	-75.1931E-12	789.800E-3	-25.8080E-3	-74.0486E-12	773.759E-3	-1.77665E-3
-2.18359E-3	-75.4358E-12	792.804E-3	-13.7281E-3	-74.5777E-12	772.596E-3	7.79420E-3
-2.18859E-3	-75.6437E-12	791.650E-3	-19.8825E-3	-74.9850E-12	772.650E-3	-1.14150E-3
-2.19360E-3	-76.0587E-12	786.176E-3	-18.4680E-3	-75.4053E-12	772.913E-3	-18.8225E-3
-2.19860E-3	-76.2734E-12	783.348E-3	-19.2022E-3	-75.5642E-12	766.037E-3	-37.2109E-3
-2.20360E-3	-76.3455E-12	784.883E-3	-9.87085E-3	-76.2248E-12	762.063E-3	-28.6784E-3
-2.20860E-3	-76.4833E-12	794.994E-3	-2.62868E-3	-76.9232E-12	780.840E-3	-6.86588E-3
-2.21361E-3	-76.7378E-12	793.487E-3	-13.8387E-3	-77.5020E-12	799.997E-3	4.30658E-3
-2.21861E-3	-76.3838E-12	777.865E-3	-22.2346E-3	-77.6702E-12	809.868E-3	3.53762E-3
-2.22361E-3	-76.9303E-12	770.443E-3	-29.7349E-3	-78.0785E-12	815.462E-3	-482.692E-6
-2.22861E-3	-77.1038E-12	773.802E-3	-28.1941E-3	-78.1381E-12	792.741E-3	138.794E-6
-2.23362E-3	-77.1131E-12	774.007E-3	-9.74819E-3	-78.1930E-12	763.636E-3	-9.72278E-3
-2.23862E-3	-76.9528E-12	768.739E-3	7.85437E-3	-78.0381E-12	762.293E-3	-27.6642E-3
-2.24362E-3	-77.3293E-12	755.331E-3	12.1761E-3	-78.2437E-12	765.100E-3	-22.4845E-3
-2.24862E-3	-77.6563E-12	748.819E-3	8.49160E-3	-78.0773E-12	755.559E-3	-11.2054E-3
-2.25363E-3	-77.9458E-12	766.025E-3	-3.53189E-3	-78.0378E-12	745.349E-3	-19.1475E-3
-2.25863E-3	-77.9458E-12	776.432E-3	-24.1652E-3	-78.0769E-12	736.961E-3	-31.4599E-3
-2.26363E-3	-78.3313E-12	765.123E-3	-38.2443E-3	-78.3664E-12	732.177E-3	-38.0313E-3
-2.26863E-3	-78.9062E-12	751.631E-3	-33.4855E-3	-78.5657E-12	745.182E-3	-30.1497E-3
-2.27364E-3	-79.6235E-12	748.462E-3	-20.8852E-3	-78.5072E-12	750.980E-3	-20.3675E-3
-2.27864E-3	-79.7654E-12	759.904E-3	-10.3599E-3	-79.5151E-12	743.162E-3	-20.8876E-3
-2.28364E-3	-80.1470E-12	775.189E-3	-6.71974E-3	-79.9617E-12	752.761E-3	-15.7871E-3
-2.28864E-3	-80.7648E-12	765.985E-3	-20.3102E-3	-80.6684E-12	773.713E-3	-14.3772E-3
-2.29365E-3	-81.4501E-12	746.805E-3	-36.7067E-3	-81.0923E-12	778.134E-3	-15.2592E-3
-2.29865E-3	-81.4971E-12	754.236E-3	-39.0445E-3	-81.7907E-12	762.147E-3	-17.4328E-3
-2.30365E-3	-81.8660E-12	761.500E-3	-35.8954E-3	-81.9363E-12	755.005E-3	-30.4840E-3
-2.30865E-3	-82.1879E-12	750.004E-3	-37.4576E-3	-82.0343E-12	754.786E-3	-37.0015E-3
-2.31366E-3	-82.3886E-12	735.072E-3	-38.2121E-3	-82.2793E-12	746.447E-3	-23.6738E-3
-2.31866E-3	-82.7484E-12	734.970E-3	-27.4218E-3	-82.4030E-12	736.008E-3	-8.20801E-3
-2.32366E-3	-82.7901E-12	754.861E-3	-15.3847E-3	-82.4091E-12	739.863E-3	2.97387E-3
-2.32866E-3	-82.5170E-12	773.770E-3	-12.0079E-3	-82.2684E-12	752.749E-3	15.1184E-3
-2.33367E-3	-82.8428E-12	777.279E-3	-9.13546E-3	-82.1451E-12	753.526E-3	3.13490E-3
-2.33867E-3	-82.4210E-12	774.530E-3	-9.18029E-3	-81.7781E-12	744.283E-3	-20.0060E-3
-2.34367E-3	-82.4883E-12	767.832E-3	-19.0036E-3	-81.9840E-12	742.273E-3	-23.6445E-3
-2.34867E-3	-82.5392E-12	753.591E-3	-35.5214E-3	-81.6185E-12	749.014E-3	-19.3813E-3
-2.35368E-3	-82.6788E-12	745.236E-3	-36.2094E-3	-81.8255E-12	741.205E-3	-15.6885E-3
-2.35868E-3	-82.8621E-12	745.177E-3	-20.8981E-3	-82.5965E-12	735.343E-3	-8.87429E-3
-2.36368E-3	-83.2878E-12	740.062E-3	-18.9894E-3	-83.1350E-12	743.001E-3	-8.23978E-3
-2.36868E-3	-83.7382E-12	736.710E-3	-23.3053E-3	-82.9367E-12	738.427E-3	-9.78650E-3
-2.37369E-3	-84.1535E-12	744.351E-3	-23.4625E-3	-83.5986E-12	741.143E-3	-8.49983E-3
-2.37869E-3	-84.5044E-12	743.391E-3	-31.0858E-3	-84.8517E-12	752.416E-3	-24.4618E-3
-2.38369E-3	-85.1089E-12	735.920E-3	-39.0181E-3	-85.3187E-12	753.806E-3	-42.2146E-3
-2.38869E-3	-85.6790E-12	737.665E-3	-31.9712E-3	-85.5852E-12	761.007E-3	-40.6314E-3
-2.39370E-3	-85.9193E-12	735.871E-3	-20.5729E-3	-86.3969E-12	760.735E-3	-34.3096E-3
-2.39870E-3	-86.5046E-12	733.036E-3	-17.4600E-3	-87.0664E-12	747.343E-3	-27.4142E-3
-2.40370E-3	-86.8574E-12	738.097E-3	-9.72920E-3	-87.2105E-12	750.072E-3	-19.9550E-3
-2.40870E-3	-87.2558E-12	742.527E-3	730.041E-6	-86.9798E-12	760.309E-3	-21.7315E-3
-2.41371E-3	-87.3430E-12	748.228E-3	-9.27493E-3	-87.1314E-12	746.639E-3	-24.7219E-3
-2.41871E-3	-87.4370E-12	747.833E-3	-18.2758E-3	-87.2872E-12	720.017E-3	-11.5980E-3
-2.42371E-3	-87.0760E-12	733.808E-3	-5.64630E-3	-87.3401E-12	722.007E-3	-5.15593E-3
-2.42871E-3	-87.0487E-12	732.332E-3	905.195E-6	-87.4449E-12	734.479E-3	-7.00947E-3
-2.43372E-3	-87.0378E-12	750.438E-3	-11.0898E-3	-87.5380E-12	716.231E-3	-184.361E-6
-2.43872E-3	-86.7461E-12	752.115E-3	-23.5289E-3	-87.5429E-12	705.951E-3	2.17686E-3
-2.44372E-3	-86.8736E-12	736.057E-3	-35.4404E-3	-87.6739E-12	728.926E-3	-4.35448E-3
-2.44872E-3	-87.1944E-12	739.095E-3	-40.2736E-3	-87.7697E-12	743.371E-3	-4.01025E-3
-2.45373E-3	-87.1628E-12	758.319E-3	-30.2157E-3	-87.9811E-12	744.002E-3	-277.570E-6
-2.45873E-3	-87.4896E-12	768.589E-3	-23.5611E-3	-88.2785E-12	741.821E-3	-8.84935E-3
-2.46373E-3	-87.6510E-12	762.957E-3	-23.2778E-3	-88.6623E-12	734.291E-3	-14.4943E-3
-2.46873E-3	-88.0418E-12	750.804E-3	-24.7110E-3	-89.4523E-12	741.398E-3	-14.2185E-3
-2.47374E-3	-88.2896E-12	733.789E-3	-28.5147E-3	-89.9173E-12	746.045E-3	-13.0050E-3
-2.47874E-3	-89.1465E-12	720.992E-3	-24.3191E-3	-90.7279E-12	732.397E-3	-3.34920E-3
-2.48374E-3	-89.4219E-12	720.345E-3	-13.8642E-3	-90.6564E-12	732.667E-3	1.28272E-3
-2.48874E-3	-90.0470E-12	711.917E-3	-8.69946E-3	-91.0100E-12	741.596E-3	-15.8397E-3
-2.49375E-3	-90.3401E-12	696.057E-3	-18.0986E-3	-91.7769E-12	733.528E-3	-33.7467E-3
-2.49875E-3	-90.9618E-12	688.542E-3	-30.4903E-3	-91.9495E-12	723.893E-3	-28.5818E-3
-2.50375E-3	-91.6158E-12	693.946E-3	-17.7681E-3	-91.8479E-12	721.418E-3	-8.41722E-3
-2.50875E-3	-91.9019E-12	708.325E-3	4.45484E-3	-92.0556E-12	708.624E-3	1.52269E-3
-2.51376E-3	-92.1954E-12	725.626E-3	10.2956E-3	-92.6209E-12	704.249E-3	-18.3702E-3
-2.51876E-3	-92.3044E-12	736.424E-3	4.94182E-3	-92.2451E-12	713.116E-3	-49.0217E-3
-2.52376E-3	-92.6860E-12	731.950E-3	-12.1499E-3	-92.3958E-12	711.590E-3	-47.3359E-3
-2.52876E-3	-92.5390E-12	724.440E-3	-23.9112E-3	-92.3663E-12	725.860E-3	-19.4784E-3
-2.53377E-3	-92.7489E-12	723.812E-3	-17.2930E-3	-92.4106E-12	757.605E-3	-13.1664E-3
-2.53877E-3	-93.0129E-12	721.927E-3	-11.1561E-3	-92.2733E-12	760.169E-3	-20.4746E-3
-2.54377E-3	-93.1209E-12	719.923E-3	-11.3040E-3	-92.4356E-12	740.144E-3	-10.4201E-3
-2.54877E-3	-93.0460E-12	719.504E-3	-13.5438E-3	-92.4577E-12	730.129E-3	-423.025E-6
-2.55378E-3	-93.2271E-12	711.853E-3	-13.1690E-3	-92.9740E-12	716.236E-3	-5.03119E-3
-2.55878E-3	-93.6258E-12	706.870E-3	-11.4071E-3	-92.9940E-12	700.613E-3	-3.49459E-3
-2.56378E-3	-93.7312E-12	717.038E-3	-11.3156E-3	-93.2302E-12	706.878E-3	-6.91884E-3
-2.56878E-3	-93.8645E-12	727.321E-3	-13.3716E-3	-93.4030E-12	716.803E-3	-24.7965E-3
-2.57379E-3	-93.9651E-12	729.728E-3	-12.7890E-3	-94.0178E-12	726.547E-3	-26.5345E-3
-2.57879E-3	-94.3958E-12	729.729E-3	-9.36685E-3	-94.2618E-12	742.685E-3	-18.0964E-3
-2.58379E-3	-94.7876E-12	721.195E-3	-10.3936E-3	-94.3345E-12	746.634E-3	-18.7558E-3
-2.58879E-3	-95.0003E-12	725.793E-3	-16.8057E-3	-94.6548E-12	735.882E-3	-21.2964E-3
-2.59380E-3	-95.3954E-12	751.506E-3	-22.2491E-3	-94.9663E-12	721.453E-3	-28.7117E-3
-2.59880E-3	-96.1100E-12	765.253E-3	-16.5428E-3	-95.2900E-12	701.873E-3	-35.1322E-3
-2.60380E-3	-96.1996E-12	758.484E-3	-11.0036E-3	-95.4247E-12	693.694E-3	-12.0816E-3
-2.60880E-3	-96.4152E-12	731.546E-3	-19.6579E-3	-95.5867E-12	713.724E-3	12.0246E-3
-2.61381E-3	-96.9966E-12	714.355E-3	-25.7351E-3	-96.0590E-12	727.735E-3	1.22988E-3
-2.61881E-3	-97.2185E-12	733.733E-3	-24.7049E-3	-96.4091E-12	728.969E-3	-14.1248E-3
-2.62381E-3	-96.7485E-12	748.619E-3	-22.7292E-3	-96.7530E-12	722.650E-3	-14.4875E-3
-2.62881E-3	-97.0841E-12	740.657E-3	-19.0963E-3	-97.4543E-12	702.677E-3	-19.1492E-3
-2.63382E-3	-97.5384E-12	729.547E-3	-10.6319E-3	-97.4939E-12	690.711E-3	-33.6046E-3
-2.63882E-3	-97.7069E-12	722.313E-3	1.12557E-3	-97.4516E-12	697.509E-3	-46.2278E-3
-2.64382E-3	-97.6313E-12	716.675E-3	-6.93347E-3	-98.0143E-12	700.199E-3	-42.8477E-3
-2.64882E-3	-97.7607E-12	717.868E-3	-36.9216E-3	-98.3185E-12	694.538E-3	-23.7144E-3
-2.65383E-3	-98.2218E-12	716.160E-3	-52.7917E-3	-98.4503E-12	696.140E-3	-13.8395E-3
-2.65883E-3	-98.4753E-12	699.491E-3	-46.4667E-3	-98.1743E-12	684.483E-3	-11.3450E-3
-2.66383E-3	-98.2269E-12	701.364E-3	-38.0908E-3	-98.2409E-12	684.312E-3	5.24966E-3
-2.66883E-3	-98.1440E-12	722.313E-3	-32.4973E-3	-98.6212E-12	710.716E-3	11.7035E-3
-2.67384E-3	-98.2463E-12	726.072E-3	-27.8183E-3	-98.6310E-12	714.355E-3	2.97473E-3
-2.67884E-3	-98.1412E-12	712.128E-3	-13.1589E-3	-98.4793E-12	718.447E-3	4.49996E-3
-2.68384E-3	-98.1522E-12	698.006E-3	9.95894E-3	-98.7144E-12	742.072E-3	3.64402E-3
-2.68884E-3	-98.2731E-12	707.655E-3	10.7672E-3	-99.4224E-12	736.511E-3	-14.9172E-3
-2.69385E-3	-98.7387E-12	725.216E-3	-10.8865E-3	-99.4458E-12	711.483E-3	-27.3359E-3
-2.69885E-3	-99.5817E-12	717.923E-3	-14.5292E-3	-99.4674E-12	711.488E-3	-19.7547E-3
-2.70385E-3	-99.7705E-12	710.758E-3	-6.16650E-3	-99.9597E-12	715.964E-3	-16.0827E-3
-2.70885E-3	-99.9387E-12	710.474E-3	-14.1137E-3	-100.686E-12	704.600E-3	-17.6930E-3
-2.71386E-3	-100.642E-12	706.623E-3	-17.9426E-3	-100.968E-12	701.827E-3	-26.3883E-3
-2.71886E-3	-100.771E-12	703.813E-3	-12.4796E-3	-101.328E-12	699.624E-3	-42.9989E-3
-2.72386E-3	-101.456E-12	695.668E-3	-15.8276E-3	-101.917E-12	691.629E-3	-33.9771E-3
-2.72886E-3	-101.790E-12	683.888E-3	-12.7546E-3	-102.575E-12	707.758E-3	-15.7753E-3
-2.73387E-3	-101.989E-12	670.909E-3	2.98340E-3	-103.370E-12	732.422E-3	-27.3382E-3
-2.73887E-3	-102.035E-12	684.361E-3	-2.53237E-3	-103.362E-12	725.519E-3	-39.1126E-3
-2.74387E-3	-102.689E-12	718.704E-3	-21.6122E-3	-103.257E-12	715.028E-3	-29.5685E-3
-2.74887E-3	-102.966E-12	727.566E-3	-26.4557E-3	-103.378E-12	719.988E-3	-26.5231E-3
-2.75388E-3	-102.585E-12	728.871E-3	-27.0963E-3	-103.145E-12	712.312E-3	-18.9521E-3
-2.75888E-3	-102.679E-12	732.618E-3	-22.2115E-3	-102.980E-12	708.909E-3	-1.56598E-3
-2.76388E-3	-102.682E-12	719.221E-3	-3.55845E-3	-102.662E-12	726.887E-3	-4.73732E-3
-2.76888E-3	-102.666E-12	704.988E-3	10.6862E-3	-102.536E-12	727.521E-3	-12.3467E-3
-2.77389E-3	-102.527E-12	707.725E-3	-636.832E-6	-102.270E-12	704.582E-3	-7.80316E-3
-2.77889E-3	-102.749E-12	702.657E-3	-23.0635E-3	-102.543E-12	689.950E-3	-23.4977E-3
-2.78389E-3	-103.351E-12	691.358E-3	-29.2940E-3	-102.764E-12	683.463E-3	-46.4168E-3
-2.78889E-3	-103.604E-12	705.433E-3	-19.6139E-3	-103.218E-12	695.821E-3	-37.8062E-3
-2.79390E-3	-104.114E-12	717.668E-3	-7.97631E-3	-103.458E-12	717.920E-3	-32.4795E-3
-2.79890E-3	-104.436E-12	710.101E-3	402.274E-6	-104.104E-12	713.355E-3	-29.6610E-3
-2.80390E-3	-105.197E-12	700.683E-3	-13.6534E-3	-105.072E-12	709.247E-3	-17.7971E-3
-2.80890E-3	-105.529E-12	687.641E-3	-44.9304E-3	-105.676E-12	720.519E-3	-33.9701E-3
-2.81391E-3	-106.016E-12	681.663E-3	-49.0962E-3	-106.343E-12	713.835E-3	-39.1681E-3
-2.81891E-3	-106.303E-12	689.482E-3	-9.21298E-3	-106.951E-12	697.573E-3	-19.7531E-3
-2.82391E-3	-106.645E-12	701.159E-3	28.1802E-3	-107.935E-12	693.117E-3	-31.5806E-3
-2.82891E-3	-107.288E-12	711.711E-3	16.9967E-3	-108.682E-12	704.080E-3	-43.9422E-3
-2.83392E-3	-107.422E-12	713.000E-3	-20.2863E-3	-108.763E-12	717.210E-3	-21.3057E-3
-2.83892E-3	-107.723E-12	700.595E-3	-30.5841E-3	-108.949E-12	712.471E-3	-9.05173E-3
-2.84392E-3	-107.696E-12	690.261E-3	-6.62170E-3	-109.216E-12	689.517E-3	-5.31752E-3
-2.84892E-3	-108.048E-12	710.699E-3	9.15907E-3	-109.161E-12	690.769E-3	20.8128E-3
-2.85393E-3	-107.860E-12	742.783E-3	1.24540E-3	-108.421E-12	720.155E-3	18.9006E-3
-2.85893E-3	-107.608E-12	748.029E-3	-17.1596E-3	-108.102E-12	719.507E-3	-9.98275E-3
-2.86393E-3	-107.311E-12	731.990E-3	-28.6744E-3	-107.773E-12	700.724E-3	-19.7830E-3
-2.86893E-3	-107.381E-12	703.403E-3	-11.6111E-3	-107.543E-12	697.274E-3	-24.5317E-3
-2.87394E-3	-107.908E-12	680.394E-3	4.00882E-3	-107.606E-12	679.550E-3	-34.0219E-3
-2.87894E-3	-107.341E-12	696.160E-3	-13.1560E-3	-107.792E-12	682.335E-3	-35.7813E-3
-2.88394E-3	-108.058E-12	720.262E-3	-38.3958E-3	-107.726E-12	707.446E-3	-26.8102E-3
-2.88894E-3	-109.091E-12	719.656E-3	-57.4544E-3	-108.089E-12	691.513E-3	-15.4937E-3
-2.89395E-3	-109.014E-12	716.559E-3	-51.1013E-3	-108.693E-12	682.847E-3	-4.33868E-3
-2.89895E-3	-109.164E-12	708.081E-3	-13.1038E-3	-108.734E-12	707.805E-3	-10.3601E-3
-2.90395E-3	-110.455E-12	696.737E-3	-705.069E-6	-110.070E-12	726.683E-3	-27.3642E-3
-2.90895E-3	-110.573E-12	705.596E-3	-16.6984E-3	-110.650E-12	727.146E-3	-20.3822E-3
-2.91396E-3	-110.548E-12	718.182E-3	-10.4052E-3	-111.103E-12	717.381E-3	-18.4510E-3
-2.91896E-3	-111.359E-12	712.051E-3	-13.4080E-3	-112.035E-12	701.229E-3	-28.9728E-3
-2.92396E-3	-112.193E-12	705.446E-3	-35.2415E-3	-112.890E-12	697.076E-3	-26.6118E-3
-2.92896E-3	-111.937E-12	708.340E-3	-27.9951E-3	-113.224E-12	718.382E-3	-27.4185E-3
-2.93397E-3	-112.441E-12	694.002E-3	-7.88456E-3	-112.732E-12	713.269E-3	-23.3786E-3
-2.93897E-3	-112.415E-12	677.041E-3	-6.40702E-3	-113.043E-12	678.417E-3	-10.6423E-3
-2.94397E-3	-112.553E-12	695.790E-3	-5.95204E-3	-113.224E-12	675.997E-3	-14.2202E-3
-2.94897E-3	-112.372E-12	719.331E-3	-827.209E-6	-112.868E-12	697.620E-3	-25.9503E-3
-2.95398E-3	-112.148E-12	721.118E-3	910.078E-6	-112.357E-12	707.324E-3	-20.6003E-3
-2.95898E-3	-112.290E-12	716.132E-3	-6.69363E-3	-112.408E-12	696.886E-3	-17.1915E-3
-2.96398E-3	-112.088E-12	694.624E-3	-30.9481E-3	-112.188E-12	668.086E-3	-33.3777E-3
-2.96898E-3	-112.269E-12	683.233E-3	-45.2087E-3	-112.122E-12	650.266E-3	-34.1950E-3
-2.97399E-3	-112.488E-12	698.945E-3	-31.2820E-3	-111.655E-12	674.825E-3	-34.0963E-3
-2.97899E-3	-112.821E-12	698.433E-3	-10.4746E-3	-112.001E-12	700.792E-3	-57.7890E-3
-2.98399E-3	-113.355E-12	689.027E-3	-7.45410E-3	-112.302E-12	714.849E-3	-51.2758E-3
-2.98899E-3	-113.712E-12	685.018E-3	-17.7071E-3	-112.493E-12	740.604E-3	-23.3160E-3
-2.99400E-3	-114.255E-12	679.591E-3	-12.1995E-3	-112.642E-12	732.042E-3	-22.7583E-3
-2.99900E-3	-114.752E-12	687.544E-3	-1.37941E-3	-113.486E-12	693.624E-3	-17.3348E-3
-3.00400E-3	-114.700E-12	699.144E-3	-4.85706E-3	-113.599E-12	698.177E-3	-3.72016E-3
-3.00900E-3	-115.077E-12	696.625E-3	-11.7874E-3	-114.283E-12	718.454E-3	-18.9028E-3
-3.01401E-3	-115.429E-12	694.362E-3	-30.2513E-3	-114.993E-12	706.086E-3	-17.4171E-3
-3.01901E-3	-115.667E-12	692.548E-3	-44.9128E-3	-115.355E-12	699.389E-3	6.96886E-3
-3.02401E-3	-116.230E-12	681.414E-3	-24.5206E-3	-115.318E-12	700.699E-3	-2.30750E-3
-3.02901E-3	-116.470E-12	679.745E-3	-8.31161E-3	-115.953E-12	686.258E-3	-9.16374E-3
-3.03402E-3	-116.573E-12	684.869E-3	-14.7794E-3	-116.609E-12	687.170E-3	13.2582E-3
-3.03902E-3	-116.851E-12	675.887E-3	-1.61865E-3	-116.682E-12	705.967E-3	10.1956E-3
-3.04402E-3	-116.939E-12	668.065E-3	2.72396E-3	-116.933E-12	691.929E-3	-13.6008E-3
-3.04902E-3	-116.740E-12	682.713E-3	-24.3644E-3	-117.488E-12	678.728E-3	-7.82276E-3
-3.05403E-3	-116.724E-12	692.764E-3	-26.7133E-3	-117.854E-12	680.016E-3	-2.85731E-3
-3.05903E-3	-117.242E-12	686.590E-3	-3.62692E-6	-118.131E-12	659.541E-3	-17.8149E-3
-3.06403E-3	-116.823E-12	689.736E-3	697.571E-6	-117.572E-12	661.553E-3	-23.4988E-3
-3.06903E-3	-116.960E-12	695.428E-3	-8.93792E-3	-117.695E-12	679.091E-3	-22.2382E-3
-3.07404E-3	-116.599E-12	684.445E-3	7.37960E-3	-118.294E-12	664.835E-3	-12.3524E-3
-3.07904E-3	-116.790E-12	680.793E-3	8.39866E-3	-118.464E-12	663.067E-3	-2.12464E-3
-3.08404E-3	-116.993E-12	690.227E-3	-6.24084E-3	-117.741E-12	693.869E-3	-15.9053E-3
-3.08904E-3	-117.614E-12	679.930E-3	-10.1225E-3	-118.451E-12	690.339E-3	-32.3924E-3
-3.09405E-3	-117.066E-12	660.817E-3	-14.0843E-3	-118.322E-12	671.910E-3	-30.3614E-3
-3.09905E-3	-117.981E-12	658.799E-3	-14.8229E-6	-118.260E-12	693.006E-3	-43.9673E-3
-3.10405E-3	-117.872E-12	667.450E-3	16.5170E-3	-117.937E-12	711.042E-3	-64.2014E-3
-3.10905E-3	-118.382E-12	681.359E-3	4.30623E-3	-118.383E-12	706.956E-3	-47.1174E-3
-3.11406E-3	-118.485E-12	688.287E-3	2.13363E-3	-118.302E-12	702.643E-3	-19.5006E-3
-3.11906E-3	-118.931E-12	668.600E-3	5.14349E-3	-118.571E-12	692.194E-3	-9.62163E-3
-3.12406E-3	-119.241E-12	660.217E-3	-21.8935E-3	-118.969E-12	679.964E-3	-1.27933E-3
-3.12906E-3	-120.280E-12	685.112E-3	-44.3528E-3	-119.698E-12	671.806E-3	-9.30974E-3
-3.13407E-3	-120.953E-12	680.919E-3	-45.7284E-3	-119.965E-12	661.926E-3	-29.5656E-3
-3.13907E-3	-121.149E-12	676.442E-3	-49.3241E-3	-120.946E-12	660.382E-3	-22.9498E-3
-3.14407E-3	-121.538E-12	704.303E-3	-38.4940E-3	-121.591E-12	668.040E-3	-22.1321E-3
-3.14907E-3	-122.151E-12	706.287E-3	-14.4962E-3	-122.409E-12	659.721E-3	-31.1431E-3
-3.15408E-3	-122.254E-12	697.930E-3	-13.3213E-3	-122.888E-12	651.288E-3	-14.4736E-3
-3.15908E-3	-122.443E-12	704.244E-3	-18.4016E-3	-123.620E-12	674.941E-3	-8.04403E-3
-3.16408E-3	-122.388E-12	701.058E-3	-13.8251E-3	-123.370E-12	704.864E-3	-16.6373E-3
-3.16908E-3	-122.272E-12	698.553E-3	-17.2236E-3	-123.973E-12	704.145E-3	5.92612E-3
-3.17409E-3	-122.671E-12	701.791E-3	-24.0097E-3	-124.255E-12	694.214E-3	13.8149E-3
-3.17909E-3	-123.222E-12	693.789E-3	-14.3406E-3	-123.406E-12	688.691E-3	-17.5317E-3
-3.18409E-3	-122.921E-12	687.061E-3	7.24691E-3	-123.155E-12	673.129E-3	-21.0598E-3
-3.18909E-3	-122.727E-12	691.481E-3	8.36977E-3	-123.473E-12	666.284E-3	-10.2260E-3
-3.19410E-3	-123.263E-12	695.650E-3	-13.7052E-3	-122.592E-12	657.378E-3	-19.7298E-3
-3.19910E-3	-123.709E-12	702.996E-3	-25.5497E-3	-122.028E-12	644.752E-3	-9.15939E-3
-3.20410E-3	-123.305E-12	704.824E-3	-18.1485E-3	-121.926E-12	661.339E-3	8.43881E-3
-3.20910E-3	-123.366E-12	688.227E-3	-12.5245E-3	-122.020E-12	680.555E-3	-16.3667E-3
-3.21411E-3	-124.069E-12	687.698E-3	-23.4489E-3	-122.382E-12	688.130E-3	-48.9779E-3
-3.21911E-3	-124.289E-12	707.269E-3	-29.7449E-3	-122.594E-12	708.889E-3	-57.5629E-3
-3.22411E-3	-124.790E-12	708.050E-3	-24.2026E-3	-123.076E-12	716.540E-3	-47.6323E-3
-3.22911E-3	-125.232E-12	695.831E-3	-20.2682E-3	-124.377E-12	699.273E-3	-23.9717E-3
-3.23412E-3	-125.724E-12	690.734E-3	2.80276E-3	-125.469E-12	686.248E-3	-12.2236E-3
-3.23912E-3	-126.477E-12	678.270E-3	14.3185E-3	-126.187E-12	687.740E-3	-26.5984E-3
-3.24412E-3	-126.794E-12	677.796E-3	-18.4852E-3	-126.977E-12	696.103E-3	-24.7844E-3
-3.24912E-3	-126.895E-12	695.243E-3	-39.9572E-3	-128.481E-12	694.798E-3	1.01267E-3
-3.25413E-3	-127.320E-12	682.680E-3	-25.4713E-3	-129.140E-12	678.709E-3	-2.84202E-3
-3.25913E-3	-127.579E-12	658.656E-3	-6.18270E-3	-129.609E-12	662.696E-3	-18.2905E-3
-3.26413E-3	-127.438E-12	661.749E-3	5.98867E-3	-129.612E-12	673.995E-3	-9.11557E-3
-3.26913E-3	-127.253E-12	677.971E-3	-8.97967E-3	-129.940E-12	687.034E-3	3.12414E-3
-3.27414E-3	-127.223E-12	676.891E-3	-44.0311E-3	-129.472E-12	680.885E-3	10.3176E-3
-3.27914E-3	-127.400E-12	664.871E-3	-39.7262E-3	-128.907E-12	689.033E-3	14.8694E-3
-3.28414E-3	-127.301E-12	664.558E-3	-3.29941E-3	-128.261E-12	691.759E-3	-13.2520E-3
-3.28914E-3	-127.776E-12	675.273E-3	17.5528E-3	-128.083E-12	675.088E-3	-56.8424E-3
-3.29415E-3	-127.237E-12	690.978E-3	21.8664E-3	-127.417E-12	672.031E-3	-61.7161E-3
-3.29915E-3	-126.898E-12	698.409E-3	18.1975E-3	-127.013E-12	679.817E-3	-46.4565E-3
-3.30415E-3	-127.302E-12	699.433E-3	3.93299E-3	-126.925E-12	670.765E-3	-32.1463E-3
-3.30915E-3	-127.758E-12	692.293E-3	-6.45365E-3	-126.773E-12	660.149E-3	-23.2374E-3
-3.31416E-3	-127.862E-12	684.882E-3	3.98491E-3	-126.645E-12	668.279E-3	-35.7319E-3
-3.31916E-3	-127.964E-12	700.369E-3	1.46279E-3	-127.082E-12	677.003E-3	-50.4746E-3
-3.32416E-3	-128.855E-12	723.371E-3	-13.0410E-3	-127.547E-12	678.873E-3	-41.5851E-3
-3.32916E-3	-129.302E-12	723.492E-3	3.89942E-3	-128.049E-12	674.610E-3	-11.2797E-3
-3.33417E-3	-130.192E-12	709.335E-3	7.44447E-3	-129.105E-12	672.760E-3	-321.385E-6
-3.33917E-3	-130.642E-12	705.541E-3	-19.0634E-3	-130.069E-12	687.914E-3	-19.0316E-3
-3.34417E-3	-131.315E-12	694.248E-3	-29.4258E-3	-130.901E-12	700.187E-3	-34.4552E-3
-3.34917E-3	-131.523E-12	664.910E-3	-34.1798E-3	-131.287E-12	703.485E-3	-33.0288E-3
-3.35418E-3	-132.092E-12	662.924E-3	-40.7021E-3	-131.970E-12	708.127E-3	-18.6842E-3
-3.35918E-3	-132.600E-12	681.464E-3	-11.1034E-3	-132.204E-12	696.118E-3	-4.35236E-3
-3.36418E-3	-132.915E-12	691.314E-3	8.99078E-3	-132.569E-12	671.731E-3	-244.838E-6
-3.36918E-3	-132.816E-12	714.333E-3	-2.42773E-3	-132.499E-12	663.416E-3	-725.761E-6
-3.37419E-3	-132.752E-12	727.119E-3	7.86413E-3	-132.359E-12	669.912E-3	-18.1757E-3
-3.37919E-3	-133.158E-12	691.933E-3	6.40360E-3	-131.971E-12	673.673E-3	-46.0688E-3
-3.38419E-3	-132.443E-12	656.554E-3	-18.2920E-3	-131.872E-12	675.341E-3	-35.2033E-3
-3.38919E-3	-132.326E-12	661.409E-3	-11.7564E-3	-131.427E-12	671.466E-3	-12.1298E-3
-3.39420E-3	-131.968E-12	678.680E-3	802.944E-6	-131.020E-12	656.617E-3	-12.9626E-3
-3.39920E-3	-132.067E-12	696.007E-3	-17.0453E-3	-131.354E-12	645.577E-3	-15.1325E-3
-3.40420E-3	-132.126E-12	695.674E-3	-24.8241E-3	-131.630E-12	649.827E-3	-24.6749E-3
-3.40920E-3	-132.282E-12	667.158E-3	-23.4979E-3	-131.300E-12	660.429E-3	-29.0180E-3
-3.41421E-3	-132.433E-12	660.125E-3	-38.8239E-3	-131.374E-12	667.076E-3	-9.35896E-3
-3.41921E-3	-132.883E-12	682.624E-3	-38.6164E-3	-131.997E-12	668.627E-3	2.38954E-3
-3.42421E-3	-133.045E-12	678.856E-3	-18.2359E-3	-132.137E-12	659.409E-3	-20.3780E-3
-3.42921E-3	-133.975E-12	660.417E-3	-12.3271E-3	-132.567E-12	659.335E-3	-32.4128E-3
-3.43422E-3	-134.437E-12	663.100E-3	-6.66892E-3	-133.502E-12	677.147E-3	-13.1734E-3
-3.43922E-3	-134.992E-12	665.542E-3	9.26570E-3	-134.253E-12	681.671E-3	-9.37422E-3
-3.44422E-3	-135.387E-12	675.319E-3	3.97504E-3	-134.659E-12	669.171E-3	-10.2099E-3
-3.44922E-3	-135.748E-12	695.414E-3	-6.08283E-3	-135.476E-12	660.649E-3	3.94061E-3
-3.45423E-3	-135.879E-12	684.266E-3	-20.1621E-3	-135.778E-12	666.095E-3	12.2967E-3
-3.45923E-3	-136.061E-12	677.807E-3	-46.4684E-3	-135.755E-12	680.716E-3	-8.20122E-3
-3.46423E-3	-135.927E-12	699.858E-3	-29.0886E-3	-136.302E-12	690.798E-3	-41.5493E-3
-3.46923E-3	-135.832E-12	700.321E-3	-1.99505E-3	-136.205E-12	684.959E-3	-31.2752E-3
-3.47424E-3	-136.020E-12	695.987E-3	-27.7135E-3	-136.054E-12	686.671E-3	8.62454E-3
-3.47924E-3	-136.029E-12	703.349E-3	-42.4429E-3	-136.658E-12	712.504E-3	5.88638E-3
-3.48424E-3	-135.983E-12	691.422E-3	-31.0900E-3	-136.873E-12	704.976E-3	-21.5677E-3
-3.48924E-3	-135.761E-12	688.967E-3	-35.3519E-3	-136.735E-12	668.965E-3	-29.6282E-3
-3.49425E-3	-136.092E-12	705.956E-3	-22.4283E-3	-137.234E-12	664.826E-3	-19.0249E-3
-3.49925E-3	-135.631E-12	692.378E-3	1.33301E-3	-137.324E-12	677.191E-3	-11.5537E-3
-3.50425E-3	-135.653E-12	673.999E-3	8.48655E-3	-137.335E-12	695.772E-3	-18.5959E-3
-3.50925E-3	-135.912E-12	670.664E-3	15.0720E-3	-137.507E-12	714.966E-3	-25.2397E-3
-3.51426E-3	-136.022E-12	649.325E-3	16.2317E-3	-138.157E-12	696.178E-3	-25.0503E-3
-3.51926E-3	-136.103E-12	640.812E-3	-5.66957E-3	-137.854E-12	666.782E-3	-12.0008E-3
-3.52426E-3	-136.557E-12	668.470E-3	-23.1280E-3	-138.318E-12	671.309E-3	-8.29516E-3
-3.52926E-3	-136.748E-12	687.023E-3	-18.5710E-3	-138.218E-12	680.939E-3	-27.6526E-3
-3.53427E-3	-136.837E-12	676.716E-3	-19.2102E-3	-138.164E-12	686.450E-3	-35.7068E-3
-3.53927E-3	-137.689E-12	669.972E-3	-20.8437E-3	-138.401E-12	690.802E-3	-27.9825E-3
-3.54427E-3	-137.969E-12	661.762E-3	-18.8176E-3	-138.694E-12	682.520E-3	-29.7830E-3
-3.54927E-3	-138.455E-12	657.345E-3	-33.7888E-3	-138.774E-12	668.322E-3	-19.4101E-3
-3.55428E-3	-138.643E-12	686.988E-3	-47.7023E-3	-139.240E-12	663.870E-3	5.10204E-3
-3.55928E-3	-139.059E-12	700.797E-3	-41.0822E-3	-139.561E-12	669.138E-3	5.77565E-3
-3.56428E-3	-139.730E-12	677.180E-3	-53.8700E-3	-139.716E-12	683.203E-3	-3.36707E-3
-3.56928E-3	-140.105E-12	677.288E-3	-78.7989E-3	-139.975E-12	700.614E-3	-4.46000E-3
-3.57429E-3	-140.469E-12	690.067E-3	-49.6759E-3	-140.550E-12	700.381E-3	-20.7990E-3
-3.57929E-3	-141.361E-12	683.830E-3	-19.1225E-3	-140.982E-12	689.902E-3	-46.2359E-3
-3.58429E-3	-141.986E-12	677.157E-3	-34.6058E-3	-141.310E-12	688.799E-3	-55.1257E-3
-3.58929E-3	-142.250E-12	670.885E-3	-27.5147E-3	-142.012E-12	686.058E-3	-44.0451E-3
-3.59430E-3	-142.461E-12	667.232E-3	-15.7696E-3	-142.707E-12	676.815E-3	-30.2815E-3
-3.59930E-3	-142.539E-12	682.215E-3	-28.8204E-3	-142.818E-12	670.553E-3	-28.1126E-3
-3.60430E-3	-142.700E-12	699.106E-3	-28.5585E-3	-142.525E-12	661.593E-3	-25.6042E-3
-3.60930E-3	-143.156E-12	689.892E-3	-34.7910E-3	-143.247E-12	655.841E-3	-15.9702E-3
-3.61431E-3	-143.132E-12	672.332E-3	-44.3664E-3	-143.065E-12	675.418E-3	-3.04923E-3
-3.61931E-3	-143.550E-12	666.426E-3	-21.7773E-3	-142.872E-12	703.257E-3	-10.3804E-3
-3.62431E-3	-143.678E-12	657.817E-3	-7.67551E-3	-142.489E-12	707.806E-3	-22.4026E-3
-3.62931E-3	-143.905E-12	666.741E-3	-16.0378E-3	-142.541E-12	696.229E-3	-13.9911E-3
-3.63432E-3	-144.345E-12	688.765E-3	-20.5475E-3	-142.093E-12	678.519E-3	-9.06747E-3
-3.63932E-3	-144.056E-12	695.476E-3	-24.5502E-3	-141.628E-12	662.940E-3	-6.15849E-3
-3.64432E-3	-144.034E-12	701.997E-3	-32.1760E-3	-141.864E-12	651.949E-3	1.68717E-3
-3.64932E-3	-144.319E-12	685.184E-3	-26.9520E-3	-142.301E-12	640.834E-3	4.90831E-3
-3.65433E-3	-144.754E-12	662.556E-3	-6.77021E-3	-142.615E-12	654.645E-3	9.62031E-3
-3.65933E-3	-145.049E-12	675.105E-3	-6.58810E-3	-143.609E-12	698.276E-3	12.6807E-3
-3.66433E-3	-145.041E-12	672.949E-3	-21.4440E-3	-144.380E-12	723.482E-3	12.3807E-3
-3.66933E-3	-145.484E-12	644.748E-3	-24.3443E-3	-144.793E-12	704.252E-3	7.83590E-3
-3.67434E-3	-146.008E-12	643.395E-3	-11.4972E-3	-145.930E-12	693.646E-3	-9.97184E-3
-3.67934E-3	-145.990E-12	671.271E-3	7.26875E-3	-146.276E-12	712.712E-3	-32.4936E-3
-3.68434E-3	-146.284E-12	684.302E-3	3.75002E-3	-146.471E-12	717.302E-3	-41.1254E-3
-3.68934E-3	-147.217E-12	685.749E-3	-32.5890E-3	-147.356E-12	703.071E-3	-23.5166E-3
-3.69435E-3	-146.846E-12	695.054E-3	-42.5217E-3	-147.889E-12	689.986E-3	3.99409E-3
-3.69935E-3	-146.841E-12	702.629E-3	-35.3782E-3	-148.097E-12	685.785E-3	3.77909E-3
-3.70435E-3	-146.671E-12	703.112E-3	-33.6775E-3	-147.601E-12	688.863E-3	-2.65571E-3
-3.70935E-3	-147.007E-12	704.631E-3	-10.8778E-3	-147.053E-12	692.890E-3	399.668E-6
-3.71436E-3	-146.416E-12	707.973E-3	-6.52700E-3	-146.116E-12	678.709E-3	9.87464E-3
-3.71936E-3	-146.959E-12	701.756E-3	-27.7005E-3	-145.757E-12	645.147E-3	26.4233E-3
-3.72436E-3	-146.697E-12	690.419E-3	-16.6124E-3	-145.388E-12	622.378E-3	10.1774E-3
-3.72936E-3	-146.101E-12	686.459E-3	10.8852E-3	-145.121E-12	625.161E-3	-17.4736E-3
-3.73437E-3	-146.098E-12	692.403E-3	950.998E-6	-145.278E-12	639.713E-3	-7.13312E-3
-3.73937E-3	-146.071E-12	696.107E-3	-23.4483E-3	-145.666E-12	651.805E-3	24.2832E-3
-3.74437E-3	-146.443E-12	669.302E-3	-19.3336E-3	-146.099E-12	663.468E-3	39.3618E-3
-3.74937E-3	-146.983E-12	645.368E-3	2.24815E-3	-146.468E-12	673.166E-3	18.4112E-3
-3.75438E-3	-147.466E-12	669.791E-3	25.7951E-3	-147.401E-12	675.851E-3	-17.8881E-3
-3.75938E-3	-148.167E-12	689.134E-3	41.2516E-3	-148.081E-12	680.598E-3	-25.8429E-3
-3.76438E-3	-148.888E-12	676.744E-3	12.1544E-3	-149.810E-12	677.874E-3	2.30022E-3
-3.76938E-3	-149.436E-12	672.205E-3	-18.8827E-3	-150.373E-12	672.355E-3	23.2755E-3
-3.77439E-3	-150.092E-12	665.481E-3	-21.6895E-3	-150.667E-12	674.072E-3	2.62677E-3
-3.77939E-3	-150.467E-12	665.863E-3	-29.3817E-3	-150.637E-12	678.645E-3	-33.3002E-3
-3.78439E-3	-150.721E-12	684.348E-3	-38.4391E-3	-151.278E-12	703.720E-3	-39.7876E-3
-3.78939E-3	-150.901E-12	684.005E-3	-33.0370E-3	-151.509E-12	718.545E-3	-21.3412E-3
-3.79440E-3	-151.294E-12	677.249E-3	-15.6179E-3	-151.051E-12	694.109E-3	-17.3038E-3
-3.79940E-3	-151.104E-12	684.017E-3	-11.2824E-3	-151.159E-12	667.432E-3	-22.9339E-3
-3.80440E-3	-151.197E-12	686.921E-3	-24.5160E-3	-150.950E-12	657.945E-3	-33.5653E-3
-3.80940E-3	-151.044E-12	681.870E-3	-43.9625E-3	-151.349E-12	660.092E-3	-40.5858E-3
-3.81441E-3	-151.190E-12	682.964E-3	-47.9969E-3	-150.371E-12	656.662E-3	-31.1578E-3
-3.81941E-3	-150.926E-12	672.917E-3	-31.0465E-3	-149.986E-12	648.655E-3	-36.5445E-3
-3.82441E-3	-150.770E-12	653.148E-3	-20.3144E-3	-149.392E-12	663.634E-3	-32.7703E-3
-3.82941E-3	-150.980E-12	657.811E-3	-12.1645E-3	-149.752E-12	678.455E-3	-21.3237E-3
-3.83442E-3	-150.971E-12	669.927E-3	-1.80724E-3	-149.981E-12	667.998E-3	-34.0087E-3
-3.83942E-3	-151.266E-12	681.450E-3	-9.90839E-3	-150.898E-12	660.265E-3	-28.6038E-3
-3.84442E-3	-151.995E-12	711.946E-3	-10.8588E-3	-151.575E-12	682.651E-3	-17.6556E-3
-3.84942E-3	-152.598E-12	712.365E-3	15.4865E-3	-152.535E-12	709.599E-3	-24.2572E-3
-3.85443E-3	-153.018E-12	669.227E-3	27.7707E-3	-153.440E-12	702.640E-3	-32.3987E-3
-3.85943E-3	-153.747E-12	657.035E-3	6.07382E-3	-154.047E-12	676.114E-3	-57.8514E-3
-3.86443E-3	-154.462E-12	671.614E-3	-4.95744E-3	-155.227E-12	685.027E-3	-81.3298E-3
-3.86943E-3	-154.636E-12	656.364E-3	-6.63453E-3	-155.964E-12	708.432E-3	-67.2382E-3
-3.87444E-3	-155.184E-12	640.119E-3	-35.7258E-3	-156.992E-12	688.038E-3	-39.8381E-3
-3.87944E-3	-154.825E-12	636.429E-3	-53.9350E-3	-156.737E-12	672.008E-3	-28.9738E-3
-3.88444E-3	-155.476E-12	621.378E-3	-49.3716E-3	-157.329E-12	694.622E-3	-21.5534E-3
-3.88944E-3	-155.249E-12	632.040E-3	-50.5475E-3	-157.310E-12	705.703E-3	-13.5705E-3
-3.89445E-3	-155.656E-12	664.658E-3	-46.3074E-3	-157.029E-12	674.344E-3	-9.20206E-3
-3.89945E-3	-155.375E-12	666.381E-3	-20.7996E-3	-156.618E-12	648.742E-3	-20.3062E-3
-3.90445E-3	-156.248E-12	644.060E-3	-661.821E-6	-156.256E-12	666.298E-3	-43.1195E-3
-3.90945E-3	-155.488E-12	644.223E-3	7.98709E-3	-155.837E-12	673.769E-3	-41.5289E-3
-3.91446E-3	-155.172E-12	659.707E-3	1.99198E-3	-155.759E-12	644.250E-3	-20.3494E-3
-3.91946E-3	-155.096E-12	673.364E-3	-26.0453E-3	-155.938E-12	617.571E-3	-4.54933E-3
-3.92446E-3	-155.396E-12	682.611E-3	-33.9439E-3	-155.579E-12	619.399E-3	1.29396E-3
-3.92946E-3	-155.862E-12	662.496E-3	-7.47611E-3	-155.308E-12	647.932E-3	6.48148E-3
-3.93447E-3	-155.644E-12	656.559E-3	16.0093E-3	-155.600E-12	672.797E-3	12.5916E-3
-3.93947E-3	-155.561E-12	672.336E-3	23.4562E-3	-156.376E-12	676.114E-3	26.1370E-3
-3.94447E-3	-156.622E-12	666.978E-3	14.5942E-3	-157.049E-12	681.081E-3	25.1515E-3
-3.94947E-3	-156.888E-12	674.089E-3	-1.70359E-3	-156.797E-12	684.679E-3	-2.31805E-3
-3.95448E-3	-156.881E-12	692.170E-3	4.63170E-3	-157.533E-12	657.901E-3	-3.39699E-3
-3.95948E-3	-157.531E-12	675.870E-3	4.89822E-3	-158.840E-12	635.240E-3	14.6443E-3
-3.96448E-3	-158.867E-12	655.834E-3	-24.1567E-3	-159.275E-12	649.618E-3	-10.6638E-6
-3.96948E-3	-158.532E-12	665.138E-3	-24.4258E-3	-159.063E-12	672.669E-3	-22.8494E-3
-3.97449E-3	-159.159E-12	672.186E-3	-11.0169E-3	-159.678E-12	680.241E-3	-17.4327E-3
-3.97949E-3	-159.573E-12	668.072E-3	-32.1883E-3	-159.720E-12	644.292E-3	-10.5459E-3
-3.98449E-3	-159.856E-12	663.202E-3	-41.4366E-3	-159.931E-12	618.864E-3	1.28632E-3
-3.98949E-3	-159.555E-12	649.243E-3	-9.93830E-3	-159.853E-12	643.928E-3	15.9507E-3
-3.99450E-3	-160.252E-12	649.315E-3	1.21516E-3	-159.538E-12	656.790E-3	-6.36805E-3
-3.99950E-3	-160.704E-12	672.679E-3	-13.4452E-3	-159.734E-12	641.975E-3	-35.9521E-3
-4.00450E-3	-160.780E-12	676.820E-3	-12.6496E-3	-159.824E-12	628.270E-3	-35.7115E-3
-4.00950E-3	-160.893E-12	676.381E-3	-19.6847E-3	-160.402E-12	644.769E-3	-42.7540E-3
-4.01451E-3	-161.262E-12	691.523E-3	-27.2524E-3	-160.590E-12	681.835E-3	-51.7469E-3
-4.01951E-3	-161.171E-12	675.582E-3	-29.3869E-3	-160.697E-12	702.891E-3	-33.3041E-3
-4.02451E-3	-161.290E-12	643.543E-3	-47.4244E-3	-161.063E-12	692.580E-3	-31.8973E-3
-4.02951E-3	-161.137E-12	655.689E-3	-53.9286E-3	-160.973E-12	658.136E-3	-40.6247E-3
-4.03452E-3	-161.258E-12	669.452E-3	-25.9088E-3	-161.071E-12	623.804E-3	-30.7442E-3
-4.03952E-3	-161.771E-12	650.394E-3	-10.4773E-3	-161.525E-12	621.048E-3	-33.8815E-3
-4.04452E-3	-161.742E-12	658.139E-3	-30.8602E-3	-161.522E-12	644.665E-3	-23.1746E-3
-4.04952E-3	-162.136E-12	682.150E-3	-29.0386E-3	-161.492E-12	677.220E-3	16.3453E-3
-4.05453E-3	-162.197E-12	675.838E-3	1.37187E-3	-161.221E-12	703.257E-3	14.9715E-3
-4.05953E-3	-162.422E-12	666.871E-3	21.7041E-3	-161.355E-12	700.888E-3	-32.1428E-3
-4.06453E-3	-162.488E-12	668.345E-3	14.5429E-3	-161.378E-12	692.959E-3	-45.7312E-3
-4.06953E-3	-163.404E-12	670.859E-3	-13.4491E-3	-161.809E-12	684.861E-3	-32.8878E-3
-4.07454E-3	-163.378E-12	678.938E-3	-20.5162E-3	-161.336E-12	647.807E-3	-41.9876E-3
-4.07954E-3	-163.053E-12	683.659E-3	7.72852E-3	-161.758E-12	630.101E-3	-45.0683E-3
-4.08454E-3	-163.729E-12	691.010E-3	21.0891E-3	-162.001E-12	673.544E-3	-43.8935E-3
-4.08954E-3	-163.616E-12	710.111E-3	1.85377E-3	-163.192E-12	710.402E-3	-32.4527E-3
-4.09455E-3	-163.454E-12	718.856E-3	-24.7945E-3	-163.769E-12	698.407E-3	5.62240E-3
-4.09955E-3	-163.920E-12	715.601E-3	-36.1971E-3	-164.716E-12	673.060E-3	14.8542E-3
-4.10455E-3	-164.709E-12	707.809E-3	-20.2346E-3	-165.228E-12	664.240E-3	691.014E-6
-4.10955E-3	-164.459E-12	696.827E-3	10.5268E-3	-165.937E-12	664.032E-3	-12.7206E-3
-4.11456E-3	-164.797E-12	691.335E-3	3.95484E-3	-166.182E-12	668.427E-3	-33.0480E-3
-4.11956E-3	-165.010E-12	684.611E-3	-32.8509E-3	-166.599E-12	673.909E-3	-28.7606E-3
-4.12456E-3	-165.166E-12	660.041E-3	-33.6212E-3	-166.698E-12	675.783E-3	4.39861E-3
-4.12956E-3	-165.086E-12	647.777E-3	-31.2106E-3	-166.899E-12	679.416E-3	21.6182E-3
-4.13457E-3	-165.194E-12	678.831E-3	-36.6416E-3	-166.335E-12	675.986E-3	-8.39377E-3
-4.13957E-3	-165.082E-12	707.913E-3	-20.1222E-3	-165.951E-12	651.436E-3	-40.7835E-3
-4.14457E-3	-164.903E-12	692.739E-3	-15.3350E-3	-165.116E-12	627.870E-3	-39.6327E-3
-4.14957E-3	-165.176E-12	666.211E-3	-36.2809E-3	-165.057E-12	629.616E-3	-20.5652E-3
-4.15458E-3	-165.446E-12	653.597E-3	-45.7470E-3	-164.833E-12	657.349E-3	-2.02455E-3
-4.15958E-3	-165.790E-12	646.155E-3	-18.8336E-3	-164.378E-12	686.094E-3	491.648E-6
-4.16458E-3	-166.009E-12	648.297E-3	3.44257E-3	-164.528E-12	691.165E-3	-3.65947E-3
-4.16958E-3	-166.853E-12	637.622E-3	-15.5347E-3	-165.343E-12	684.382E-3	3.92801E-3
-4.17459E-3	-167.264E-12	614.138E-3	-33.5653E-3	-165.191E-12	678.755E-3	8.97370E-3
-4.17959E-3	-167.683E-12	642.670E-3	-23.9308E-3	-165.992E-12	660.336E-3	6.75752E-3
-4.18459E-3	-168.227E-12	699.943E-3	-19.3606E-3	-167.089E-12	649.508E-3	10.8309E-3
-4.18959E-3	-168.380E-12	691.813E-3	-32.5244E-3	-169.040E-12	674.135E-3	-13.0845E-3
-4.19460E-3	-169.728E-12	650.999E-3	-31.8313E-3	-169.479E-12	688.761E-3	-44.0707E-3
-4.19960E-3	-170.307E-12	642.431E-3	-14.6733E-3	-170.739E-12	666.137E-3	-22.1585E-3
-4.20460E-3	-170.498E-12	660.198E-3	-8.94049E-3	-171.833E-12	642.209E-3	736.119E-6
-4.20960E-3	-170.986E-12	684.413E-3	-8.28673E-3	-172.215E-12	626.847E-3	-19.6388E-3
-4.21461E-3	-171.751E-12	687.997E-3	-14.0734E-3	-171.967E-12	630.619E-3	-24.7366E-3
-4.21961E-3	-171.405E-12	681.528E-3	-20.8960E-3	-171.550E-12	675.921E-3	-3.31046E-3
-4.22461E-3	-171.668E-12	668.012E-3	-23.4056E-3	-171.361E-12	711.443E-3	546.300E-6
-4.22961E-3	-171.513E-12	641.677E-3	-21.6332E-3	-171.394E-12	704.114E-3	634.137E-6
-4.23462E-3	-171.609E-12	633.286E-3	-11.0856E-3	-170.640E-12	680.045E-3	-2.95757E-3
-4.23962E-3	-171.222E-12	642.173E-3	-20.7693E-3	-169.317E-12	650.894E-3	-36.1026E-3
-4.24462E-3	-171.411E-12	658.181E-3	-33.3473E-3	-169.158E-12	638.626E-3	-57.3826E-3
-4.24962E-3	-171.297E-12	675.915E-3	-25.4723E-3	-168.605E-12	680.336E-3	-42.6914E-3
-4.25463E-3	-171.541E-12	675.876E-3	-17.0602E-3	-168.086E-12	712.672E-3	-28.2503E-3
-4.25963E-3	-171.567E-12	657.424E-3	-26.1576E-3	-167.469E-12	676.338E-3	-27.9301E-3
-4.26463E-3	-171.693E-12	640.545E-3	-28.9185E-3	-168.673E-12	644.629E-3	-16.2345E-3
-4.26963E-3	-171.822E-12	652.826E-3	-1.67814E-3	-169.470E-12	642.954E-3	15.1890E-3
-4.27464E-3	-171.720E-12	682.766E-3	10.1889E-3	-170.295E-12	643.521E-3	40.1144E-3
-4.27964E-3	-172.178E-12	686.881E-3	-3.75193E-3	-171.381E-12	662.597E-3	28.4023E-3
-4.28464E-3	-172.607E-12	667.163E-3	-10.1206E-3	-172.764E-12	678.701E-3	-10.2448E-3
-4.28964E-3	-173.359E-12	642.431E-3	-6.82907E-3	-174.298E-12	670.865E-3	-29.3703E-3
-4.29465E-3	-173.384E-12	615.305E-3	19.4306E-3	-175.214E-12	662.557E-3	-18.2068E-3
-4.29965E-3	-173.876E-12	621.174E-3	22.2275E-3	-176.174E-12	652.696E-3	-12.8538E-3
-4.30465E-3	-174.448E-12	654.124E-3	-12.2961E-3	-176.337E-12	643.146E-3	-35.8682E-3
-4.30965E-3	-174.784E-12	660.656E-3	-27.4973E-3	-176.748E-12	659.455E-3	-60.9515E-3
-4.31466E-3	-174.907E-12	650.220E-3	-28.0924E-3	-176.646E-12	672.002E-3	-64.4921E-3
-4.31966E-3	-174.516E-12	656.768E-3	-19.8272E-3	-176.851E-12	639.745E-3	-37.7386E-3
-4.32466E-3	-175.119E-12	662.950E-3	-3.65396E-3	-176.826E-12	634.454E-3	1.48362E-3
-4.32966E-3	-174.880E-12	668.606E-3	12.6283E-3	-175.761E-12	657.384E-3	10.5133E-3
-4.33467E-3	-175.233E-12	677.192E-3	17.1863E-3	-175.405E-12	641.047E-3	5.66879E-3
-4.33967E-3	-174.752E-12	655.428E-3	-7.40086E-3	-174.997E-12	658.415E-3	12.9912E-3
-4.34467E-3	-175.166E-12	644.630E-3	-41.9174E-3	-175.229E-12	710.111E-3	791.634E-6
-4.34967E-3	-174.510E-12	672.249E-3	-56.8659E-3	-174.515E-12	695.266E-3	-17.1261E-3
-4.35468E-3	-174.808E-12	678.959E-3	-45.6004E-3	-174.422E-12	656.371E-3	-11.7504E-3
-4.35968E-3	-174.418E-12	652.763E-3	-37.3842E-3	-175.042E-12	652.119E-3	-14.2696E-3
-4.36468E-3	-174.702E-12	633.643E-3	-42.2052E-3	-175.427E-12	644.793E-3	-29.5610E-3
-4.36968E-3	-174.837E-12	641.557E-3	-31.5656E-3	-176.128E-12	648.438E-3	-32.1495E-3
-4.37469E-3	-175.065E-12	660.123E-3	-10.2759E-3	-176.925E-12	661.326E-3	-44.9304E-3
-4.37969E-3	-175.513E-12	682.576E-3	383.624E-6	-177.773E-12	642.183E-3	-55.1976E-3
-4.38469E-3	-176.346E-12	688.260E-3	590.001E-6	-178.209E-12	629.168E-3	-17.8914E-3
-4.38969E-3	-176.996E-12	645.651E-3	-202.174E-6	-178.414E-12	641.496E-3	18.0787E-3
-4.39470E-3	-177.322E-12	630.612E-3	-1.11339E-3	-178.402E-12	637.538E-3	10.3206E-3
-4.39970E-3	-178.270E-12	683.922E-3	6.87681E-3	-178.973E-12	639.065E-3	-3.08627E-3
-4.40470E-3	-178.931E-12	704.281E-3	-5.33454E-3	-178.917E-12	663.221E-3	-14.3596E-3
-4.40970E-3	-179.184E-12	672.425E-3	-50.6432E-3	-179.261E-12	658.451E-3	-44.0750E-3
-4.41471E-3	-179.305E-12	640.774E-3	-57.4905E-3	-178.761E-12	657.333E-3	-70.5758E-3
-4.41971E-3	-178.985E-12	626.994E-3	-23.7019E-3	-178.799E-12	688.874E-3	-70.2114E-3
-4.42471E-3	-179.128E-12	655.002E-3	-11.1244E-3	-179.010E-12	683.193E-3	-51.1859E-3
-4.42971E-3	-179.217E-12	692.205E-3	-18.8798E-3	-179.126E-12	662.684E-3	-19.6182E-3
-4.43472E-3	-179.242E-12	675.431E-3	-6.65846E-3	-178.797E-12	670.346E-3	-3.96556E-3
-4.43972E-3	-178.673E-12	641.109E-3	13.6164E-3	-178.744E-12	670.434E-3	-31.4671E-3
-4.44472E-3	-179.463E-12	636.230E-3	28.2780E-3	-179.258E-12	663.761E-3	-35.3034E-3
-4.44972E-3	-178.833E-12	635.083E-3	45.2538E-3	-179.318E-12	673.561E-3	-17.1209E-3
-4.45473E-3	-178.597E-12	633.920E-3	35.9763E-3	-179.692E-12	672.257E-3	-35.4147E-3
-4.45973E-3	-178.260E-12	649.394E-3	3.89439E-3	-180.127E-12	662.216E-3	-39.3809E-3
-4.46473E-3	-179.090E-12	671.540E-3	-671.482E-6	-180.280E-12	680.039E-3	-18.0162E-3
-4.46973E-3	-178.753E-12	678.616E-3	20.4295E-3	-179.641E-12	687.694E-3	-6.38671E-3
-4.47474E-3	-179.169E-12	675.391E-3	22.2693E-3	-180.005E-12	671.875E-3	-445.827E-6
-4.47974E-3	-180.151E-12	658.983E-3	9.99651E-3	-179.775E-12	676.845E-3	1.40257E-3
-4.48474E-3	-180.139E-12	642.977E-3	-8.10525E-3	-179.989E-12	689.365E-3	-7.91144E-3
-4.48974E-3	-180.978E-12	654.260E-3	-32.5651E-3	-179.719E-12	680.025E-3	-8.57384E-3
-4.49475E-3	-181.423E-12	658.555E-3	-28.2143E-3	-179.834E-12	664.523E-3	-10.0584E-3
-4.49975E-3	-182.131E-12	662.572E-3	-13.0176E-3	-180.405E-12	654.778E-3	-37.7283E-3
-4.50475E-3	-181.966E-12	677.864E-3	-13.3735E-3	-180.334E-12	640.734E-3	-40.2894E-3
-4.50975E-3	-182.787E-12	657.236E-3	-11.8527E-3	-180.392E-12	624.465E-3	-9.72378E-3
-4.51476E-3	-182.367E-12	624.464E-3	-17.3067E-3	-180.979E-12	633.492E-3	-3.87774E-3
-4.51976E-3	-183.157E-12	628.747E-3	-44.7661E-3	-181.965E-12	662.663E-3	-16.6124E-3
-4.52476E-3	-183.305E-12	655.384E-3	-70.6516E-3	-182.386E-12	682.723E-3	-33.5869E-3
-4.52976E-3	-183.046E-12	683.978E-3	-59.3340E-3	-182.586E-12	677.266E-3	-44.4817E-3
-4.53477E-3	-183.682E-12	677.382E-3	-46.5181E-3	-183.425E-12	655.030E-3	-19.3336E-3
-4.53977E-3	-183.693E-12	655.765E-3	-51.8379E-3	-183.690E-12	645.350E-3	1.98004E-3
-4.54477E-3	-183.341E-12	670.462E-3	-46.8478E-3	-183.601E-12	645.781E-3	-14.0426E-3
-4.54977E-3	-183.325E-12	686.106E-3	-40.0501E-3	-184.281E-12	649.398E-3	-13.2223E-3
-4.55478E-3	-183.468E-12	680.873E-3	-30.8503E-3	-184.801E-12	666.063E-3	9.98681E-3
-4.55978E-3	-183.359E-12	674.430E-3	-22.9304E-3	-183.880E-12	671.776E-3	-3.47356E-3
-4.56478E-3	-183.609E-12	653.113E-3	-40.8081E-3	-183.745E-12	673.183E-3	-18.5973E-3
-4.56978E-3	-183.316E-12	640.570E-3	-54.7806E-3	-184.288E-12	686.835E-3	-10.0634E-3
-4.57479E-3	-184.025E-12	655.731E-3	-39.2919E-3	-184.168E-12	685.032E-3	-25.6750E-3
-4.57979E-3	-184.433E-12	688.011E-3	-19.8836E-3	-183.490E-12	654.921E-3	-16.8487E-3
-4.58479E-3	-184.439E-12	728.486E-3	-3.60017E-3	-183.750E-12	628.540E-3	10.6212E-3
-4.58979E-3	-184.583E-12	721.334E-3	-11.2746E-3	-184.140E-12	643.192E-3	-16.3162E-3
-4.59480E-3	-185.483E-12	678.411E-3	-32.4342E-3	-184.701E-12	644.715E-3	-45.1020E-3
-4.59980E-3	-185.958E-12	645.028E-3	-23.9373E-3	-185.719E-12	631.572E-3	-36.1046E-3
-4.60480E-3	-186.051E-12	646.616E-3	-14.5582E-3	-186.025E-12	654.223E-3	-29.2875E-3
-4.60980E-3	-186.235E-12	690.704E-3	-32.4355E-3	-187.228E-12	664.334E-3	-20.0320E-3
-4.61481E-3	-187.084E-12	699.871E-3	-37.4873E-3	-188.396E-12	669.672E-3	7.92331E-3
-4.61981E-3	-187.938E-12	662.913E-3	-23.7468E-3	-189.908E-12	695.713E-3	16.2491E-3
-4.62481E-3	-187.909E-12	644.463E-3	-27.3252E-3	-189.743E-12	702.615E-3	-15.8197E-3
-4.62981E-3	-188.782E-12	652.893E-3	-47.8220E-3	-190.727E-12	699.613E-3	-55.2550E-3
-4.63482E-3	-189.334E-12	677.994E-3	-35.4397E-3	-191.237E-12	690.495E-3	-68.6284E-3
-4.63982E-3	-189.769E-12	709.823E-3	3.84014E-3	-191.885E-12	657.238E-3	-31.2649E-3
-4.64482E-3	-189.816E-12	719.093E-3	11.7467E-3	-190.739E-12	645.599E-3	27.9875E-3
-4.64982E-3	-190.107E-12	698.677E-3	-5.67813E-3	-190.705E-12	663.343E-3	39.4403E-3
-4.65483E-3	-189.821E-12	678.810E-3	-23.2721E-3	-190.347E-12	656.296E-3	9.66635E-3
-4.65983E-3	-191.162E-12	684.436E-3	-25.3656E-3	-190.147E-12	639.972E-3	-10.1759E-3
-4.66483E-3	-189.812E-12	681.332E-3	-24.3307E-3	-189.582E-12	655.845E-3	-18.4404E-3
-4.66983E-3	-190.086E-12	655.001E-3	-42.7638E-3	-189.189E-12	665.937E-3	-4.71220E-3
-4.67484E-3	-189.922E-12	659.549E-3	-44.1905E-3	-189.049E-12	654.000E-3	16.4621E-3
-4.67984E-3	-190.091E-12	672.501E-3	-8.07132E-3	-188.976E-12	671.732E-3	-4.47937E-3
-4.68484E-3	-189.600E-12	656.371E-3	14.5093E-3	-189.447E-12	699.420E-3	-37.7592E-3
-4.68984E-3	-189.343E-12	662.271E-3	-3.35637E-3	-190.002E-12	692.240E-3	-26.6827E-3
-4.69485E-3	-189.911E-12	679.454E-3	-19.3580E-3	-190.915E-12	688.308E-3	-12.8854E-3
-4.69985E-3	-190.033E-12	645.487E-3	-24.8168E-3	-191.328E-12	665.105E-3	-42.3966E-3
-4.70485E-3	-190.243E-12	618.735E-3	-1.60913E-3	-192.731E-12	625.565E-3	-42.9530E-3
-4.70985E-3	-190.692E-12	649.826E-3	42.1605E-3	-193.929E-12	650.048E-3	-30.4305E-3
-4.71486E-3	-191.858E-12	678.462E-3	52.0191E-3	-194.573E-12	683.256E-3	-59.0454E-3
-4.71986E-3	-192.060E-12	681.853E-3	29.3582E-3	-195.164E-12	680.267E-3	-48.2782E-3
-4.72486E-3	-193.174E-12	667.003E-3	4.84151E-3	-195.199E-12	679.297E-3	-15.8711E-3
-4.72986E-3	-193.428E-12	641.364E-3	13.9202E-3	-195.752E-12	672.640E-3	-29.9033E-3
-4.73487E-3	-194.209E-12	637.836E-3	19.1431E-3	-195.740E-12	653.616E-3	-43.0554E-3
-4.73987E-3	-194.986E-12	649.495E-3	2.13804E-3	-195.373E-12	642.960E-3	-32.0688E-3
-4.74487E-3	-195.637E-12	642.693E-3	1.47340E-3	-194.790E-12	630.795E-3	-10.2765E-3
-4.74988E-3	-195.502E-12	641.200E-3	2.79761E-3	-194.977E-12	627.497E-3	-2.66877E-3
-4.75488E-3	-196.001E-12	647.237E-3	-10.0205E-3	-193.655E-12	667.789E-3	-12.9726E-3
-4.75988E-3	-195.635E-12	649.041E-3	-37.1809E-3	-193.757E-12	683.496E-3	-28.4042E-3
-4.76488E-3	-195.260E-12	689.119E-3	-44.9714E-3	-192.936E-12	661.623E-3	-37.5242E-3
-4.76988E-3	-194.630E-12	729.093E-3	-21.6417E-3	-192.929E-12	665.536E-3	-24.8817E-3
-4.77489E-3	-194.524E-12	703.475E-3	-15.8308E-3	-192.592E-12	674.465E-3	-15.3285E-3
-4.77989E-3	-193.547E-12	669.642E-3	-37.3205E-3	-192.615E-12	682.933E-3	-21.2990E-3
-4.78489E-3	-193.571E-12	672.954E-3	-42.9832E-3	-192.770E-12	702.040E-3	-32.3729E-3
-4.78989E-3	-193.438E-12	664.646E-3	-24.5122E-3	-193.363E-12	704.910E-3	-42.7492E-3
-4.79490E-3	-193.333E-12	639.271E-3	-16.2355E-3	-194.132E-12	698.657E-3	-42.8157E-3
-4.79990E-3	-193.147E-12	638.867E-3	-26.9175E-3	-195.166E-12	702.698E-3	-37.3138E-3
-4.80490E-3	-193.745E-12	646.343E-3	-28.4423E-3	-195.371E-12	674.869E-3	-37.8283E-3
-4.80990E-3	-193.807E-12	646.521E-3	-26.2707E-3	-195.803E-12	633.272E-3	-36.1857E-3
-4.81491E-3	-195.433E-12	662.554E-3	-20.4397E-3	-196.691E-12	663.720E-3	-16.6138E-3
-4.81991E-3	-195.975E-12	666.892E-3	3.86750E-3	-196.057E-12	693.530E-3	-11.1034E-3
-4.82491E-3	-196.984E-12	667.683E-3	8.99102E-3	-196.471E-12	655.415E-3	-25.8041E-3
-4.82991E-3	-198.076E-12	691.885E-3	-9.51896E-3	-197.161E-12	639.607E-3	-10.6583E-3
-4.83492E-3	-199.342E-12	698.865E-3	-30.2423E-3	-197.231E-12	653.154E-3	-14.6786E-3
-4.83992E-3	-199.406E-12	699.668E-3	-40.5091E-3	-197.341E-12	640.445E-3	-52.0226E-3
-4.84492E-3	-200.144E-12	727.553E-3	-18.0549E-3	-197.639E-12	623.884E-3	-50.3616E-3
-4.84992E-3	-200.428E-12	746.244E-3	-5.43202E-3	-196.710E-12	633.585E-3	-28.0290E-3
-4.85493E-3	-199.954E-12	735.192E-3	-38.4998E-3	-195.933E-12	633.080E-3	-17.1092E-3
-4.85993E-3	-199.096E-12	715.174E-3	-61.9492E-3	-195.956E-12	627.788E-3	-5.86319E-3
-4.86493E-3	-199.252E-12	699.708E-3	-44.7638E-3	-195.518E-12	657.581E-3	1.66664E-3
-4.86993E-3	-198.634E-12	691.032E-3	-46.4366E-3	-195.176E-12	678.142E-3	11.2348E-3
-4.87494E-3	-197.760E-12	683.041E-3	-70.9257E-3	-195.211E-12	664.886E-3	34.4303E-3
-4.87994E-3	-197.873E-12	663.221E-3	-49.5646E-3	-196.092E-12	654.971E-3	32.0973E-3
-4.88494E-3	-197.766E-12	656.438E-3	-18.3334E-3	-196.601E-12	640.889E-3	6.69189E-3
-4.88995E-3	-197.332E-12	667.359E-3	-20.2593E-3	-197.100E-12	641.180E-3	5.94789E-3
-4.89495E-3	-197.398E-12	661.049E-3	-12.7719E-3	-197.944E-12	673.545E-3	457.240E-6
-4.89995E-3	-197.528E-12	656.144E-3	-24.5383E-3	-198.632E-12	671.349E-3	-4.12385E-3
-4.90495E-3	-198.032E-12	669.381E-3	-48.5878E-3	-199.825E-12	656.681E-3	23.8491E-3
-4.90995E-3	-198.254E-12	670.332E-3	-20.1089E-3	-200.443E-12	683.763E-3	30.5193E-3
-4.91496E-3	-199.315E-12	677.316E-3	12.4222E-3	-200.685E-12	701.463E-3	3.82251E-3
-4.91996E-3	-199.437E-12	714.028E-3	-436.210E-6	-201.711E-12	687.204E-3	-20.8318E-3
-4.92496E-3	-200.848E-12	718.281E-3	-24.3985E-3	-202.373E-12	672.831E-3	-36.3494E-3
-4.92996E-3	-201.583E-12	685.471E-3	-37.7602E-3	-202.170E-12	659.779E-3	-34.6307E-3
-4.93497E-3	-202.776E-12	666.081E-3	-42.2685E-3	-202.447E-12	664.297E-3	-15.2929E-3
-4.93997E-3	-203.635E-12	642.314E-3	-10.2443E-3	-202.994E-12	679.226E-3	-17.3625E-3
-4.94497E-3	-203.652E-12	626.277E-3	21.7822E-3	-203.260E-12	660.751E-3	-26.9827E-3
-4.94997E-3	-203.330E-12	656.271E-3	3.97377E-3	-203.385E-12	633.664E-3	10.8125E-3
-4.95498E-3	-204.026E-12	672.369E-3	-8.15686E-3	-203.840E-12	634.523E-3	55.3087E-3
-4.95998E-3	-204.340E-12	644.308E-3	-12.8591E-3	-203.892E-12	639.182E-3	35.4109E-3
-4.96498E-3	-203.948E-12	654.762E-3	-44.6317E-3	-203.063E-12	637.802E-3	-6.77110E-3
-4.96998E-3	-203.133E-12	708.950E-3	-33.1017E-3	-203.055E-12	658.486E-3	-20.6684E-3
-4.97499E-3	-203.401E-12	705.478E-3	6.74135E-3	-202.802E-12	685.327E-3	-24.4861E-3
-4.97999E-3	-203.368E-12	664.804E-3	9.12904E-3	-202.897E-12	690.091E-3	-22.2776E-3
-4.98499E-3	-202.922E-12	646.073E-3	7.04012E-3	-202.610E-12	681.762E-3	-33.0174E-3
-4.98999E-3	-202.421E-12	606.000E-3	-16.2244E-3	-203.019E-12	656.062E-3	-52.8392E-3
-4.99500E-3	-203.378E-12	587.207E-3	-44.5000E-3	-203.765E-12	641.827E-3	-34.2319E-3
-5.00000E-3	-203.250E-12	635.135E-3	-20.5812E-3	-204.001E-12	657.875E-3	-3.19882E-3
