Experiment	bias spectroscopy	
Date	19.01.2016 20:21:13	
User		
X (m)	49.4595E-9	
Y (m)	256.491E-9	
Z (m)	-132.593E-9	
Z offset (m)	0E+0	
Settling time (s)	200E-6	
Integration time (s)	5E-3	
Z-Ctrl hold	TRUE	
Final Z (m)	N/A	
Filter type	None	
Order		
Cutoff frq		
Comment01	MnPc/Pb(111)	
Comment02	dz =00pm	
Comment03	7 Sweeps	
Comment04	MagField =0.T	
Comment05	Divider 1:10	
Comment06	Setpoint:5mV,200 pA	
Comment07	Lockin: 50uVrms,5ms,5mV	
Comment08	Gain:9; 912Hz modulation	
Comment09	T=1.06K	
Bias>Bias (V)	5E-3	
Bias>Calibration (V/V)	81.475E-3	
Bias>Offset (V)	1.046E-3	
Bias Spectroscopy>Sweep Start (V)	5E-3	
Bias Spectroscopy>Sweep End (V)	-5E-3	
Bias Spectroscopy>Num Pixel	2000	
Bias Spectroscopy>Z Avg time (s)	500E-3	
Bias Spectroscopy>Z offset (m)	0E+0	
Bias Spectroscopy>1st Settling time (s)	500E-3	
Bias Spectroscopy>Settling time (s)	200E-6	
Bias Spectroscopy>Integration time (s)	5E-3	
Bias Spectroscopy>End Settling time (s)	500E-3	
Bias Spectroscopy>Z control time (s)	500E-3	
Bias Spectroscopy>Max Slew rate (V/s)	Inf	
Bias Spectroscopy>backward sweep	TRUE	
Bias Spectroscopy>Z-controller hold	TRUE	
Bias Spectroscopy>Number of sweeps	7	
Bias Spectroscopy>Channels	Current (A);X% LockIn (V);Y% LockIn (V)	
Bias Spectroscopy>Reset Bias	TRUE	
Bias Spectroscopy>Record final Z	FALSE	
Bias Spectroscopy>Lock-In run	FALSE	
Bias Spectroscopy>Sweep mode	Linear	
Bias Spectroscopy>MultiLine Settings : Segment Start (V), Segment End (V), Settling (s), Integration (s), Steps (xn)	100E-3,3.3E-3,100E-6,10E-3,2500;3.3E-3,-3.3E-3,100E-6,10E-3,10;-3.3E-3,-100E-3,100E-6,10E-3,2500	
Current>Current (A)	200.01E-12	
Current>Calibration (A/V)	999.99900E-12	
Current>Offset (A)	-455.429E-15	
Current>Gain	LN 10^9	
Z-Controller>Z (m)	-132.589E-9	
Z-Controller>Controller name	log Current	
Z-Controller>Controller status	ON	
Z-Controller>Setpoint	200E-12	
Z-Controller>Setpoint unit	A	
Z-Controller>P gain	2.96994E-12	
Z-Controller>I gain	67.0321E-9	
Z-Controller>Time const (s)	44.3062E-6	
Z-Controller>TipLift (m)	0E+0	
Z-Controller>Switch off delay (s)	50E-3	
Current (A)	200.172E-12	
Z (m)	-132.589E-9	

[DATA]
Bias calc (V)	Current (A)	X% LockIn (V)	Y% LockIn (V)	Current [bwd] (A)	X% LockIn [bwd] (V)	Y% LockIn [bwd] (V)
5.00000E-3	199.422E-12	611.682E-3	-19.1294E-3	202.627E-12	615.053E-3	-52.5453E-3
4.99500E-3	199.053E-12	629.933E-3	-20.7571E-3	201.628E-12	638.771E-3	-30.7598E-3
4.98999E-3	199.209E-12	644.620E-3	-22.1304E-3	200.950E-12	640.971E-3	-22.7077E-3
4.98499E-3	199.888E-12	658.080E-3	-11.8468E-3	199.982E-12	641.500E-3	-30.1265E-3
4.97999E-3	198.883E-12	660.507E-3	2.64045E-3	199.068E-12	664.764E-3	-32.6259E-3
4.97499E-3	198.863E-12	626.751E-3	-1.86108E-3	198.015E-12	667.077E-3	-23.6645E-3
4.96998E-3	198.266E-12	585.718E-3	-32.8411E-3	197.678E-12	626.164E-3	-17.2115E-3
4.96498E-3	198.478E-12	578.458E-3	-34.5355E-3	196.574E-12	575.467E-3	2.47614E-3
4.95998E-3	198.126E-12	602.661E-3	-20.6954E-3	195.693E-12	560.273E-3	23.7444E-3
4.95498E-3	198.041E-12	634.202E-3	-53.4805E-3	194.747E-12	578.493E-3	20.1297E-3
4.94997E-3	198.950E-12	643.059E-3	-67.7661E-3	194.879E-12	608.451E-3	2.18685E-3
4.94497E-3	197.666E-12	625.437E-3	-34.9018E-3	193.992E-12	632.415E-3	-21.8233E-3
4.93997E-3	198.808E-12	618.424E-3	-20.7906E-3	194.111E-12	626.463E-3	-32.3877E-3
4.93497E-3	196.522E-12	636.577E-3	-16.4103E-3	194.016E-12	603.156E-3	-15.0339E-3
4.92996E-3	197.833E-12	651.783E-3	-5.57568E-3	193.420E-12	603.179E-3	9.58758E-3
4.92496E-3	197.102E-12	644.514E-3	-6.55792E-3	193.942E-12	601.880E-3	10.4940E-3
4.91996E-3	197.560E-12	633.795E-3	-7.70162E-3	194.783E-12	596.823E-3	418.597E-6
4.91496E-3	197.171E-12	635.707E-3	-6.80313E-3	197.084E-12	628.500E-3	-2.28844E-3
4.90995E-3	198.241E-12	650.059E-3	-1.24983E-3	197.185E-12	636.219E-3	-13.7299E-3
4.90495E-3	199.363E-12	662.230E-3	-2.00203E-3	196.056E-12	621.027E-3	-35.6198E-3
4.89995E-3	198.295E-12	649.736E-3	-21.0807E-3	196.911E-12	628.386E-3	-43.3524E-3
4.89495E-3	198.646E-12	636.494E-3	-45.2391E-3	197.591E-12	623.497E-3	-23.7733E-3
4.88995E-3	198.897E-12	645.571E-3	-54.6346E-3	198.104E-12	626.196E-3	15.6445E-3
4.88494E-3	199.478E-12	644.484E-3	-37.0026E-3	195.698E-12	633.319E-3	12.5337E-3
4.87994E-3	198.052E-12	624.626E-3	-6.10041E-3	196.185E-12	629.190E-3	-29.6601E-3
4.87494E-3	196.119E-12	632.204E-3	-3.66373E-3	196.020E-12	635.953E-3	-51.1450E-3
4.86993E-3	193.848E-12	648.704E-3	-14.4761E-3	196.383E-12	644.843E-3	-63.5909E-3
4.86493E-3	195.117E-12	645.437E-3	-7.68300E-3	194.000E-12	637.032E-3	-67.1660E-3
4.85993E-3	195.443E-12	659.567E-3	-9.69986E-3	193.074E-12	616.496E-3	-48.7917E-3
4.85493E-3	194.546E-12	672.335E-3	-9.20255E-3	193.329E-12	615.354E-3	-39.4730E-3
4.84992E-3	192.677E-12	639.598E-3	-12.6773E-3	192.507E-12	627.630E-3	-45.1753E-3
4.84492E-3	191.051E-12	626.750E-3	-20.2198E-3	191.240E-12	625.766E-3	-25.4403E-3
4.83992E-3	192.501E-12	641.767E-3	-10.5699E-3	191.476E-12	614.341E-3	-1.32539E-3
4.83492E-3	192.312E-12	616.780E-3	-2.35262E-3	192.324E-12	621.572E-3	-4.37127E-3
4.82991E-3	192.421E-12	598.800E-3	-4.08437E-3	191.845E-12	637.672E-3	-6.55837E-3
4.82491E-3	191.343E-12	624.930E-3	-11.8249E-3	190.692E-12	637.078E-3	-19.9647E-3
4.81991E-3	193.448E-12	656.417E-3	-42.7101E-3	191.177E-12	636.950E-3	-33.9934E-3
4.81491E-3	194.688E-12	642.588E-3	-43.6859E-3	192.630E-12	623.415E-3	-11.4455E-3
4.80990E-3	196.381E-12	620.633E-3	-12.6660E-3	191.522E-12	609.336E-3	-123.780E-6
4.80490E-3	195.418E-12	625.373E-3	6.17618E-3	191.782E-12	625.489E-3	-28.9326E-3
4.79990E-3	195.151E-12	633.040E-3	16.5103E-3	191.689E-12	621.764E-3	-50.9129E-3
4.79490E-3	196.392E-12	645.048E-3	7.83701E-3	192.154E-12	595.884E-3	-38.0577E-3
4.78989E-3	197.600E-12	642.211E-3	-9.63585E-3	192.267E-12	606.464E-3	-16.3949E-3
4.78489E-3	195.756E-12	635.969E-3	-39.9542E-3	192.499E-12	652.597E-3	-8.64090E-3
4.77989E-3	193.902E-12	643.988E-3	-47.7023E-3	193.063E-12	675.019E-3	-13.4227E-3
4.77489E-3	193.511E-12	626.059E-3	-24.1594E-3	191.788E-12	670.956E-3	-24.7508E-3
4.76988E-3	193.066E-12	609.830E-3	-16.6411E-3	192.041E-12	655.078E-3	-32.8741E-3
4.76488E-3	192.559E-12	626.565E-3	-25.3383E-3	191.511E-12	632.496E-3	-25.3772E-3
4.75988E-3	189.735E-12	620.027E-3	-30.0967E-3	191.527E-12	640.392E-3	-15.0911E-3
4.75488E-3	190.513E-12	607.497E-3	-16.8982E-3	191.295E-12	644.175E-3	-3.18748E-3
4.74988E-3	190.323E-12	627.097E-3	477.783E-6	191.364E-12	621.328E-3	11.5611E-3
4.74487E-3	189.197E-12	645.587E-3	-6.46021E-3	190.294E-12	614.789E-3	-2.87102E-3
4.73987E-3	188.567E-12	639.562E-3	-32.9928E-3	189.171E-12	617.392E-3	-29.6105E-3
4.73487E-3	188.025E-12	622.566E-3	-53.3555E-3	189.894E-12	616.145E-3	-41.9575E-3
4.72986E-3	189.072E-12	608.505E-3	-63.9987E-3	187.715E-12	638.716E-3	-40.0377E-3
4.72486E-3	190.359E-12	609.259E-3	-63.0255E-3	187.577E-12	666.465E-3	-28.4634E-3
4.71986E-3	191.899E-12	617.178E-3	-44.0134E-3	187.437E-12	658.532E-3	-30.5725E-3
4.71486E-3	190.559E-12	625.298E-3	-21.1589E-3	187.786E-12	639.899E-3	-42.8062E-3
4.70985E-3	189.016E-12	622.589E-3	-27.3450E-3	187.117E-12	638.609E-3	-48.2479E-3
4.70485E-3	190.852E-12	598.270E-3	-34.0613E-3	187.133E-12	644.621E-3	-42.1123E-3
4.69985E-3	191.652E-12	594.891E-3	-13.9309E-3	186.551E-12	650.464E-3	-28.0603E-3
4.69485E-3	191.159E-12	624.296E-3	-6.72215E-3	185.415E-12	653.709E-3	-21.1635E-3
4.68984E-3	189.352E-12	653.070E-3	-8.00453E-3	185.156E-12	636.281E-3	-16.6618E-3
4.68484E-3	190.075E-12	634.674E-3	-1.56858E-3	186.227E-12	623.339E-3	2.43745E-3
4.67984E-3	190.458E-12	606.500E-3	6.86098E-3	186.393E-12	621.156E-3	7.44440E-3
4.67484E-3	190.675E-12	622.350E-3	5.13228E-3	186.014E-12	605.484E-3	-14.6377E-3
4.66983E-3	189.060E-12	636.602E-3	-6.02377E-3	185.306E-12	615.771E-3	-24.2671E-3
4.66483E-3	188.222E-12	641.920E-3	-13.0476E-3	186.519E-12	640.069E-3	-16.5326E-3
4.65983E-3	188.390E-12	658.454E-3	-2.18919E-3	185.523E-12	640.745E-3	-10.6523E-3
4.65483E-3	188.185E-12	665.719E-3	9.12269E-3	184.255E-12	626.389E-3	-5.23756E-3
4.64982E-3	186.574E-12	658.031E-3	-811.741E-6	183.395E-12	612.685E-3	-4.30145E-3
4.64482E-3	185.712E-12	647.267E-3	-15.5944E-3	184.060E-12	610.900E-3	-9.57501E-3
4.63982E-3	186.668E-12	637.239E-3	-7.19177E-3	183.167E-12	615.688E-3	-12.3307E-3
4.63482E-3	187.338E-12	635.201E-3	5.04954E-3	181.400E-12	618.445E-3	-1.76988E-3
4.62981E-3	186.282E-12	648.388E-3	2.17329E-3	180.074E-12	611.743E-3	16.4855E-3
4.62481E-3	185.570E-12	660.540E-3	6.18671E-3	181.419E-12	609.422E-3	4.95549E-3
4.61981E-3	185.859E-12	650.253E-3	11.3622E-3	182.398E-12	610.421E-3	-30.1733E-3
4.61481E-3	186.750E-12	651.740E-3	-2.27953E-3	181.071E-12	589.795E-3	-37.2280E-3
4.60980E-3	185.492E-12	667.821E-3	-23.1107E-3	181.661E-12	581.169E-3	-22.8153E-3
4.60480E-3	183.347E-12	662.867E-3	-18.6406E-3	181.954E-12	604.379E-3	-17.0529E-3
4.59980E-3	182.907E-12	662.055E-3	-18.2643E-3	184.098E-12	611.945E-3	-23.9378E-3
4.59480E-3	184.691E-12	662.941E-3	-20.4773E-3	183.229E-12	618.575E-3	-37.1540E-3
4.58979E-3	185.292E-12	654.035E-3	-8.67905E-3	183.308E-12	649.347E-3	-41.6900E-3
4.58479E-3	184.014E-12	648.152E-3	-4.09948E-3	184.804E-12	663.575E-3	-21.8128E-3
4.57979E-3	183.997E-12	658.198E-3	6.81594E-3	185.660E-12	655.945E-3	-1.91351E-3
4.57479E-3	184.626E-12	666.733E-3	13.8101E-3	185.611E-12	651.007E-3	-22.9247E-3
4.56978E-3	185.859E-12	682.393E-3	-4.79630E-3	184.372E-12	637.680E-3	-35.0801E-3
4.56478E-3	183.901E-12	708.048E-3	-30.3606E-3	184.036E-12	620.747E-3	-20.1289E-3
4.55978E-3	183.060E-12	698.716E-3	-28.4045E-3	183.471E-12	618.700E-3	-33.3518E-3
4.55478E-3	183.649E-12	672.995E-3	-8.01467E-3	181.805E-12	626.928E-3	-48.4146E-3
4.54977E-3	183.593E-12	663.650E-3	-9.19107E-3	180.383E-12	630.589E-3	-29.2657E-3
4.54477E-3	182.464E-12	651.286E-3	-30.8768E-3	180.724E-12	628.268E-3	-22.8109E-3
4.53977E-3	180.118E-12	631.981E-3	-40.4583E-3	181.181E-12	618.433E-3	-36.8226E-3
4.53477E-3	180.873E-12	629.993E-3	-25.3485E-3	179.051E-12	606.347E-3	-25.2461E-3
4.52976E-3	179.277E-12	620.177E-3	-3.77242E-3	178.774E-12	612.764E-3	-10.6873E-3
4.52476E-3	179.039E-12	597.240E-3	-18.2417E-3	179.045E-12	616.379E-3	-22.8560E-3
4.51976E-3	177.107E-12	604.405E-3	-47.6954E-3	180.771E-12	619.687E-3	-33.0871E-3
4.51476E-3	176.808E-12	620.452E-3	-38.4466E-3	181.118E-12	633.279E-3	-30.3411E-3
4.50975E-3	176.343E-12	616.636E-3	-18.4773E-3	182.101E-12	646.188E-3	-46.0597E-3
4.50475E-3	175.969E-12	619.509E-3	-6.37885E-3	181.285E-12	655.323E-3	-57.6876E-3
4.49975E-3	176.613E-12	596.020E-3	6.19181E-3	181.331E-12	673.298E-3	-40.9984E-3
4.49475E-3	176.377E-12	559.674E-3	12.8861E-3	181.709E-12	683.308E-3	-36.3416E-3
4.48974E-3	177.851E-12	585.973E-3	345.477E-6	182.797E-12	667.557E-3	-47.6919E-3
4.48474E-3	177.937E-12	621.002E-3	-27.2019E-3	183.216E-12	657.980E-3	-52.6959E-3
4.47974E-3	178.571E-12	634.572E-3	-42.3776E-3	182.125E-12	639.346E-3	-46.2069E-3
4.47474E-3	178.981E-12	649.544E-3	-27.8642E-3	181.885E-12	609.571E-3	-27.0119E-3
4.46973E-3	179.834E-12	635.956E-3	-14.9005E-3	180.737E-12	630.843E-3	-21.4289E-3
4.46473E-3	181.189E-12	625.199E-3	-22.1255E-3	180.363E-12	667.781E-3	-42.6605E-3
4.45973E-3	181.363E-12	643.705E-3	-21.9806E-3	177.921E-12	652.832E-3	-60.5508E-3
4.45473E-3	181.113E-12	641.155E-3	-19.8853E-3	176.317E-12	630.830E-3	-56.7235E-3
4.44972E-3	179.354E-12	621.016E-3	-27.8736E-3	175.736E-12	640.511E-3	-45.0372E-3
4.44472E-3	180.010E-12	631.911E-3	-28.9485E-3	176.484E-12	643.870E-3	-40.8032E-3
4.43972E-3	178.207E-12	657.278E-3	-11.2840E-3	176.609E-12	630.933E-3	-25.5665E-3
4.43472E-3	176.973E-12	653.654E-3	-9.89023E-3	175.262E-12	626.295E-3	-16.1736E-3
4.42971E-3	175.006E-12	645.453E-3	-20.2935E-3	174.755E-12	621.943E-3	-22.5015E-3
4.42471E-3	175.183E-12	634.485E-3	-7.00766E-3	173.578E-12	610.412E-3	-11.9342E-3
4.41971E-3	173.560E-12	615.906E-3	-3.89417E-3	175.480E-12	603.754E-3	544.372E-6
4.41471E-3	174.262E-12	624.909E-3	-18.4064E-3	175.754E-12	604.636E-3	-2.74023E-3
4.40970E-3	173.556E-12	640.085E-3	-16.1940E-3	175.005E-12	622.704E-3	-23.3399E-3
4.40470E-3	172.611E-12	632.036E-3	1.42494E-3	174.559E-12	640.953E-3	-56.8986E-3
4.39970E-3	172.724E-12	621.495E-3	11.7143E-3	175.072E-12	625.473E-3	-66.6389E-3
4.39470E-3	174.826E-12	629.264E-3	5.95805E-3	177.494E-12	615.899E-3	-49.0923E-3
4.38969E-3	174.487E-12	620.037E-3	1.27612E-3	175.636E-12	641.546E-3	-47.9319E-3
4.38469E-3	175.683E-12	596.125E-3	-805.219E-6	175.395E-12	663.901E-3	-64.1030E-3
4.37969E-3	175.875E-12	587.191E-3	-3.85212E-3	174.903E-12	654.776E-3	-57.0641E-3
4.37469E-3	176.733E-12	599.596E-3	-9.53414E-3	175.041E-12	624.057E-3	-45.4532E-3
4.36968E-3	177.600E-12	629.554E-3	-16.0628E-3	174.477E-12	596.678E-3	-43.4351E-3
4.36468E-3	177.912E-12	639.838E-3	746.285E-6	173.534E-12	604.912E-3	-30.6879E-3
4.35968E-3	176.582E-12	640.158E-3	19.1357E-3	171.716E-12	648.026E-3	-18.9596E-3
4.35468E-3	177.575E-12	653.240E-3	16.3943E-3	172.163E-12	670.546E-3	-22.9077E-3
4.34967E-3	177.288E-12	664.522E-3	8.97273E-3	172.461E-12	651.838E-3	-33.8451E-3
4.34467E-3	176.466E-12	659.376E-3	5.00505E-3	172.373E-12	634.421E-3	-32.9175E-3
4.33967E-3	174.864E-12	631.522E-3	-5.86823E-3	171.435E-12	630.696E-3	-25.5519E-3
4.33467E-3	173.137E-12	614.628E-3	-38.6269E-3	171.943E-12	627.462E-3	-5.31648E-3
4.32966E-3	171.230E-12	609.405E-3	-50.0335E-3	172.630E-12	625.134E-3	9.31733E-3
4.32466E-3	170.685E-12	604.499E-3	-33.9531E-3	172.314E-12	609.291E-3	-21.6204E-3
4.31966E-3	171.145E-12	614.323E-3	-36.4706E-3	171.208E-12	596.955E-3	-45.4439E-3
4.31466E-3	170.216E-12	622.541E-3	-53.3863E-3	172.483E-12	621.920E-3	-39.6689E-3
4.30965E-3	169.337E-12	622.479E-3	-60.7722E-3	173.030E-12	647.178E-3	-49.3400E-3
4.30465E-3	168.699E-12	628.279E-3	-54.4411E-3	172.298E-12	638.840E-3	-72.0892E-3
4.29965E-3	170.580E-12	637.721E-3	-35.1029E-3	171.388E-12	625.080E-3	-76.8135E-3
4.29465E-3	170.405E-12	635.896E-3	-15.2851E-3	170.705E-12	627.863E-3	-56.5027E-3
4.28964E-3	169.137E-12	632.920E-3	-14.8478E-3	171.197E-12	639.305E-3	-23.0056E-3
4.28464E-3	168.993E-12	631.073E-3	-15.4293E-3	171.035E-12	652.360E-3	-1.68970E-3
4.27964E-3	171.063E-12	608.909E-3	-14.2952E-3	171.275E-12	660.362E-3	-12.5111E-3
4.27464E-3	172.108E-12	613.385E-3	-23.7234E-3	171.510E-12	646.896E-3	-14.2212E-3
4.26963E-3	171.482E-12	634.521E-3	-13.8351E-3	170.976E-12	624.522E-3	10.0130E-3
4.26463E-3	170.590E-12	626.907E-3	20.2085E-3	170.442E-12	628.120E-3	30.1766E-3
4.25963E-3	170.781E-12	630.302E-3	32.4054E-3	170.837E-12	642.984E-3	37.7715E-3
4.25463E-3	171.180E-12	637.522E-3	13.5968E-3	171.060E-12	654.258E-3	21.7462E-3
4.24962E-3	170.203E-12	632.500E-3	-21.9866E-3	170.288E-12	671.080E-3	4.70966E-3
4.24462E-3	168.837E-12	653.046E-3	-51.0037E-3	168.724E-12	661.814E-3	2.74290E-3
4.23962E-3	167.797E-12	684.940E-3	-41.5400E-3	169.194E-12	631.277E-3	-8.90211E-3
4.23462E-3	168.195E-12	664.431E-3	-21.5625E-3	169.210E-12	620.220E-3	-36.8913E-3
4.22961E-3	168.395E-12	623.699E-3	-28.3626E-3	167.996E-12	616.078E-3	-43.4798E-3
4.22461E-3	167.305E-12	620.081E-3	-28.6590E-3	166.232E-12	608.687E-3	-30.7424E-3
4.21961E-3	167.551E-12	634.253E-3	-9.57807E-3	166.938E-12	612.513E-3	-31.8034E-3
4.21461E-3	167.421E-12	652.243E-3	4.89080E-3	166.489E-12	629.616E-3	-28.6110E-3
4.20960E-3	166.803E-12	667.121E-3	1.99195E-3	165.680E-12	642.902E-3	-4.67461E-3
4.20460E-3	166.420E-12	647.978E-3	-12.4966E-3	165.331E-12	650.626E-3	3.44377E-3
4.19960E-3	165.767E-12	629.666E-3	-18.5744E-3	165.183E-12	634.516E-3	-11.3765E-3
4.19460E-3	165.442E-12	636.965E-3	-21.5869E-3	164.488E-12	607.064E-3	-26.9378E-3
4.18959E-3	165.195E-12	620.105E-3	-26.7172E-3	164.545E-12	610.235E-3	-46.7338E-3
4.18459E-3	165.478E-12	613.130E-3	-34.5122E-3	164.708E-12	624.455E-3	-57.5182E-3
4.17959E-3	165.225E-12	630.307E-3	-37.5038E-3	166.431E-12	620.297E-3	-47.5968E-3
4.17459E-3	165.207E-12	629.040E-3	-29.6401E-3	165.678E-12	598.304E-3	-43.2395E-3
4.16958E-3	164.570E-12	622.680E-3	-23.3630E-3	165.713E-12	596.418E-3	-43.1642E-3
4.16458E-3	164.689E-12	621.786E-3	-33.9399E-3	166.557E-12	613.753E-3	-33.4941E-3
4.15958E-3	165.027E-12	622.205E-3	-38.8766E-3	167.455E-12	632.889E-3	-31.1369E-3
4.15458E-3	165.152E-12	625.080E-3	-26.9969E-3	167.124E-12	652.113E-3	-31.9994E-3
4.14957E-3	165.520E-12	627.326E-3	-20.2055E-3	165.974E-12	630.062E-3	-20.8873E-3
4.14457E-3	165.563E-12	625.048E-3	2.99359E-3	165.397E-12	595.869E-3	-5.63687E-3
4.13957E-3	165.299E-12	618.903E-3	29.6025E-3	164.437E-12	592.094E-3	-2.15942E-3
4.13457E-3	165.720E-12	628.886E-3	20.8509E-3	164.303E-12	592.222E-3	1.23513E-3
4.12956E-3	167.198E-12	640.675E-3	2.30471E-3	162.307E-12	606.657E-3	7.30147E-3
4.12456E-3	166.329E-12	635.014E-3	217.241E-6	161.127E-12	644.796E-3	1.08331E-3
4.11956E-3	165.445E-12	634.268E-3	9.93238E-3	160.723E-12	661.602E-3	-6.65501E-3
4.11456E-3	165.292E-12	626.509E-3	15.1264E-3	160.029E-12	644.696E-3	2.70211E-3
4.10955E-3	164.593E-12	619.044E-3	-9.32697E-3	159.708E-12	627.175E-3	22.0380E-3
4.10455E-3	163.608E-12	637.166E-3	-50.0174E-3	158.779E-12	620.300E-3	19.1945E-3
4.09955E-3	162.041E-12	654.655E-3	-66.8326E-3	159.163E-12	626.978E-3	4.26723E-3
4.09455E-3	161.390E-12	647.721E-3	-63.4373E-3	158.910E-12	644.016E-3	-7.02806E-3
4.08954E-3	160.029E-12	640.000E-3	-39.2244E-3	159.933E-12	643.827E-3	-11.7242E-3
4.08454E-3	160.419E-12	639.814E-3	-8.44755E-3	160.988E-12	639.199E-3	-1.38749E-3
4.07954E-3	158.761E-12	649.380E-3	-206.107E-6	161.736E-12	649.168E-3	-6.16558E-3
4.07454E-3	159.180E-12	663.150E-3	-8.79828E-3	162.311E-12	650.207E-3	-14.4529E-3
4.06953E-3	159.873E-12	650.871E-3	-11.6724E-3	163.262E-12	643.658E-3	-7.05598E-3
4.06453E-3	161.167E-12	624.867E-3	-11.3548E-3	164.212E-12	638.394E-3	-11.3436E-3
4.05953E-3	161.170E-12	597.067E-3	-21.9989E-3	164.727E-12	618.604E-3	-24.1918E-3
4.05453E-3	160.720E-12	590.445E-3	-33.9368E-3	164.031E-12	596.826E-3	-32.7029E-3
4.04952E-3	162.916E-12	602.457E-3	-36.2810E-3	162.982E-12	610.138E-3	-34.4970E-3
4.04452E-3	164.162E-12	619.735E-3	-28.5458E-3	162.343E-12	639.101E-3	-32.5593E-3
4.03952E-3	164.131E-12	641.221E-3	-17.1386E-3	161.272E-12	648.117E-3	-30.3365E-3
4.03452E-3	163.422E-12	650.884E-3	-4.38852E-3	159.436E-12	640.463E-3	-31.1177E-3
4.02951E-3	163.661E-12	660.860E-3	-9.59849E-3	157.708E-12	626.250E-3	-25.6919E-3
4.02451E-3	163.775E-12	661.631E-3	-22.5841E-3	157.066E-12	625.363E-3	-18.5978E-3
4.01951E-3	162.253E-12	640.361E-3	-19.5571E-3	157.325E-12	651.036E-3	-31.3512E-3
4.01451E-3	160.751E-12	629.009E-3	-19.7614E-3	156.609E-12	672.660E-3	-36.0760E-3
4.00950E-3	159.674E-12	639.710E-3	-19.0523E-3	155.324E-12	672.401E-3	-19.7411E-3
4.00450E-3	159.370E-12	656.436E-3	2.60196E-3	155.541E-12	653.557E-3	-16.1047E-3
3.99950E-3	157.887E-12	655.034E-3	11.7245E-3	156.883E-12	635.915E-3	-36.5971E-3
3.99450E-3	156.322E-12	621.954E-3	-5.35297E-3	157.308E-12	633.878E-3	-47.3256E-3
3.98949E-3	154.999E-12	605.848E-3	-18.4680E-3	157.373E-12	626.515E-3	-38.1663E-3
3.98449E-3	154.383E-12	620.669E-3	-15.0974E-3	157.880E-12	620.530E-3	-33.0844E-3
3.97949E-3	153.476E-12	642.049E-3	-2.05469E-3	161.232E-12	631.098E-3	-22.7972E-3
3.97449E-3	153.934E-12	656.181E-3	-6.83214E-3	160.968E-12	652.921E-3	-16.7573E-3
3.96948E-3	154.709E-12	641.748E-3	-27.7744E-3	159.885E-12	647.248E-3	-37.7641E-3
3.96448E-3	154.284E-12	622.574E-3	-37.1163E-3	160.289E-12	620.990E-3	-51.8378E-3
3.95948E-3	154.798E-12	618.559E-3	-15.6823E-3	161.212E-12	638.735E-3	-44.7316E-3
3.95448E-3	156.539E-12	615.329E-3	10.5370E-3	160.701E-12	676.249E-3	-33.0530E-3
3.94947E-3	157.787E-12	627.147E-3	14.7130E-3	159.297E-12	665.121E-3	-10.5183E-3
3.94447E-3	157.063E-12	649.832E-3	-5.19169E-3	158.134E-12	636.873E-3	3.78086E-3
3.93947E-3	157.166E-12	643.846E-3	-37.8726E-3	157.620E-12	637.160E-3	-2.80870E-3
3.93447E-3	157.672E-12	624.243E-3	-44.1937E-3	156.575E-12	636.522E-3	-22.0804E-3
3.92946E-3	157.540E-12	622.885E-3	-18.7891E-3	154.277E-12	630.993E-3	-25.8588E-3
3.92446E-3	157.158E-12	643.631E-3	-2.94762E-3	152.628E-12	637.380E-3	-17.1094E-3
3.91946E-3	155.222E-12	663.568E-3	-24.7326E-3	152.004E-12	635.590E-3	-29.4846E-3
3.91446E-3	153.735E-12	660.355E-3	-44.8479E-3	152.149E-12	627.522E-3	-40.9250E-3
3.90945E-3	152.964E-12	638.354E-3	-37.5907E-3	152.153E-12	633.224E-3	-29.2319E-3
3.90445E-3	152.432E-12	628.350E-3	-32.6253E-3	150.894E-12	638.960E-3	-4.01718E-3
3.89945E-3	151.500E-12	627.672E-3	-31.5645E-3	150.406E-12	645.761E-3	15.8824E-3
3.89445E-3	151.164E-12	611.240E-3	-20.6440E-3	152.155E-12	649.240E-3	17.1092E-3
3.88944E-3	150.720E-12	611.710E-3	-4.65709E-3	154.050E-12	634.355E-3	5.46440E-3
3.88444E-3	150.448E-12	623.313E-3	5.76049E-3	153.577E-12	638.235E-3	-7.33439E-3
3.87944E-3	150.079E-12	616.320E-3	-2.88160E-3	152.334E-12	652.519E-3	-14.3848E-3
3.87444E-3	150.552E-12	614.558E-3	-22.6669E-3	152.515E-12	640.776E-3	-3.41619E-3
3.86943E-3	151.681E-12	623.919E-3	-27.1933E-3	155.025E-12	617.929E-3	3.26593E-3
3.86443E-3	152.437E-12	622.267E-3	-19.4246E-3	154.209E-12	614.638E-3	-15.2793E-3
3.85943E-3	151.902E-12	632.854E-3	-24.3798E-3	152.571E-12	635.089E-3	-27.4603E-3
3.85443E-3	152.897E-12	658.386E-3	-32.5355E-3	151.151E-12	637.766E-3	-23.5320E-3
3.84942E-3	154.028E-12	671.145E-3	-26.6513E-3	152.273E-12	619.494E-3	-21.3326E-3
3.84442E-3	153.460E-12	678.145E-3	-23.8039E-3	152.068E-12	608.232E-3	-16.6604E-3
3.83942E-3	152.227E-12	660.906E-3	-20.7874E-3	151.579E-12	609.563E-3	8.73737E-3
3.83442E-3	151.712E-12	627.306E-3	-6.71297E-3	149.852E-12	644.530E-3	22.1031E-3
3.82941E-3	152.885E-12	633.939E-3	10.6702E-3	150.268E-12	677.814E-3	901.393E-6
3.82441E-3	150.972E-12	656.674E-3	13.0348E-3	151.130E-12	660.037E-3	-27.2494E-3
3.81941E-3	150.466E-12	637.724E-3	494.201E-6	152.333E-12	645.115E-3	-29.6699E-3
3.81441E-3	150.360E-12	612.794E-3	-11.2638E-3	150.601E-12	660.522E-3	-19.0662E-3
3.80940E-3	150.685E-12	634.434E-3	-24.7505E-3	148.941E-12	654.655E-3	-17.9832E-3
3.80440E-3	150.521E-12	670.084E-3	-33.9446E-3	149.824E-12	630.180E-3	-7.98846E-3
3.79940E-3	149.689E-12	665.113E-3	-17.2993E-3	151.458E-12	635.402E-3	-8.88680E-3
3.79440E-3	149.286E-12	642.359E-3	11.0041E-3	149.722E-12	651.007E-3	-18.0542E-3
3.78939E-3	149.044E-12	633.568E-3	11.0023E-3	147.734E-12	653.851E-3	-17.0351E-3
3.78439E-3	150.549E-12	622.228E-3	10.7696E-3	148.167E-12	636.856E-3	-20.0013E-3
3.77939E-3	150.639E-12	627.986E-3	26.0762E-3	149.350E-12	613.832E-3	-4.17051E-3
3.77439E-3	150.097E-12	647.914E-3	33.2138E-3	148.346E-12	636.933E-3	4.64962E-3
3.76938E-3	149.243E-12	642.079E-3	11.3564E-3	147.139E-12	670.915E-3	-36.7082E-3
3.76438E-3	149.768E-12	635.586E-3	-11.9736E-3	147.252E-12	669.664E-3	-52.5576E-3
3.75938E-3	150.589E-12	628.510E-3	-5.20989E-3	148.435E-12	662.332E-3	-29.3294E-3
3.75438E-3	149.949E-12	612.386E-3	-3.22198E-3	148.891E-12	639.769E-3	-24.3344E-3
3.74937E-3	148.795E-12	647.555E-3	-8.13242E-3	148.688E-12	615.062E-3	-9.80965E-3
3.74437E-3	148.046E-12	695.929E-3	-3.18856E-3	148.951E-12	618.543E-3	-6.45890E-3
3.73937E-3	148.203E-12	701.996E-3	-4.85166E-3	148.915E-12	634.618E-3	-37.0558E-3
3.73437E-3	149.468E-12	688.319E-3	-29.9251E-3	149.561E-12	654.804E-3	-53.9021E-3
3.72936E-3	147.521E-12	655.835E-3	-50.0032E-3	149.855E-12	663.036E-3	-35.7662E-3
3.72436E-3	147.191E-12	644.574E-3	-37.5229E-3	149.814E-12	674.741E-3	-7.12535E-3
3.71936E-3	147.608E-12	661.735E-3	-5.57823E-3	150.107E-12	694.800E-3	-10.0559E-3
3.71436E-3	148.944E-12	658.306E-3	14.3789E-3	150.083E-12	681.886E-3	-14.3794E-3
3.70935E-3	148.736E-12	641.802E-3	24.7434E-3	149.347E-12	664.093E-3	-8.25886E-3
3.70435E-3	147.075E-12	624.708E-3	11.4611E-3	148.292E-12	665.825E-3	-26.1527E-3
3.69935E-3	146.388E-12	622.638E-3	-20.9384E-3	146.618E-12	659.814E-3	-33.7002E-3
3.69435E-3	146.012E-12	641.086E-3	-21.4985E-3	146.063E-12	643.680E-3	-23.3214E-3
3.68934E-3	146.553E-12	639.480E-3	-9.59226E-3	144.956E-12	630.034E-3	-25.0738E-3
3.68434E-3	145.879E-12	626.466E-3	-15.4216E-3	144.025E-12	630.202E-3	-23.1315E-3
3.67934E-3	144.892E-12	624.383E-3	-22.2085E-3	141.814E-12	637.886E-3	-16.6993E-3
3.67434E-3	144.014E-12	628.995E-3	-13.2710E-3	141.963E-12	641.755E-3	-15.4127E-3
3.66933E-3	143.759E-12	649.379E-3	-1.08894E-3	142.165E-12	634.124E-3	-16.6654E-3
3.66433E-3	143.286E-12	667.622E-3	46.7261E-6	142.562E-12	637.083E-3	-25.9577E-3
3.65933E-3	142.055E-12	666.563E-3	2.22461E-3	141.547E-12	659.354E-3	-27.7572E-3
3.65433E-3	141.336E-12	647.551E-3	7.27466E-3	143.059E-12	669.660E-3	-16.9474E-3
3.64932E-3	141.473E-12	624.150E-3	-2.34349E-3	144.405E-12	652.838E-3	-2.52791E-3
3.64432E-3	143.139E-12	622.999E-3	-10.2415E-3	145.667E-12	636.998E-3	9.06470E-3
3.63932E-3	144.158E-12	632.469E-3	4.87199E-3	145.597E-12	634.359E-3	3.12634E-3
3.63432E-3	142.980E-12	628.285E-3	18.8793E-3	144.876E-12	646.533E-3	-2.33944E-3
3.62931E-3	142.971E-12	641.507E-3	9.04125E-3	145.800E-12	659.040E-3	1.12810E-3
3.62431E-3	144.508E-12	661.518E-3	-9.80716E-3	146.099E-12	646.847E-3	5.45911E-3
3.61931E-3	146.700E-12	644.586E-3	-25.1030E-3	145.660E-12	644.411E-3	13.1074E-3
3.61431E-3	145.303E-12	631.725E-3	-39.6656E-3	143.608E-12	659.807E-3	-1.04314E-3
3.60930E-3	143.697E-12	648.623E-3	-45.2877E-3	141.863E-12	660.997E-3	-15.5384E-3
3.60430E-3	143.697E-12	659.175E-3	-29.5887E-3	140.816E-12	643.963E-3	-6.56391E-3
3.59930E-3	144.297E-12	642.606E-3	-4.91792E-3	139.907E-12	628.198E-3	3.15241E-3
3.59430E-3	143.485E-12	627.964E-3	2.87513E-3	138.504E-12	614.692E-3	4.48655E-3
3.58929E-3	141.775E-12	635.068E-3	2.02583E-3	136.075E-12	615.779E-3	-1.21459E-3
3.58429E-3	140.984E-12	634.778E-3	870.240E-6	135.391E-12	636.572E-3	-6.29802E-3
3.57929E-3	139.427E-12	626.670E-3	-49.2639E-6	135.116E-12	634.518E-3	-3.21120E-3
3.57429E-3	138.689E-12	625.101E-3	7.22798E-3	135.141E-12	616.798E-3	-1.74677E-3
3.56928E-3	138.212E-12	625.885E-3	16.0398E-3	134.859E-12	621.088E-3	-14.1319E-3
3.56428E-3	138.587E-12	643.256E-3	785.244E-6	135.398E-12	635.952E-3	-19.4405E-3
3.55928E-3	136.787E-12	643.149E-3	-40.9051E-3	136.667E-12	647.960E-3	-11.8119E-3
3.55428E-3	136.808E-12	616.518E-3	-55.4325E-3	138.091E-12	660.325E-3	-15.6365E-3
3.54927E-3	138.321E-12	613.873E-3	-36.5310E-3	138.891E-12	668.781E-3	-24.9891E-3
3.54427E-3	139.589E-12	631.323E-3	-14.3363E-3	139.227E-12	676.552E-3	-20.9704E-3
3.53927E-3	139.927E-12	645.599E-3	-6.35392E-3	140.150E-12	684.533E-3	-25.3073E-3
3.53427E-3	139.779E-12	640.795E-3	-24.5661E-3	141.297E-12	682.374E-3	-34.0434E-3
3.52926E-3	140.310E-12	628.424E-3	-41.4766E-3	141.460E-12	683.067E-3	-17.0864E-3
3.52426E-3	141.539E-12	629.110E-3	-37.5008E-3	139.925E-12	689.529E-3	5.26780E-3
3.51926E-3	142.154E-12	641.602E-3	-42.0602E-3	139.403E-12	671.335E-3	9.96074E-3
3.51426E-3	141.351E-12	671.472E-3	-39.8173E-3	139.107E-12	638.566E-3	-6.26225E-3
3.50925E-3	141.182E-12	679.587E-3	-8.49513E-3	138.905E-12	627.479E-3	-33.6499E-3
3.50425E-3	139.872E-12	659.401E-3	12.6110E-3	136.617E-12	630.692E-3	-43.5650E-3
3.49925E-3	139.282E-12	653.009E-3	3.13160E-3	135.477E-12	622.976E-3	-34.0369E-3
3.49425E-3	137.606E-12	650.219E-3	-29.1503E-3	133.893E-12	612.926E-3	-22.6994E-3
3.48924E-3	136.760E-12	659.396E-3	-43.3758E-3	134.932E-12	628.443E-3	-17.4281E-3
3.48424E-3	136.228E-12	671.133E-3	-21.2938E-3	134.114E-12	647.393E-3	-13.9970E-3
3.47924E-3	134.522E-12	653.742E-3	2.32583E-3	134.158E-12	647.628E-3	-2.15019E-3
3.47424E-3	133.685E-12	638.670E-3	6.07463E-3	133.653E-12	649.347E-3	227.303E-6
3.46923E-3	132.681E-12	643.123E-3	-3.54780E-3	135.196E-12	653.918E-3	-12.7853E-3
3.46423E-3	133.218E-12	651.390E-3	-13.8721E-3	135.710E-12	646.056E-3	-12.4322E-3
3.45923E-3	133.288E-12	645.337E-3	-24.3407E-3	135.630E-12	634.926E-3	5.19516E-3
3.45423E-3	133.791E-12	642.497E-3	-31.4674E-3	136.027E-12	638.301E-3	16.2938E-3
3.44922E-3	133.732E-12	652.993E-3	-27.4333E-3	135.660E-12	647.729E-3	-3.41711E-3
3.44422E-3	133.901E-12	653.938E-3	-20.1776E-3	136.944E-12	636.457E-3	-32.7460E-3
3.43922E-3	134.413E-12	657.696E-3	-14.3305E-3	136.966E-12	610.759E-3	-41.0872E-3
3.43422E-3	135.308E-12	665.598E-3	76.3545E-6	136.774E-12	599.633E-3	-45.8247E-3
3.42921E-3	135.788E-12	652.656E-3	-1.23305E-3	134.853E-12	609.627E-3	-55.2543E-3
3.42421E-3	135.798E-12	645.240E-3	-16.9239E-3	135.519E-12	632.926E-3	-45.7743E-3
3.41921E-3	135.609E-12	653.453E-3	-11.5490E-3	135.954E-12	645.010E-3	-20.9984E-3
3.41421E-3	134.445E-12	650.867E-3	-5.96515E-3	134.044E-12	648.007E-3	-10.7320E-3
3.40920E-3	134.248E-12	651.527E-3	-10.6742E-3	131.620E-12	657.126E-3	-11.4464E-3
3.40420E-3	133.455E-12	651.051E-3	-20.0822E-3	131.783E-12	666.479E-3	-16.1013E-3
3.39920E-3	133.485E-12	640.076E-3	-32.8676E-3	133.257E-12	664.945E-3	-22.9048E-3
3.39420E-3	132.532E-12	634.164E-3	-31.4878E-3	132.793E-12	653.170E-3	-25.0397E-3
3.38919E-3	131.518E-12	652.099E-3	-28.7008E-3	131.451E-12	634.890E-3	-24.1888E-3
3.38419E-3	130.223E-12	671.432E-3	-46.4776E-3	131.943E-12	629.557E-3	-9.96579E-3
3.37919E-3	130.695E-12	667.556E-3	-59.5166E-3	133.856E-12	638.000E-3	17.1165E-3
3.37419E-3	130.476E-12	657.076E-3	-46.1329E-3	133.469E-12	642.160E-3	16.1700E-3
3.36918E-3	129.671E-12	649.126E-3	-26.6158E-3	133.032E-12	643.140E-3	-14.5521E-3
3.36418E-3	129.435E-12	655.954E-3	-29.2504E-3	132.172E-12	641.168E-3	-24.8379E-3
3.35918E-3	129.471E-12	660.739E-3	-26.0242E-3	132.898E-12	651.587E-3	-14.7420E-3
3.35418E-3	130.260E-12	645.143E-3	-12.9185E-3	132.673E-12	655.899E-3	-10.8385E-3
3.34917E-3	130.041E-12	652.788E-3	-19.3195E-3	132.149E-12	644.775E-3	-9.34954E-3
3.34417E-3	129.796E-12	673.407E-3	-17.4977E-3	131.709E-12	647.829E-3	-6.98348E-3
3.33917E-3	130.116E-12	663.082E-3	-2.11452E-3	130.799E-12	662.553E-3	-19.9127E-3
3.33417E-3	130.206E-12	653.739E-3	-2.19407E-3	130.033E-12	665.561E-3	-27.4763E-3
3.32916E-3	130.393E-12	656.359E-3	-14.6718E-3	130.208E-12	664.091E-3	-14.6604E-3
3.32416E-3	129.596E-12	642.064E-3	-17.0977E-3	130.644E-12	656.086E-3	-1.88020E-3
3.31916E-3	129.767E-12	620.370E-3	-7.00510E-3	129.395E-12	631.939E-3	-9.21239E-3
3.31416E-3	129.647E-12	625.452E-3	-5.55528E-3	129.255E-12	613.293E-3	-31.4994E-3
3.30915E-3	129.465E-12	648.839E-3	-21.5351E-3	129.982E-12	622.235E-3	-41.3325E-3
3.30415E-3	128.637E-12	653.145E-3	-26.6194E-3	130.743E-12	659.150E-3	-36.8658E-3
3.29915E-3	127.980E-12	653.992E-3	-5.39182E-3	129.493E-12	689.650E-3	-46.5807E-3
3.29415E-3	128.941E-12	651.771E-3	18.4921E-3	128.766E-12	685.863E-3	-58.4033E-3
3.28914E-3	128.629E-12	631.302E-3	16.0530E-3	129.614E-12	668.555E-3	-36.9591E-3
3.28414E-3	127.839E-12	628.999E-3	-3.08667E-3	130.362E-12	643.409E-3	-11.4801E-3
3.27914E-3	127.542E-12	648.962E-3	-17.0692E-3	130.116E-12	625.833E-3	-10.9631E-3
3.27414E-3	128.749E-12	658.886E-3	-29.3442E-3	128.245E-12	632.542E-3	-16.6972E-3
3.26913E-3	127.908E-12	661.412E-3	-36.2567E-3	128.257E-12	650.556E-3	-11.9729E-3
3.26413E-3	126.641E-12	659.518E-3	-26.5597E-3	128.076E-12	668.755E-3	-16.1302E-3
3.25913E-3	126.140E-12	652.021E-3	-16.1470E-3	127.856E-12	647.601E-3	-22.0028E-3
3.25413E-3	125.978E-12	655.441E-3	-13.2144E-3	125.817E-12	603.979E-3	-15.2896E-3
3.24912E-3	126.030E-12	659.075E-3	-11.1370E-3	125.547E-12	607.762E-3	-19.0630E-3
3.24412E-3	124.536E-12	653.972E-3	-16.8660E-3	125.245E-12	647.044E-3	-25.4649E-3
3.23912E-3	124.360E-12	660.123E-3	-20.7639E-3	125.162E-12	673.531E-3	-26.2824E-3
3.23412E-3	123.777E-12	667.227E-3	-9.62177E-3	124.926E-12	688.732E-3	-27.1209E-3
3.22911E-3	124.031E-12	660.852E-3	3.58949E-3	124.816E-12	681.626E-3	-21.6786E-3
3.22411E-3	123.940E-12	660.056E-3	-3.74778E-3	125.178E-12	647.019E-3	-16.0430E-3
3.21911E-3	123.369E-12	667.903E-3	-11.1680E-3	126.094E-12	638.600E-3	-18.0670E-3
3.21411E-3	123.417E-12	669.196E-3	-8.66548E-3	126.637E-12	657.510E-3	-14.6226E-3
3.20910E-3	124.022E-12	656.977E-3	-12.3540E-3	126.759E-12	675.934E-3	-15.1075E-3
3.20410E-3	124.926E-12	641.057E-3	-17.8987E-3	126.774E-12	693.875E-3	-25.6625E-3
3.19910E-3	125.077E-12	634.584E-3	-37.8971E-3	126.420E-12	698.539E-3	-42.0407E-3
3.19410E-3	125.472E-12	632.626E-3	-45.3790E-3	125.773E-12	679.863E-3	-54.6174E-3
3.18909E-3	125.176E-12	636.512E-3	-17.8232E-3	125.889E-12	662.417E-3	-47.0629E-3
3.18409E-3	126.157E-12	652.764E-3	1.20561E-3	125.562E-12	667.654E-3	-28.0728E-3
3.17909E-3	126.003E-12	669.034E-3	-6.38967E-3	123.123E-12	663.688E-3	-9.09836E-3
3.17409E-3	125.389E-12	671.342E-3	-11.8461E-3	122.220E-12	646.591E-3	-7.98494E-3
3.16908E-3	124.351E-12	671.751E-3	-12.1633E-3	122.599E-12	640.841E-3	-20.3217E-3
3.16408E-3	123.162E-12	682.598E-3	-30.1650E-3	121.561E-12	638.542E-3	-26.9148E-3
3.15908E-3	121.591E-12	689.999E-3	-44.0468E-3	119.904E-12	641.618E-3	-24.7890E-3
3.15408E-3	121.261E-12	674.011E-3	-29.6523E-3	119.764E-12	646.897E-3	-17.8098E-3
3.14907E-3	120.333E-12	644.346E-3	-17.5959E-3	119.733E-12	639.921E-3	-19.0841E-3
3.14407E-3	119.503E-12	619.936E-3	-20.4276E-3	120.235E-12	633.875E-3	-29.9660E-3
3.13907E-3	118.998E-12	617.364E-3	-11.3479E-3	120.064E-12	635.231E-3	-39.5771E-3
3.13407E-3	118.944E-12	637.957E-3	-17.2411E-3	120.827E-12	642.775E-3	-31.2150E-3
3.12906E-3	119.272E-12	649.458E-3	-35.5970E-3	122.191E-12	654.096E-3	-16.0396E-3
3.12406E-3	119.931E-12	644.555E-3	-21.8396E-3	123.034E-12	650.283E-3	-22.6920E-3
3.11906E-3	119.777E-12	649.648E-3	-155.632E-6	123.370E-12	650.661E-3	-33.0377E-3
3.11406E-3	119.518E-12	663.141E-3	2.52706E-3	123.198E-12	670.407E-3	-31.6587E-3
3.10905E-3	120.862E-12	656.899E-3	7.62352E-3	123.414E-12	672.744E-3	-43.3048E-3
3.10405E-3	122.194E-12	651.996E-3	12.8239E-3	122.361E-12	660.440E-3	-49.3696E-3
3.09905E-3	122.078E-12	658.948E-3	13.1637E-3	121.903E-12	655.962E-3	-23.8796E-3
3.09405E-3	121.993E-12	663.584E-3	8.04371E-3	121.467E-12	651.326E-3	-2.29509E-3
3.08904E-3	122.173E-12	661.768E-3	-16.4996E-3	119.856E-12	647.724E-3	-7.08095E-3
3.08404E-3	122.430E-12	665.126E-3	-29.1142E-3	118.095E-12	654.368E-3	-16.0323E-3
3.07904E-3	122.292E-12	668.362E-3	-22.4065E-3	117.299E-12	655.806E-3	-18.4444E-3
3.07404E-3	120.529E-12	655.993E-3	-21.2145E-3	116.482E-12	645.742E-3	-22.0153E-3
3.06903E-3	118.824E-12	653.880E-3	-19.9605E-3	115.180E-12	638.394E-3	-12.6589E-3
3.06403E-3	118.140E-12	655.576E-3	-10.5965E-3	114.632E-12	638.284E-3	6.89818E-3
3.05903E-3	117.812E-12	667.339E-3	592.582E-6	114.078E-12	642.892E-3	8.72991E-3
3.05403E-3	116.210E-12	684.762E-3	6.82008E-3	114.448E-12	653.131E-3	5.09495E-3
3.04902E-3	114.847E-12	672.002E-3	15.0942E-3	114.271E-12	663.376E-3	3.21806E-3
3.04402E-3	114.963E-12	644.893E-3	3.53540E-3	115.690E-12	664.551E-3	-10.4085E-3
3.03902E-3	115.166E-12	641.537E-3	-37.1256E-3	117.121E-12	661.693E-3	-16.0741E-3
3.03402E-3	115.198E-12	658.121E-3	-54.3624E-3	117.285E-12	672.387E-3	-5.22235E-3
3.02901E-3	114.307E-12	648.716E-3	-46.3945E-3	118.074E-12	683.249E-3	-7.51399E-3
3.02401E-3	114.658E-12	625.637E-3	-49.6293E-3	118.285E-12	682.785E-3	-9.53345E-3
3.01901E-3	115.587E-12	621.086E-3	-39.9921E-3	119.646E-12	697.551E-3	-15.1984E-3
3.01401E-3	116.322E-12	622.322E-3	-15.9803E-3	118.910E-12	710.353E-3	-35.1559E-3
3.00900E-3	116.330E-12	635.698E-3	-11.0236E-3	118.295E-12	689.115E-3	-26.7627E-3
3.00400E-3	116.691E-12	658.283E-3	-17.1905E-3	117.211E-12	647.107E-3	-7.90181E-3
2.99900E-3	117.316E-12	652.099E-3	-21.1311E-3	116.872E-12	621.922E-3	-13.3760E-3
2.99400E-3	117.772E-12	643.709E-3	-21.8879E-3	115.578E-12	625.109E-3	-20.8464E-3
2.98899E-3	117.132E-12	652.803E-3	-19.1863E-3	113.894E-12	647.386E-3	-16.4071E-3
2.98399E-3	116.464E-12	654.392E-3	-16.4969E-3	112.967E-12	673.089E-3	-4.03694E-3
2.97899E-3	115.945E-12	659.885E-3	-26.0112E-3	112.337E-12	670.527E-3	7.28423E-3
2.97399E-3	115.954E-12	672.359E-3	-35.7529E-3	111.620E-12	660.760E-3	10.6648E-3
2.96898E-3	116.060E-12	673.260E-3	-26.8405E-3	111.408E-12	663.131E-3	6.11118E-3
2.96398E-3	114.290E-12	657.014E-3	-21.3572E-3	111.461E-12	646.077E-3	-10.8999E-3
2.95898E-3	113.271E-12	646.685E-3	-21.4152E-3	112.123E-12	631.386E-3	-29.5675E-3
2.95398E-3	112.939E-12	647.879E-3	-9.34704E-3	112.108E-12	648.096E-3	-36.3949E-3
2.94897E-3	113.412E-12	646.839E-3	-2.31826E-3	112.232E-12	671.135E-3	-31.1905E-3
2.94397E-3	111.932E-12	649.420E-3	-12.8488E-3	113.097E-12	677.830E-3	-24.4156E-3
2.93897E-3	111.482E-12	645.263E-3	-22.1741E-3	115.145E-12	676.010E-3	-34.4312E-3
2.93397E-3	111.707E-12	627.944E-3	-15.9954E-3	114.620E-12	674.232E-3	-46.7700E-3
2.92896E-3	112.446E-12	633.610E-3	-7.14622E-3	114.126E-12	672.594E-3	-45.1807E-3
2.92396E-3	112.469E-12	641.298E-3	-1.65239E-3	114.616E-12	671.462E-3	-41.4922E-3
2.91896E-3	111.955E-12	634.145E-3	-4.28341E-3	115.315E-12	672.158E-3	-34.9581E-3
2.91396E-3	111.583E-12	648.041E-3	-8.81854E-3	114.575E-12	667.456E-3	-29.1463E-3
2.90895E-3	111.191E-12	661.181E-3	4.42974E-3	112.920E-12	665.651E-3	-25.2647E-3
2.90395E-3	111.618E-12	663.990E-3	8.93958E-3	112.836E-12	668.730E-3	-25.8385E-3
2.89895E-3	111.200E-12	683.509E-3	-4.42615E-3	111.146E-12	647.435E-3	-27.1202E-3
2.89395E-3	110.647E-12	689.319E-3	-18.4222E-3	111.117E-12	631.370E-3	-21.8418E-3
2.88894E-3	111.129E-12	676.420E-3	-19.5858E-3	110.340E-12	645.545E-3	-26.8810E-3
2.88394E-3	111.640E-12	674.408E-3	339.390E-6	109.726E-12	654.039E-3	-28.0865E-3
2.87894E-3	111.360E-12	675.364E-3	15.5859E-3	109.252E-12	642.180E-3	-16.2856E-3
2.87394E-3	111.005E-12	671.772E-3	-252.843E-6	109.679E-12	621.162E-3	-16.0132E-3
2.86893E-3	110.188E-12	665.899E-3	-18.6229E-3	108.600E-12	631.903E-3	-5.74988E-3
2.86393E-3	109.522E-12	655.149E-3	-7.42132E-3	108.190E-12	666.464E-3	7.55776E-3
2.85893E-3	109.985E-12	645.211E-3	-248.448E-6	108.677E-12	659.632E-3	-987.226E-6
2.85393E-3	110.139E-12	659.890E-3	-5.02080E-3	108.716E-12	637.502E-3	-9.84477E-3
2.84892E-3	108.870E-12	682.499E-3	-7.52152E-3	108.648E-12	656.082E-3	-13.7460E-3
2.84392E-3	108.104E-12	678.962E-3	-10.9763E-3	107.788E-12	672.161E-3	-15.5362E-3
2.83892E-3	108.039E-12	667.298E-3	-19.7370E-3	107.923E-12	650.150E-3	-15.5220E-3
2.83392E-3	107.828E-12	660.277E-3	-14.7245E-3	108.217E-12	646.492E-3	-14.8473E-3
2.82891E-3	107.034E-12	657.546E-3	6.33111E-3	108.318E-12	668.962E-3	-19.3961E-3
2.82391E-3	106.397E-12	668.633E-3	3.27230E-3	108.054E-12	681.246E-3	-30.8029E-3
2.81891E-3	106.042E-12	669.625E-3	-14.4877E-3	107.041E-12	683.902E-3	-25.6206E-3
2.81391E-3	105.804E-12	654.959E-3	-22.8873E-3	107.041E-12	676.535E-3	-18.0332E-3
2.80890E-3	106.008E-12	648.693E-3	-22.0906E-3	107.537E-12	664.626E-3	-26.9309E-3
2.80390E-3	105.704E-12	652.320E-3	-10.9514E-3	108.148E-12	669.190E-3	-28.9707E-3
2.79890E-3	105.532E-12	655.429E-3	-4.71417E-3	106.305E-12	696.189E-3	-30.5744E-3
2.79390E-3	106.494E-12	644.588E-3	-14.5626E-3	106.371E-12	702.109E-3	-30.3034E-3
2.78889E-3	106.876E-12	638.261E-3	-20.7376E-3	107.274E-12	672.858E-3	-3.26529E-3
2.78389E-3	105.869E-12	646.071E-3	-16.9899E-3	107.336E-12	661.559E-3	9.31213E-3
2.77889E-3	106.416E-12	659.384E-3	-20.6068E-3	106.041E-12	658.900E-3	-4.81178E-3
2.77389E-3	107.165E-12	694.801E-3	-25.1366E-3	106.215E-12	641.555E-3	-5.48748E-3
2.76888E-3	107.296E-12	719.970E-3	-21.6071E-3	106.954E-12	650.554E-3	-5.69842E-3
2.76388E-3	106.657E-12	694.896E-3	-2.33572E-3	106.637E-12	665.576E-3	-13.3222E-3
2.75888E-3	106.718E-12	668.156E-3	11.8110E-3	105.366E-12	658.174E-3	-10.0739E-3
2.75388E-3	107.315E-12	667.421E-3	-7.87549E-3	104.270E-12	643.896E-3	-3.31598E-3
2.74887E-3	107.173E-12	675.425E-3	-33.9735E-3	103.440E-12	622.497E-3	-1.73170E-3
2.74387E-3	106.093E-12	685.279E-3	-35.7431E-3	102.922E-12	626.106E-3	-1.18313E-3
2.73887E-3	104.685E-12	686.427E-3	-19.9498E-3	102.203E-12	656.041E-3	-4.53569E-3
2.73387E-3	104.077E-12	681.107E-3	-565.621E-6	100.966E-12	658.342E-3	-1.83612E-3
2.72886E-3	103.492E-12	672.400E-3	9.15281E-3	101.040E-12	643.102E-3	6.05599E-3
2.72386E-3	103.349E-12	653.177E-3	1.03024E-3	101.659E-12	654.142E-3	-3.38113E-3
2.71886E-3	101.327E-12	648.061E-3	-16.6370E-3	101.685E-12	687.926E-3	-21.3878E-3
2.71386E-3	100.970E-12	660.447E-3	-29.5767E-3	102.001E-12	706.270E-3	-26.3890E-3
2.70885E-3	101.600E-12	662.249E-3	-27.4813E-3	102.019E-12	699.938E-3	-23.3435E-3
2.70385E-3	101.987E-12	658.502E-3	-21.9122E-3	102.901E-12	694.950E-3	-23.1508E-3
2.69885E-3	101.353E-12	657.654E-3	-25.4683E-3	104.063E-12	693.138E-3	-19.4982E-3
2.69385E-3	100.918E-12	657.192E-3	-30.4740E-3	104.917E-12	700.307E-3	-10.4747E-3
2.68884E-3	101.748E-12	661.420E-3	-30.6317E-3	104.624E-12	714.726E-3	-19.5409E-3
2.68384E-3	103.420E-12	664.119E-3	-26.4772E-3	104.406E-12	702.976E-3	-38.1692E-3
2.67884E-3	103.060E-12	670.755E-3	-18.6033E-3	104.773E-12	679.544E-3	-35.6218E-3
2.67384E-3	102.657E-12	686.941E-3	-9.36290E-3	104.160E-12	663.488E-3	-39.1780E-3
2.66883E-3	102.503E-12	695.803E-3	-990.854E-6	103.053E-12	654.771E-3	-43.6994E-3
2.66383E-3	103.788E-12	687.758E-3	-1.84814E-3	101.746E-12	666.314E-3	-26.7011E-3
2.65883E-3	102.904E-12	684.794E-3	-2.68577E-3	100.753E-12	678.120E-3	-20.1455E-3
2.65383E-3	101.327E-12	698.712E-3	-4.17261E-3	99.5369E-12	672.206E-3	-23.3470E-3
2.64882E-3	100.561E-12	710.034E-3	-7.79789E-3	98.4634E-12	658.306E-3	-19.1906E-3
2.64382E-3	100.447E-12	695.405E-3	-5.37433E-3	96.9646E-12	650.958E-3	-14.2180E-3
2.63882E-3	99.7348E-12	661.321E-3	-2.53419E-3	96.5993E-12	651.145E-3	-13.4310E-3
2.63382E-3	98.3246E-12	651.387E-3	-8.79841E-3	96.7499E-12	658.035E-3	-12.4874E-3
2.62881E-3	97.5003E-12	671.555E-3	-23.9254E-3	95.9168E-12	680.052E-3	-8.69169E-3
2.62381E-3	97.1369E-12	689.980E-3	-35.6979E-3	95.9923E-12	688.212E-3	-2.21908E-3
2.61881E-3	96.9475E-12	682.390E-3	-37.6545E-3	95.9801E-12	675.752E-3	447.388E-6
2.61381E-3	96.2624E-12	656.104E-3	-31.2229E-3	96.9830E-12	686.143E-3	-11.1668E-3
2.60880E-3	95.9745E-12	651.818E-3	-20.6502E-3	97.3081E-12	705.146E-3	-29.5100E-3
2.60380E-3	96.5051E-12	685.984E-3	-1.42965E-3	98.1956E-12	707.091E-3	-29.9718E-3
2.59880E-3	96.7475E-12	708.976E-3	8.46915E-3	98.7600E-12	705.100E-3	-9.42630E-3
2.59380E-3	97.1800E-12	685.837E-3	-4.29869E-3	99.5855E-12	698.559E-3	-1.34925E-3
2.58879E-3	96.9301E-12	657.636E-3	-8.94165E-3	99.2771E-12	692.549E-3	-3.77423E-3
2.58379E-3	97.2674E-12	650.071E-3	4.82199E-3	98.7847E-12	688.582E-3	-9.88150E-3
2.57879E-3	96.8057E-12	648.479E-3	16.6845E-3	99.0769E-12	667.941E-3	-13.4794E-3
2.57379E-3	97.5911E-12	662.567E-3	14.2404E-3	99.2321E-12	647.338E-3	3.08528E-3
2.56878E-3	97.6586E-12	691.496E-3	762.643E-6	97.6852E-12	647.533E-3	10.9415E-3
2.56378E-3	97.0869E-12	705.050E-3	-9.05253E-3	96.1866E-12	655.544E-3	-3.67027E-3
2.55878E-3	96.5365E-12	696.505E-3	-20.0079E-3	95.4505E-12	661.544E-3	-14.4426E-3
2.55378E-3	96.3885E-12	675.728E-3	-22.9220E-3	94.9785E-12	665.477E-3	-15.3309E-3
2.54877E-3	96.1272E-12	661.808E-3	-8.21590E-3	93.8294E-12	672.074E-3	-16.6539E-3
2.54377E-3	95.4369E-12	665.868E-3	-5.89150E-3	92.8812E-12	672.672E-3	-19.4052E-3
2.53877E-3	94.4644E-12	672.736E-3	-8.95227E-3	92.2228E-12	666.460E-3	-11.4789E-3
2.53377E-3	93.8361E-12	674.910E-3	-6.82561E-3	92.7865E-12	664.439E-3	-3.98024E-3
2.52876E-3	93.8866E-12	674.499E-3	-18.0716E-3	93.1328E-12	665.384E-3	-11.4691E-3
2.52376E-3	93.1362E-12	670.993E-3	-26.6114E-3	93.1297E-12	680.694E-3	-23.2290E-3
2.51876E-3	92.8138E-12	669.843E-3	-30.5742E-3	92.8942E-12	699.951E-3	-31.4190E-3
2.51376E-3	92.6493E-12	679.088E-3	-32.9512E-3	93.8372E-12	705.183E-3	-24.5209E-3
2.50875E-3	92.2916E-12	694.218E-3	-24.0449E-3	94.3373E-12	713.147E-3	-16.3761E-3
2.50375E-3	92.0155E-12	701.254E-3	-24.1991E-3	94.6427E-12	708.871E-3	-29.1505E-3
2.49875E-3	91.5718E-12	687.824E-3	-30.9567E-3	95.1345E-12	692.823E-3	-37.1894E-3
2.49375E-3	91.8696E-12	672.727E-3	-30.3086E-3	95.1813E-12	695.576E-3	-24.9456E-3
2.48874E-3	91.8833E-12	676.914E-3	-42.5534E-3	94.3998E-12	694.143E-3	-16.1348E-3
2.48374E-3	91.9122E-12	684.833E-3	-48.9286E-3	93.9518E-12	685.125E-3	-5.00598E-3
2.47874E-3	91.7611E-12	685.947E-3	-27.0210E-3	93.6294E-12	681.697E-3	9.12175E-3
2.47374E-3	92.0148E-12	684.622E-3	-8.08606E-3	92.7964E-12	674.782E-3	8.54941E-3
2.46873E-3	91.5848E-12	682.191E-3	-4.79630E-3	91.9666E-12	667.098E-3	-10.5020E-3
2.46373E-3	91.5556E-12	687.917E-3	-10.9403E-3	90.9279E-12	680.244E-3	-29.1048E-3
2.45873E-3	91.6726E-12	692.499E-3	-20.3060E-3	90.9698E-12	705.584E-3	-29.5172E-3
2.45373E-3	91.6798E-12	686.771E-3	-32.7478E-3	90.3996E-12	706.192E-3	-25.2803E-3
2.44872E-3	90.7794E-12	694.197E-3	-38.9220E-3	89.6322E-12	696.384E-3	-27.0387E-3
2.44372E-3	90.5863E-12	697.508E-3	-25.7738E-3	89.5424E-12	693.191E-3	-24.4647E-3
2.43872E-3	90.1538E-12	694.385E-3	-21.4098E-3	89.3334E-12	690.115E-3	-11.8450E-3
2.43372E-3	89.8088E-12	706.137E-3	-28.3301E-3	89.3794E-12	694.197E-3	2.41087E-3
2.42871E-3	89.9870E-12	697.287E-3	-9.14377E-3	89.0347E-12	709.771E-3	7.68911E-3
2.42371E-3	89.0931E-12	677.299E-3	13.1201E-3	89.2599E-12	720.337E-3	-8.98484E-3
2.41871E-3	89.0108E-12	689.593E-3	3.18504E-3	89.0348E-12	711.473E-3	-18.2715E-3
2.41371E-3	88.7810E-12	705.883E-3	-29.7396E-3	89.1899E-12	704.276E-3	-7.56308E-3
2.40870E-3	88.4654E-12	697.750E-3	-55.4085E-3	88.7539E-12	704.530E-3	-7.25733E-3
2.40370E-3	87.5339E-12	689.704E-3	-36.4069E-3	88.9672E-12	694.878E-3	-8.74811E-3
2.39870E-3	87.1035E-12	693.105E-3	-385.306E-6	88.2716E-12	694.377E-3	-17.3049E-3
2.39370E-3	87.3519E-12	694.668E-3	-3.98563E-3	88.0529E-12	705.251E-3	-23.5186E-3
2.38869E-3	86.9540E-12	692.694E-3	-27.0571E-3	86.9809E-12	703.210E-3	-12.6118E-3
2.38369E-3	87.3311E-12	683.823E-3	-28.7859E-3	86.8949E-12	693.496E-3	-12.9122E-3
2.37869E-3	87.3136E-12	669.620E-3	-13.3367E-3	86.5346E-12	680.523E-3	-24.4300E-3
2.37369E-3	87.7625E-12	677.678E-3	660.845E-6	86.3937E-12	672.280E-3	-34.0380E-3
2.36868E-3	87.6731E-12	700.534E-3	-1.31397E-3	85.5829E-12	683.627E-3	-39.3371E-3
2.36368E-3	87.7344E-12	705.070E-3	-12.4933E-3	85.5708E-12	686.034E-3	-36.8257E-3
2.35868E-3	87.6486E-12	692.253E-3	-19.8076E-3	85.6027E-12	679.584E-3	-25.0130E-3
2.35368E-3	87.1825E-12	686.522E-3	-18.3279E-3	85.6741E-12	685.780E-3	-5.00347E-3
2.34867E-3	87.3978E-12	696.134E-3	-20.4466E-3	85.4457E-12	684.560E-3	18.2404E-3
2.34367E-3	87.5115E-12	702.448E-3	-22.8466E-3	85.4094E-12	676.970E-3	26.5065E-3
2.33867E-3	87.4562E-12	712.096E-3	-20.0783E-3	85.2582E-12	686.005E-3	15.5957E-3
2.33367E-3	87.1340E-12	714.257E-3	-17.4196E-3	85.0450E-12	701.499E-3	636.919E-6
2.32866E-3	86.4877E-12	694.490E-3	-13.7999E-3	85.0503E-12	701.469E-3	-5.56547E-3
2.32366E-3	85.6908E-12	689.534E-3	-12.4787E-3	84.5625E-12	703.342E-3	-11.6931E-3
2.31866E-3	84.9587E-12	705.837E-3	-13.9930E-3	83.8114E-12	707.058E-3	-20.8007E-3
2.31366E-3	84.8138E-12	715.470E-3	-22.8809E-3	83.2168E-12	699.315E-3	-13.2262E-3
2.30865E-3	83.6104E-12	712.105E-3	-24.9368E-3	82.8131E-12	698.203E-3	23.0190E-6
2.30365E-3	83.0151E-12	704.393E-3	-17.9222E-3	82.5251E-12	698.791E-3	-4.84184E-3
2.29865E-3	82.5952E-12	694.885E-3	-17.1598E-3	81.8914E-12	694.956E-3	-16.1414E-3
2.29365E-3	82.3106E-12	687.852E-3	-16.7741E-3	81.3959E-12	702.965E-3	-17.4705E-3
2.28864E-3	82.0571E-12	690.048E-3	-21.8168E-3	81.3718E-12	714.003E-3	-25.1136E-3
2.28364E-3	82.5853E-12	694.187E-3	-29.2691E-3	81.6273E-12	711.008E-3	-24.8167E-3
2.27864E-3	82.8492E-12	694.346E-3	-14.6181E-3	81.5816E-12	715.522E-3	-4.04880E-3
2.27364E-3	82.3585E-12	689.487E-3	4.11365E-3	81.5125E-12	723.909E-3	4.17917E-3
2.26863E-3	81.9306E-12	679.895E-3	-6.06428E-3	81.6930E-12	709.779E-3	-3.44561E-3
2.26363E-3	82.1603E-12	686.466E-3	-29.8795E-3	82.4990E-12	697.006E-3	-14.6082E-3
2.25863E-3	82.6073E-12	700.750E-3	-27.4507E-3	82.7760E-12	702.354E-3	-23.3169E-3
2.25363E-3	83.1133E-12	695.397E-3	-4.63409E-3	82.5015E-12	708.015E-3	-29.2230E-3
2.24862E-3	83.0466E-12	706.727E-3	-4.40714E-3	82.1892E-12	706.930E-3	-35.8892E-3
2.24362E-3	83.2071E-12	736.853E-3	-13.2900E-3	82.1068E-12	706.993E-3	-44.1198E-3
2.23862E-3	83.2255E-12	740.479E-3	-12.4210E-3	81.6526E-12	700.737E-3	-55.0201E-3
2.23362E-3	82.6036E-12	736.967E-3	-4.79735E-3	81.0542E-12	689.451E-3	-47.4108E-3
2.22861E-3	81.6781E-12	740.192E-3	4.62433E-3	80.7878E-12	689.055E-3	-19.8879E-3
2.22361E-3	80.9061E-12	731.227E-3	1.46973E-3	80.1318E-12	691.670E-3	-5.27532E-3
2.21861E-3	80.3878E-12	725.880E-3	-10.1762E-3	79.1222E-12	697.626E-3	6.30567E-3
2.21361E-3	79.3889E-12	728.184E-3	-21.1494E-3	78.6876E-12	698.947E-3	17.9573E-3
2.20860E-3	78.7917E-12	719.810E-3	-25.5269E-3	78.5934E-12	687.247E-3	997.384E-6
2.20360E-3	77.8393E-12	710.604E-3	-24.7180E-3	77.6448E-12	693.202E-3	-17.6677E-3
2.19860E-3	77.8240E-12	706.945E-3	-23.7934E-3	77.1383E-12	711.298E-3	-14.3282E-3
2.19360E-3	77.8005E-12	707.032E-3	-16.2753E-3	77.2770E-12	709.334E-3	-19.9062E-3
2.18859E-3	76.6773E-12	710.410E-3	-12.8096E-3	77.8959E-12	698.250E-3	-35.1325E-3
2.18359E-3	76.2610E-12	709.885E-3	-22.8029E-3	77.6065E-12	706.185E-3	-32.8805E-3
2.17859E-3	76.3263E-12	694.738E-3	-20.6483E-3	77.7585E-12	721.544E-3	-15.8962E-3
2.17359E-3	76.7955E-12	675.120E-3	-11.9963E-3	78.1244E-12	722.100E-3	-9.31889E-3
2.16858E-3	76.7428E-12	673.710E-3	-8.71421E-3	78.5427E-12	723.464E-3	-13.7314E-3
2.16358E-3	77.0227E-12	694.584E-3	-9.98195E-3	78.4247E-12	728.756E-3	-11.4425E-3
2.15858E-3	77.0914E-12	726.109E-3	-17.3816E-3	77.4485E-12	726.942E-3	-16.6588E-3
2.15358E-3	77.4870E-12	732.193E-3	-28.6011E-3	77.3144E-12	727.479E-3	-27.6873E-3
2.14857E-3	77.6761E-12	722.966E-3	-28.7531E-3	77.5801E-12	726.967E-3	-17.3030E-3
2.14357E-3	77.5810E-12	730.185E-3	-5.59597E-3	76.6985E-12	726.356E-3	3.39672E-3
2.13857E-3	77.1748E-12	731.990E-3	6.60274E-3	75.6186E-12	733.563E-3	11.5400E-3
2.13357E-3	76.5753E-12	730.873E-3	-5.10339E-3	75.1700E-12	731.903E-3	8.59882E-3
2.12856E-3	76.8500E-12	732.508E-3	-25.2617E-3	75.3159E-12	712.624E-3	-3.40172E-3
2.12356E-3	76.6754E-12	730.728E-3	-31.7690E-3	74.6780E-12	703.103E-3	-17.8767E-3
2.11856E-3	75.4405E-12	733.216E-3	-9.72462E-3	73.4748E-12	715.947E-3	-25.8499E-3
2.11356E-3	74.8717E-12	731.310E-3	8.75120E-3	73.0565E-12	724.472E-3	-22.8513E-3
2.10855E-3	74.2889E-12	733.875E-3	4.29848E-3	73.0593E-12	727.893E-3	-16.4569E-3
2.10355E-3	74.1832E-12	736.133E-3	-2.02459E-3	73.1509E-12	736.821E-3	-15.0094E-3
2.09855E-3	73.4043E-12	726.178E-3	-5.83792E-3	73.2995E-12	734.230E-3	-9.20784E-3
2.09355E-3	72.7685E-12	724.513E-3	-7.57976E-3	73.4248E-12	737.603E-3	-3.35352E-3
2.08854E-3	72.2590E-12	726.192E-3	-3.63123E-3	73.8638E-12	757.727E-3	-13.9687E-3
2.08354E-3	72.2106E-12	719.583E-3	-15.1669E-3	74.5157E-12	764.567E-3	-26.2050E-3
2.07854E-3	71.8139E-12	723.723E-3	-36.2238E-3	74.5200E-12	770.337E-3	-18.3433E-3
2.07354E-3	71.8199E-12	725.812E-3	-36.7401E-3	74.7277E-12	780.339E-3	-14.7650E-3
2.06853E-3	71.8824E-12	711.004E-3	-23.5840E-3	74.2637E-12	769.095E-3	-20.6596E-3
2.06353E-3	72.0142E-12	713.950E-3	-17.1571E-3	73.9943E-12	762.323E-3	-16.1440E-3
2.05853E-3	71.8164E-12	733.119E-3	-2.21691E-3	73.7214E-12	764.699E-3	-19.7005E-3
2.05353E-3	71.9168E-12	743.301E-3	14.9300E-3	73.1981E-12	746.988E-3	-33.6470E-3
2.04852E-3	71.9035E-12	746.186E-3	404.410E-6	72.1892E-12	738.858E-3	-30.9554E-3
2.04352E-3	71.7266E-12	748.085E-3	-11.5213E-3	71.5462E-12	751.835E-3	-21.9561E-3
2.03852E-3	72.0886E-12	751.610E-3	1.45899E-3	70.6455E-12	749.782E-3	-26.3097E-3
2.03352E-3	71.9298E-12	750.302E-3	-7.57083E-3	70.2005E-12	735.135E-3	-26.1170E-3
2.02851E-3	71.5085E-12	746.081E-3	-20.5138E-3	69.7439E-12	736.828E-3	-17.4074E-3
2.02351E-3	71.1694E-12	741.944E-3	-4.35851E-3	69.0397E-12	745.133E-3	-10.1556E-3
2.01851E-3	71.0220E-12	750.642E-3	121.608E-6	68.6951E-12	744.178E-3	1.86748E-3
2.01351E-3	70.8528E-12	774.655E-3	-10.0582E-3	68.4938E-12	744.803E-3	9.15911E-3
2.00850E-3	70.3166E-12	791.911E-3	-17.0962E-3	68.6086E-12	749.597E-3	-812.683E-6
2.00350E-3	69.7059E-12	794.515E-3	-28.9539E-3	68.7859E-12	749.609E-3	-9.76458E-3
1.99850E-3	69.1129E-12	773.001E-3	-36.1401E-3	69.0227E-12	767.654E-3	-12.7288E-3
1.99350E-3	69.1084E-12	748.216E-3	-25.6696E-3	68.9614E-12	795.841E-3	-23.8590E-3
1.98849E-3	68.6615E-12	756.004E-3	-7.76855E-3	69.3864E-12	794.899E-3	-22.7811E-3
1.98349E-3	67.8358E-12	774.056E-3	-407.523E-6	69.2958E-12	784.509E-3	-8.55559E-3
1.97849E-3	67.4608E-12	775.271E-3	-2.22493E-3	69.3046E-12	777.461E-3	-6.02679E-3
1.97349E-3	67.4591E-12	771.229E-3	-13.0761E-3	68.7714E-12	768.922E-3	-9.15685E-3
1.96848E-3	67.6954E-12	773.552E-3	-23.9033E-3	68.7111E-12	767.143E-3	-6.59431E-3
1.96348E-3	67.0021E-12	770.246E-3	-21.8756E-3	68.2609E-12	775.821E-3	-8.08025E-3
1.95848E-3	66.5838E-12	754.669E-3	-23.7275E-3	67.3323E-12	779.647E-3	-17.4001E-3
1.95348E-3	66.7387E-12	753.121E-3	-34.3090E-3	66.9586E-12	772.645E-3	-18.3352E-3
1.94847E-3	67.5569E-12	762.339E-3	-36.0476E-3	67.1406E-12	771.533E-3	-20.1362E-3
1.94347E-3	67.2530E-12	751.430E-3	-21.9044E-3	66.7743E-12	778.773E-3	-27.1965E-3
1.93847E-3	66.7848E-12	746.191E-3	-9.34932E-3	65.6616E-12	790.808E-3	-23.2903E-3
1.93347E-3	66.9866E-12	764.400E-3	-4.34249E-3	65.4911E-12	789.241E-3	-17.9437E-3
1.92846E-3	67.9316E-12	776.528E-3	-7.86267E-3	65.5055E-12	769.449E-3	-7.02032E-3
1.92346E-3	68.0672E-12	786.367E-3	-21.2266E-3	64.9352E-12	767.251E-3	4.97913E-3
1.91846E-3	66.9408E-12	802.268E-3	-22.7940E-3	64.5331E-12	775.580E-3	-5.51878E-3
1.91346E-3	66.5984E-12	810.503E-3	-22.0206E-3	64.3477E-12	771.946E-3	-17.8679E-3
1.90845E-3	66.6310E-12	819.697E-3	-27.7749E-3	64.2471E-12	786.017E-3	-11.1420E-3
1.90345E-3	65.9474E-12	824.494E-3	-19.2590E-3	64.2205E-12	797.880E-3	-4.74666E-3
1.89845E-3	64.7134E-12	815.831E-3	-17.4478E-3	64.1829E-12	782.756E-3	-9.60850E-3
1.89345E-3	64.2183E-12	807.686E-3	-28.7809E-3	64.1730E-12	783.214E-3	-8.33868E-3
1.88844E-3	63.9572E-12	801.308E-3	-25.0415E-3	63.9029E-12	802.441E-3	1.84385E-3
1.88344E-3	63.5102E-12	796.244E-3	-10.4889E-3	63.5907E-12	813.111E-3	3.27781E-3
1.87844E-3	63.2490E-12	792.947E-3	-3.35120E-3	63.2209E-12	815.630E-3	418.718E-6
1.87344E-3	62.3246E-12	788.710E-3	-6.84313E-3	62.4506E-12	815.154E-3	1.42080E-3
1.86843E-3	61.6093E-12	789.334E-3	-10.9132E-3	61.9178E-12	802.745E-3	-1.35818E-3
1.86343E-3	61.1202E-12	794.451E-3	-15.8490E-3	61.8782E-12	795.276E-3	-5.44977E-3
1.85843E-3	61.6464E-12	797.436E-3	-18.7412E-3	61.7165E-12	803.869E-3	-16.6713E-3
1.85343E-3	61.1620E-12	789.675E-3	-5.69183E-3	61.3468E-12	800.903E-3	-37.9816E-3
1.84842E-3	61.0189E-12	780.110E-3	1.88559E-3	60.6541E-12	800.689E-3	-47.0784E-3
1.84342E-3	60.9386E-12	782.313E-3	-9.22874E-3	60.3666E-12	821.551E-3	-42.0898E-3
1.83842E-3	61.9231E-12	787.109E-3	-18.5782E-3	60.3121E-12	826.520E-3	-34.3377E-3
1.83342E-3	61.6883E-12	798.928E-3	-31.1015E-3	60.4514E-12	812.201E-3	-25.5291E-3
1.82841E-3	61.2681E-12	822.465E-3	-35.2318E-3	59.9093E-12	819.319E-3	-22.5793E-3
1.82341E-3	60.9786E-12	832.141E-3	-14.9767E-3	59.5180E-12	832.531E-3	-23.2696E-3
1.81841E-3	61.1085E-12	828.159E-3	-3.59454E-3	58.9805E-12	828.454E-3	-15.0544E-3
1.81341E-3	61.3015E-12	839.697E-3	-8.37319E-3	58.8695E-12	829.467E-3	-8.70762E-3
1.80840E-3	60.2254E-12	853.456E-3	-1.83862E-3	58.5100E-12	831.316E-3	-6.14987E-3
1.80340E-3	59.3778E-12	852.815E-3	-4.49019E-3	57.9651E-12	831.072E-3	12.5087E-3
1.79840E-3	59.1084E-12	847.368E-3	-22.5003E-3	57.5040E-12	837.369E-3	22.3474E-3
1.79340E-3	58.7568E-12	843.700E-3	-28.9527E-3	57.2725E-12	832.734E-3	-6.72193E-3
1.78839E-3	58.1481E-12	845.253E-3	-25.8792E-3	57.1866E-12	820.050E-3	-34.8694E-3
1.78339E-3	57.3043E-12	849.138E-3	-28.6187E-3	56.6143E-12	820.071E-3	-25.9959E-3
1.77839E-3	56.7614E-12	853.513E-3	-39.2704E-3	56.1981E-12	830.392E-3	-8.59344E-3
1.77339E-3	56.2654E-12	847.824E-3	-43.8975E-3	55.9444E-12	841.635E-3	-3.09046E-3
1.76838E-3	56.3122E-12	834.222E-3	-42.8242E-3	56.1039E-12	854.835E-3	-1.97516E-3
1.76338E-3	55.9154E-12	824.866E-3	-38.5619E-3	56.1616E-12	869.788E-3	-2.52702E-3
1.75838E-3	55.6111E-12	824.985E-3	-27.6715E-3	55.9981E-12	875.653E-3	-8.90419E-3
1.75338E-3	55.6329E-12	842.256E-3	-13.6824E-3	55.9177E-12	870.585E-3	-13.3894E-3
1.74837E-3	55.4243E-12	862.609E-3	-8.61590E-3	55.9665E-12	869.856E-3	-13.4491E-3
1.74337E-3	55.7062E-12	859.735E-3	-25.1260E-3	55.6278E-12	876.350E-3	-14.7593E-3
1.73837E-3	55.4244E-12	852.595E-3	-45.5197E-3	55.6148E-12	887.472E-3	-11.6134E-3
1.73337E-3	55.5191E-12	866.611E-3	-34.2281E-3	55.1735E-12	894.666E-3	-9.65176E-3
1.72836E-3	55.3761E-12	887.486E-3	-18.2672E-3	55.0718E-12	886.687E-3	-8.60662E-3
1.72336E-3	55.1969E-12	900.165E-3	-24.6731E-3	54.9075E-12	885.498E-3	-3.63405E-3
1.71836E-3	54.8667E-12	900.447E-3	-24.1956E-3	54.3411E-12	895.645E-3	-13.5772E-3
1.71336E-3	54.3683E-12	884.352E-3	-18.1019E-3	53.4126E-12	888.358E-3	-30.4716E-3
1.70835E-3	54.3813E-12	873.208E-3	-22.4408E-3	52.7690E-12	870.390E-3	-24.3179E-3
1.70335E-3	53.6637E-12	878.363E-3	-34.0025E-3	52.6047E-12	871.030E-3	-14.3813E-3
1.69835E-3	53.3427E-12	882.926E-3	-43.2433E-3	51.9172E-12	874.554E-3	-21.1967E-3
1.69335E-3	52.6535E-12	884.456E-3	-38.6232E-3	51.1818E-12	881.518E-3	-25.0370E-3
1.68834E-3	52.4735E-12	888.642E-3	-24.3755E-3	50.7719E-12	893.925E-3	-21.4010E-3
1.68334E-3	51.6149E-12	898.026E-3	-9.37627E-3	50.5284E-12	894.685E-3	-19.6625E-3
1.67834E-3	51.0657E-12	903.791E-3	-6.54197E-3	50.5376E-12	903.807E-3	-19.3716E-3
1.67334E-3	50.7261E-12	903.280E-3	-10.4211E-3	50.3890E-12	915.827E-3	-19.7242E-3
1.66833E-3	50.3552E-12	901.891E-3	-6.30089E-3	50.2444E-12	912.627E-3	-22.7619E-3
1.66333E-3	50.1882E-12	896.634E-3	-14.4819E-3	50.3197E-12	914.573E-3	-11.8971E-3
1.65833E-3	49.9101E-12	903.015E-3	-27.8572E-3	50.4034E-12	941.977E-3	4.78361E-3
1.65333E-3	49.6875E-12	913.944E-3	-21.7287E-3	50.3642E-12	976.033E-3	-3.78082E-3
1.64832E-3	49.0382E-12	913.880E-3	-22.8241E-3	50.8387E-12	997.009E-3	-8.35928E-3
1.64332E-3	49.0014E-12	923.705E-3	-34.8498E-3	50.3803E-12	1.00347E+0	-3.54662E-3
1.63832E-3	49.0164E-12	933.912E-3	-27.5616E-3	50.3113E-12	989.362E-3	-15.5302E-3
1.63332E-3	49.0797E-12	935.218E-3	-15.7318E-3	50.0875E-12	972.416E-3	-15.4853E-3
1.62831E-3	48.4326E-12	947.988E-3	-19.9942E-3	49.8805E-12	970.200E-3	-4.41891E-3
1.62331E-3	48.1744E-12	957.910E-3	-28.3796E-3	49.0173E-12	969.064E-3	-14.4095E-3
1.61831E-3	48.0503E-12	947.690E-3	-33.4773E-3	48.2685E-12	962.870E-3	-28.3613E-3
1.61331E-3	47.9703E-12	941.986E-3	-25.6235E-3	47.5696E-12	958.497E-3	-33.9036E-3
1.60830E-3	47.7187E-12	949.087E-3	-11.8402E-3	47.2426E-12	956.731E-3	-32.6915E-3
1.60330E-3	47.2890E-12	954.311E-3	-11.7000E-3	46.4559E-12	946.397E-3	-24.1248E-3
1.59830E-3	47.2123E-12	970.916E-3	-14.6167E-3	45.6553E-12	937.476E-3	-10.7732E-3
1.59330E-3	46.6140E-12	989.627E-3	-12.5366E-3	45.1240E-12	944.637E-3	-6.85127E-3
1.58829E-3	46.3875E-12	986.745E-3	-10.4330E-3	44.9102E-12	952.465E-3	-21.0440E-3
1.58329E-3	46.2200E-12	977.465E-3	-7.64897E-3	44.4827E-12	959.665E-3	-27.1488E-3
1.57829E-3	45.7248E-12	977.054E-3	6.23671E-3	44.1438E-12	973.886E-3	-30.7268E-3
1.57329E-3	44.8226E-12	989.437E-3	13.6434E-3	44.0079E-12	984.565E-3	-34.2536E-3
1.56828E-3	44.2957E-12	991.208E-3	201.965E-6	44.2553E-12	999.159E-3	-21.5372E-3
1.56328E-3	43.9571E-12	971.652E-3	-4.78255E-3	44.4742E-12	1.02241E+0	-17.5745E-3
1.55828E-3	43.5327E-12	964.698E-3	-2.29048E-3	44.1468E-12	1.02072E+0	-29.9409E-3
1.55328E-3	43.0088E-12	981.726E-3	-7.22287E-3	43.5313E-12	1.00338E+0	-36.3666E-3
1.54827E-3	42.4541E-12	999.106E-3	-16.9451E-3	43.5651E-12	1.01113E+0	-33.6378E-3
1.54327E-3	42.3966E-12	996.139E-3	-22.2377E-3	43.7228E-12	1.02063E+0	-20.9977E-3
1.53827E-3	42.1651E-12	985.010E-3	-20.4716E-3	43.5692E-12	1.01047E+0	-9.97452E-3
1.53327E-3	41.8799E-12	986.413E-3	-14.1108E-3	42.8409E-12	999.865E-3	-9.34956E-3
1.52826E-3	41.6058E-12	989.918E-3	-6.23662E-3	42.4538E-12	989.916E-3	-14.3757E-3
1.52326E-3	41.4637E-12	997.923E-3	-14.9512E-3	42.0300E-12	991.527E-3	-13.6191E-3
1.51826E-3	41.4422E-12	1.01574E+0	-24.4724E-3	41.7215E-12	1.01157E+0	-9.45483E-3
1.51326E-3	41.1199E-12	1.02062E+0	-17.7563E-3	40.7637E-12	1.02816E+0	-10.9603E-3
1.50825E-3	40.9937E-12	1.01600E+0	-14.8384E-3	40.1264E-12	1.03531E+0	-12.8953E-3
1.50325E-3	40.8507E-12	1.02522E+0	-19.4937E-3	39.7052E-12	1.02930E+0	-16.2559E-3
1.49825E-3	40.7228E-12	1.04595E+0	-20.6167E-3	39.6071E-12	1.01070E+0	-18.1720E-3
1.49325E-3	40.3525E-12	1.04867E+0	-15.6531E-3	39.2179E-12	1.01687E+0	-16.8472E-3
1.48824E-3	40.0728E-12	1.03576E+0	-12.4000E-3	38.4511E-12	1.03664E+0	-20.0201E-3
1.48324E-3	39.5568E-12	1.02770E+0	-13.7264E-3	38.2368E-12	1.02507E+0	-31.1068E-3
1.47824E-3	39.2363E-12	1.02591E+0	-15.6825E-3	38.0533E-12	1.01730E+0	-27.1133E-3
1.47324E-3	38.4815E-12	1.03088E+0	-18.6957E-3	37.9179E-12	1.03465E+0	-13.2886E-3
1.46823E-3	37.6141E-12	1.02314E+0	-15.2521E-3	37.4921E-12	1.04549E+0	-23.4104E-3
1.46323E-3	37.0554E-12	1.00643E+0	-7.08402E-3	37.2306E-12	1.04090E+0	-30.1839E-3
1.45823E-3	36.6509E-12	1.00183E+0	-6.19471E-3	36.8927E-12	1.02878E+0	-6.96632E-3
1.45323E-3	36.4480E-12	1.00587E+0	-9.61714E-3	36.6515E-12	1.01352E+0	2.72797E-3
1.44822E-3	35.7799E-12	1.01469E+0	-8.30376E-3	36.5816E-12	1.00453E+0	-9.50268E-3
1.44322E-3	35.2748E-12	1.01533E+0	-8.17089E-3	36.0979E-12	1.01314E+0	-10.6537E-3
1.43822E-3	35.0633E-12	1.00464E+0	-12.1268E-3	35.6590E-12	1.02092E+0	-7.24540E-3
1.43322E-3	35.0679E-12	990.862E-3	-24.0128E-3	35.1609E-12	1.00700E+0	-7.95964E-3
1.42821E-3	34.9674E-12	992.232E-3	-33.8194E-3	35.0919E-12	995.583E-3	-8.52396E-3
1.42321E-3	34.7009E-12	1.00981E+0	-21.7804E-3	34.6092E-12	994.980E-3	-17.0821E-3
1.41821E-3	34.7015E-12	1.00896E+0	-3.70367E-3	34.2174E-12	987.995E-3	-20.3560E-3
1.41321E-3	34.4451E-12	991.265E-3	-10.6046E-3	33.4617E-12	987.405E-3	-11.1447E-3
1.40820E-3	34.4710E-12	989.319E-3	-25.6447E-3	33.5113E-12	983.302E-3	-10.5521E-3
1.40320E-3	34.1974E-12	1.00649E+0	-20.7463E-3	33.5720E-12	964.939E-3	-15.4792E-3
1.39820E-3	34.0745E-12	1.02547E+0	-12.0675E-3	33.0515E-12	963.485E-3	-18.0259E-3
1.39320E-3	33.5528E-12	1.02505E+0	-3.00508E-3	32.6674E-12	967.967E-3	-16.6082E-3
1.38819E-3	33.5016E-12	1.00657E+0	938.712E-6	32.3115E-12	948.807E-3	-7.34660E-3
1.38319E-3	33.0394E-12	996.463E-3	-7.50550E-3	32.4653E-12	934.171E-3	-4.13662E-3
1.37819E-3	32.5147E-12	992.271E-3	-10.6479E-3	32.0961E-12	939.240E-3	-14.7856E-3
1.37319E-3	31.7309E-12	978.925E-3	-4.60592E-3	31.4704E-12	929.292E-3	-24.7858E-3
1.36818E-3	31.2503E-12	963.311E-3	-5.58526E-3	30.9415E-12	909.567E-3	-26.5967E-3
1.36318E-3	30.7196E-12	957.316E-3	-9.19857E-3	30.9132E-12	914.600E-3	-21.6542E-3
1.35818E-3	30.1634E-12	950.844E-3	-4.68680E-3	30.3630E-12	923.621E-3	-19.0064E-3
1.35318E-3	29.8017E-12	924.332E-3	-6.93376E-3	29.7236E-12	904.937E-3	-18.6445E-3
1.34817E-3	29.4785E-12	904.408E-3	-10.1179E-3	29.4767E-12	882.226E-3	-21.6496E-3
1.34317E-3	29.2760E-12	904.592E-3	-12.4852E-3	29.2644E-12	867.751E-3	-28.0901E-3
1.33817E-3	29.0469E-12	894.930E-3	-27.1378E-3	29.3938E-12	861.864E-3	-16.0949E-3
1.33317E-3	28.8386E-12	880.517E-3	-25.4687E-3	28.7299E-12	876.957E-3	-5.09746E-3
1.32816E-3	28.6857E-12	875.105E-3	-6.36538E-3	28.4902E-12	884.643E-3	-18.2476E-3
1.32316E-3	28.7244E-12	887.737E-3	-6.64561E-3	28.3396E-12	868.745E-3	-22.7506E-3
1.31816E-3	28.6651E-12	911.641E-3	-21.3044E-3	28.4258E-12	855.961E-3	-14.4886E-3
1.31316E-3	28.4773E-12	908.442E-3	-32.7371E-3	28.0473E-12	846.681E-3	-12.7497E-3
1.30815E-3	28.2184E-12	884.058E-3	-37.8566E-3	27.9166E-12	836.464E-3	-7.99207E-3
1.30315E-3	28.0411E-12	865.279E-3	-32.7403E-3	27.7102E-12	836.129E-3	-4.16851E-3
1.29815E-3	28.1228E-12	853.717E-3	-27.9870E-3	27.5678E-12	824.733E-3	-14.2626E-3
1.29315E-3	27.8685E-12	856.780E-3	-23.2359E-3	27.3313E-12	789.771E-3	-21.6768E-3
1.28814E-3	27.2318E-12	866.670E-3	-13.3203E-3	26.9867E-12	764.252E-3	-10.3876E-3
1.28314E-3	26.7054E-12	856.456E-3	-10.7078E-3	26.7326E-12	748.689E-3	588.266E-6
1.27814E-3	26.2312E-12	814.572E-3	-5.77235E-3	26.2391E-12	730.807E-3	-8.13661E-3
1.27314E-3	25.9899E-12	774.379E-3	9.85450E-3	26.0119E-12	729.887E-3	-20.6412E-3
1.26813E-3	25.5536E-12	766.093E-3	9.29120E-3	25.4663E-12	728.879E-3	-29.4828E-3
1.26313E-3	25.2684E-12	759.035E-3	-13.2963E-3	25.0982E-12	709.265E-3	-32.3028E-3
1.25813E-3	24.7828E-12	741.351E-3	-25.7977E-3	24.7746E-12	690.388E-3	-17.0168E-3
1.25313E-3	24.3831E-12	722.959E-3	-14.3623E-3	24.4707E-12	678.103E-3	-9.19580E-3
1.24812E-3	24.3018E-12	706.841E-3	-9.94787E-3	24.2135E-12	660.122E-3	-12.5505E-3
1.24312E-3	24.3350E-12	701.406E-3	-27.0174E-3	23.9241E-12	650.582E-3	-1.08911E-3
1.23812E-3	24.0183E-12	695.504E-3	-35.6935E-3	23.8476E-12	652.735E-3	1.92851E-3
1.23312E-3	23.6275E-12	682.258E-3	-35.7480E-3	23.6534E-12	641.057E-3	-10.5635E-3
1.22811E-3	23.5897E-12	672.125E-3	-36.1162E-3	23.6341E-12	617.804E-3	-4.68249E-3
1.22311E-3	23.6031E-12	657.682E-3	-28.4913E-3	23.5667E-12	593.719E-3	4.35999E-3
1.21811E-3	23.6218E-12	628.846E-3	-21.3513E-3	23.6102E-12	566.768E-3	-9.81560E-3
1.21311E-3	23.2160E-12	604.407E-3	-27.0661E-3	23.4735E-12	546.920E-3	-16.5873E-3
1.20810E-3	23.1108E-12	596.278E-3	-38.7815E-3	23.4085E-12	539.769E-3	-13.6978E-3
1.20310E-3	23.1272E-12	586.983E-3	-37.6732E-3	23.1586E-12	530.212E-3	-16.0963E-3
1.19810E-3	22.9254E-12	578.521E-3	-26.5504E-3	23.0529E-12	519.112E-3	-9.35313E-3
1.19310E-3	22.5729E-12	591.562E-3	-23.3927E-3	22.9243E-12	512.623E-3	-10.6569E-3
1.18809E-3	22.5161E-12	588.798E-3	-19.6194E-3	22.7137E-12	493.261E-3	-22.4160E-3
1.18309E-3	22.4858E-12	557.005E-3	-17.6356E-3	22.2433E-12	470.921E-3	-16.7770E-3
1.17809E-3	22.0556E-12	542.461E-3	-25.2238E-3	21.7838E-12	471.418E-3	-10.7262E-3
1.17309E-3	21.7415E-12	532.099E-3	-21.8698E-3	21.6400E-12	468.918E-3	-13.3904E-3
1.16808E-3	21.4580E-12	510.972E-3	-6.76018E-3	21.3426E-12	458.131E-3	-5.42519E-3
1.16308E-3	21.4319E-12	495.959E-3	2.59357E-3	21.0785E-12	452.721E-3	-5.15587E-3
1.15808E-3	21.3666E-12	475.219E-3	-2.07793E-3	20.8273E-12	435.480E-3	-23.7910E-3
1.15308E-3	20.9099E-12	452.908E-3	-25.7021E-3	20.6955E-12	411.619E-3	-27.6839E-3
1.14807E-3	20.8443E-12	451.763E-3	-43.7582E-3	20.5566E-12	396.849E-3	-11.0199E-3
1.14307E-3	20.7388E-12	457.876E-3	-32.3822E-3	20.3578E-12	383.981E-3	1.36479E-3
1.13807E-3	20.6586E-12	449.239E-3	-22.2877E-3	20.1098E-12	369.644E-3	6.49180E-3
1.13307E-3	20.3849E-12	440.053E-3	-24.2834E-3	20.0198E-12	364.614E-3	468.096E-6
1.12806E-3	20.2038E-12	432.767E-3	-14.7181E-3	20.1880E-12	358.632E-3	-14.9166E-3
1.12306E-3	20.0396E-12	406.200E-3	-5.88776E-3	20.1927E-12	335.281E-3	-17.1349E-3
1.11806E-3	19.8729E-12	387.681E-3	-9.22806E-3	20.0001E-12	318.426E-3	-16.3256E-3
1.11306E-3	19.8788E-12	389.923E-3	-9.77337E-3	19.9144E-12	322.407E-3	-27.6203E-3
1.10805E-3	19.8730E-12	376.431E-3	-17.5510E-3	20.0255E-12	324.824E-3	-23.0170E-3
1.10305E-3	19.6103E-12	359.209E-3	-31.1861E-3	19.9663E-12	314.069E-3	1.86107E-3
1.09805E-3	19.5702E-12	353.071E-3	-27.6828E-3	19.7893E-12	292.045E-3	-1.26310E-3
1.09305E-3	19.6742E-12	339.609E-3	-16.3359E-3	19.5784E-12	279.817E-3	-28.8035E-3
1.08804E-3	19.7543E-12	334.505E-3	-13.7934E-3	19.2645E-12	295.944E-3	-37.6098E-3
1.08304E-3	19.5244E-12	331.966E-3	-18.3875E-3	19.1074E-12	308.092E-3	-36.7432E-3
1.07804E-3	19.4770E-12	303.397E-3	-17.8611E-3	19.0452E-12	288.504E-3	-33.6767E-3
1.07304E-3	19.5605E-12	282.641E-3	-6.28652E-3	18.9499E-12	264.427E-3	-30.7856E-3
1.06803E-3	19.7789E-12	295.236E-3	4.02921E-3	18.5710E-12	251.897E-3	-35.4301E-3
1.06303E-3	19.3936E-12	298.920E-3	-4.56219E-3	18.4325E-12	242.150E-3	-33.5176E-3
1.05803E-3	19.0903E-12	282.301E-3	-29.0625E-3	18.5293E-12	233.293E-3	-23.9937E-3
1.05303E-3	18.9522E-12	274.131E-3	-32.6297E-3	18.6002E-12	225.294E-3	-18.9406E-3
1.04802E-3	18.9843E-12	268.946E-3	-11.6504E-3	18.4781E-12	215.876E-3	-19.4026E-3
1.04302E-3	18.7985E-12	257.741E-3	-6.92419E-3	18.3060E-12	212.745E-3	-21.0399E-3
1.03802E-3	18.2675E-12	258.691E-3	-21.9190E-3	18.2367E-12	214.115E-3	-25.5714E-3
1.03302E-3	17.9087E-12	255.842E-3	-32.4809E-3	18.4369E-12	208.242E-3	-36.0477E-3
1.02801E-3	17.8117E-12	233.814E-3	-24.0145E-3	18.2766E-12	199.042E-3	-32.1840E-3
1.02301E-3	17.7926E-12	220.764E-3	-6.11638E-3	18.0357E-12	192.600E-3	-24.8029E-3
1.01801E-3	17.5553E-12	212.304E-3	-10.4522E-3	17.9641E-12	176.363E-3	-28.3037E-3
1.01301E-3	17.3197E-12	187.466E-3	-29.2890E-3	17.9693E-12	156.059E-3	-10.4864E-3
1.00800E-3	17.2716E-12	170.340E-3	-35.6165E-3	17.7971E-12	159.518E-3	8.38473E-3
1.00300E-3	17.4535E-12	175.134E-3	-38.9340E-3	17.5457E-12	168.215E-3	1.28666E-3
997.999E-6	17.4937E-12	184.204E-3	-36.5185E-3	17.2616E-12	160.907E-3	-3.59010E-3
992.997E-6	17.4729E-12	194.977E-3	-16.8509E-3	17.3248E-12	157.601E-3	-3.14096E-3
987.994E-6	17.5180E-12	192.083E-3	-5.14615E-3	17.2774E-12	155.341E-3	-9.10015E-3
982.991E-6	17.5860E-12	167.143E-3	-19.2265E-3	17.0695E-12	149.619E-3	-11.7262E-3
977.989E-6	17.8345E-12	157.207E-3	-32.2835E-3	16.8750E-12	154.683E-3	-9.67180E-3
972.986E-6	17.8314E-12	166.996E-3	-22.7075E-3	16.9727E-12	157.431E-3	-9.34235E-3
967.984E-6	17.6464E-12	165.058E-3	-17.0764E-3	17.0503E-12	143.474E-3	-12.3855E-3
962.981E-6	17.4762E-12	163.020E-3	-22.8519E-3	16.8913E-12	134.545E-3	-20.0410E-3
957.979E-6	17.4864E-12	160.779E-3	-15.8224E-3	16.8333E-12	144.369E-3	-25.0101E-3
952.976E-6	17.5405E-12	143.561E-3	-4.31958E-3	16.8355E-12	150.136E-3	-20.9770E-3
947.974E-6	17.0659E-12	137.844E-3	-2.92975E-3	17.0308E-12	140.877E-3	-18.0813E-3
942.971E-6	16.6587E-12	148.846E-3	-6.14891E-3	16.9805E-12	121.426E-3	-24.4836E-3
937.969E-6	16.5374E-12	149.189E-3	-8.00652E-3	16.8881E-12	113.427E-3	-16.0475E-3
932.966E-6	16.7870E-12	142.332E-3	-13.9285E-3	16.8138E-12	132.988E-3	-1.88268E-3
927.964E-6	16.4711E-12	147.032E-3	-21.6409E-3	16.7237E-12	141.340E-3	-17.6517E-3
922.961E-6	16.2496E-12	144.329E-3	-24.0392E-3	16.8688E-12	124.585E-3	-36.5154E-3
917.959E-6	16.2354E-12	133.842E-3	-27.7829E-3	16.8126E-12	116.495E-3	-30.0263E-3
912.956E-6	16.4670E-12	127.726E-3	-28.8396E-3	16.5816E-12	117.749E-3	-19.5181E-3
907.954E-6	16.5413E-12	123.347E-3	-24.5325E-3	16.4671E-12	112.847E-3	-12.4070E-3
902.951E-6	16.5617E-12	127.743E-3	-18.4266E-3	16.5936E-12	110.919E-3	-9.96199E-3
897.949E-6	16.5944E-12	130.196E-3	-12.2743E-3	16.6827E-12	123.469E-3	-30.8711E-3
892.946E-6	16.8508E-12	127.993E-3	-12.8939E-3	16.4173E-12	128.619E-3	-38.3487E-3
887.944E-6	16.9416E-12	130.469E-3	-15.5343E-3	16.2429E-12	117.851E-3	-18.0231E-3
882.941E-6	16.8975E-12	133.073E-3	-5.18419E-3	16.3840E-12	117.059E-3	-17.1740E-3
877.939E-6	17.0160E-12	121.339E-3	3.44734E-3	16.6228E-12	117.254E-3	-33.0741E-3
872.936E-6	17.0152E-12	110.802E-3	-7.06367E-3	16.4942E-12	118.821E-3	-27.1429E-3
867.934E-6	16.9399E-12	122.644E-3	-16.1450E-3	16.1939E-12	139.047E-3	-10.2286E-3
862.931E-6	16.8039E-12	135.116E-3	-14.7829E-3	16.2926E-12	150.713E-3	-8.08832E-3
857.929E-6	16.6848E-12	138.138E-3	-15.9650E-3	16.4776E-12	141.987E-3	-10.4809E-3
852.926E-6	16.3815E-12	143.920E-3	-20.5924E-3	16.4719E-12	136.796E-3	-19.1413E-3
847.924E-6	16.0745E-12	149.181E-3	-18.8478E-3	16.2569E-12	132.461E-3	-29.2731E-3
842.921E-6	16.0284E-12	151.053E-3	-20.3570E-3	16.2051E-12	132.837E-3	-24.3295E-3
837.919E-6	15.8596E-12	151.348E-3	-27.9302E-3	16.1615E-12	141.570E-3	-11.2525E-3
832.916E-6	15.7560E-12	143.500E-3	-27.8197E-3	16.1791E-12	142.215E-3	-16.7261E-3
827.914E-6	15.5705E-12	128.480E-3	-23.0069E-3	15.9550E-12	142.695E-3	-34.3030E-3
822.911E-6	15.5978E-12	121.049E-3	-15.9303E-3	15.7848E-12	145.283E-3	-26.7690E-3
817.909E-6	15.6792E-12	120.330E-3	-9.84994E-3	15.7527E-12	141.376E-3	-9.76257E-3
812.906E-6	15.6136E-12	116.691E-3	-14.9337E-3	15.8380E-12	138.316E-3	-8.82896E-3
807.904E-6	15.6041E-12	119.878E-3	-28.1950E-3	15.9343E-12	148.451E-3	-17.7732E-3
802.901E-6	15.6954E-12	126.675E-3	-32.9606E-3	15.7119E-12	155.219E-3	-21.6743E-3
797.899E-6	15.9118E-12	130.940E-3	-30.5022E-3	15.6461E-12	150.812E-3	-17.5105E-3
792.896E-6	15.8422E-12	137.230E-3	-26.8331E-3	15.6262E-12	158.250E-3	-17.5960E-3
787.894E-6	15.8279E-12	143.118E-3	-18.0810E-3	15.7123E-12	168.058E-3	-23.8097E-3
782.891E-6	15.8561E-12	144.278E-3	-15.0371E-3	15.6950E-12	159.577E-3	-23.9617E-3
777.889E-6	15.8780E-12	147.042E-3	-11.9442E-3	15.4935E-12	155.362E-3	-18.2986E-3
772.886E-6	15.6345E-12	153.653E-3	-2.14203E-3	15.3894E-12	166.571E-3	-23.2333E-3
767.884E-6	15.5316E-12	150.483E-3	-5.55056E-3	15.4218E-12	167.189E-3	-24.8606E-3
762.881E-6	15.4431E-12	154.427E-3	-17.5618E-3	15.4442E-12	164.663E-3	-15.6512E-3
757.879E-6	15.3033E-12	169.522E-3	-23.5304E-3	15.1167E-12	173.554E-3	-15.2505E-3
752.876E-6	15.0770E-12	175.610E-3	-27.7038E-3	14.8982E-12	179.830E-3	-13.8885E-3
747.874E-6	15.1428E-12	179.570E-3	-34.4218E-3	14.9030E-12	186.729E-3	-8.39260E-3
742.871E-6	15.1931E-12	186.410E-3	-30.7779E-3	14.9719E-12	201.354E-3	-5.72095E-3
737.869E-6	14.9860E-12	188.401E-3	-21.4583E-3	14.7262E-12	209.225E-3	-33.4213E-6
732.866E-6	14.7908E-12	187.636E-3	-22.5717E-3	14.4504E-12	214.919E-3	1.51899E-3
727.864E-6	14.7560E-12	189.127E-3	-15.5317E-3	14.5381E-12	230.107E-3	-6.76197E-3
722.861E-6	14.9225E-12	185.910E-3	-11.4493E-3	14.5815E-12	231.854E-3	-11.9434E-3
717.859E-6	14.7581E-12	188.739E-3	-29.9379E-3	14.6541E-12	226.534E-3	-8.33289E-3
712.856E-6	14.5973E-12	209.096E-3	-30.4980E-3	14.4793E-12	234.867E-3	-6.60141E-3
707.854E-6	14.4784E-12	213.426E-3	-5.78359E-3	14.4929E-12	233.480E-3	-13.5612E-3
702.851E-6	14.6243E-12	207.077E-3	-2.47891E-3	14.6332E-12	233.984E-3	-14.2615E-3
697.849E-6	14.5086E-12	212.899E-3	-18.2863E-3	14.6067E-12	255.366E-3	-7.81685E-3
692.846E-6	14.3654E-12	216.654E-3	-23.0654E-3	14.5108E-12	271.272E-3	-5.44932E-3
687.844E-6	14.0707E-12	227.244E-3	-20.3817E-3	14.4600E-12	270.296E-3	-6.43239E-3
682.841E-6	14.1213E-12	242.474E-3	-13.5653E-3	14.4734E-12	265.233E-3	-14.9476E-3
677.839E-6	14.1022E-12	242.617E-3	-8.49061E-3	14.4041E-12	265.640E-3	-23.9520E-3
672.836E-6	13.9921E-12	243.798E-3	-19.4855E-3	14.1843E-12	279.175E-3	-23.8307E-3
667.834E-6	13.8301E-12	265.960E-3	-30.1370E-3	14.0258E-12	296.206E-3	-15.7723E-3
662.831E-6	13.7802E-12	283.266E-3	-24.8326E-3	13.9767E-12	305.098E-3	-4.20407E-3
657.829E-6	13.6327E-12	287.888E-3	-28.5983E-3	13.9310E-12	316.785E-3	-1.25070E-3
652.826E-6	13.6952E-12	300.309E-3	-41.1514E-3	13.5886E-12	332.905E-3	-12.8978E-3
647.824E-6	13.6545E-12	296.392E-3	-37.3395E-3	13.2754E-12	342.471E-3	-17.6427E-3
642.821E-6	13.6408E-12	272.864E-3	-28.5881E-3	12.9667E-12	335.679E-3	-8.02400E-3
637.819E-6	13.5040E-12	276.036E-3	-28.3866E-3	12.9567E-12	328.377E-3	-8.76318E-3
632.816E-6	13.3848E-12	298.803E-3	-26.4414E-3	13.0428E-12	342.177E-3	-26.4429E-3
627.814E-6	13.2959E-12	300.763E-3	-20.5251E-3	12.7948E-12	366.410E-3	-36.0559E-3
622.811E-6	13.1852E-12	301.476E-3	-17.1248E-3	12.5706E-12	378.412E-3	-28.4013E-3
617.809E-6	12.8795E-12	321.646E-3	-5.06806E-3	12.6193E-12	369.045E-3	-21.1394E-3
612.806E-6	12.7035E-12	335.339E-3	1.89194E-3	12.8653E-12	372.261E-3	-19.8879E-3
607.804E-6	12.7016E-12	337.158E-3	-10.4174E-3	12.7395E-12	403.754E-3	-20.6477E-3
602.801E-6	12.4817E-12	347.816E-3	-15.4976E-3	12.6188E-12	418.272E-3	-25.5627E-3
597.799E-6	12.1928E-12	361.351E-3	-4.70916E-3	12.5167E-12	399.749E-3	-25.9322E-3
592.796E-6	12.0837E-12	363.338E-3	4.33017E-3	12.8454E-12	389.291E-3	-16.3406E-3
587.794E-6	12.0180E-12	367.512E-3	8.44180E-3	12.6677E-12	403.045E-3	-12.8629E-3
582.791E-6	11.8805E-12	374.566E-3	7.73472E-3	12.3256E-12	408.603E-3	-25.6312E-3
577.789E-6	11.6080E-12	376.389E-3	1.49023E-3	12.0646E-12	399.776E-3	-36.1589E-3
572.786E-6	11.6007E-12	382.397E-3	-8.58370E-3	12.0626E-12	390.292E-3	-27.8375E-3
567.784E-6	11.6792E-12	387.413E-3	-21.4749E-3	11.8276E-12	387.939E-3	-8.43717E-3
562.781E-6	11.5422E-12	394.813E-3	-25.3377E-3	11.5037E-12	404.543E-3	318.969E-6
557.779E-6	11.3176E-12	405.823E-3	-5.50847E-3	11.2946E-12	427.007E-3	-8.58336E-3
552.776E-6	11.3622E-12	404.478E-3	13.6076E-3	11.0937E-12	433.769E-3	-12.8314E-3
547.774E-6	11.3134E-12	407.635E-3	166.390E-6	10.8581E-12	430.782E-3	-1.74534E-3
542.771E-6	11.1516E-12	423.052E-3	-17.1552E-3	10.5614E-12	431.254E-3	12.2716E-3
537.769E-6	10.9707E-12	419.483E-3	-22.0432E-3	10.4660E-12	431.901E-3	5.66456E-3
532.766E-6	10.8894E-12	410.024E-3	-28.8218E-3	10.3998E-12	432.397E-3	-14.5626E-3
527.764E-6	10.7492E-12	425.506E-3	-24.6279E-3	10.1892E-12	440.592E-3	-24.0512E-3
522.761E-6	10.4957E-12	437.985E-3	-13.9974E-3	9.95627E-12	444.581E-3	-19.9056E-3
517.759E-6	10.2169E-12	437.354E-3	-19.6194E-3	9.96304E-12	448.688E-3	-1.82988E-3
512.756E-6	10.0987E-12	443.326E-3	-17.7388E-3	10.0004E-12	464.919E-3	7.98792E-3
507.754E-6	9.94481E-12	444.512E-3	3.89548E-3	9.88911E-12	465.391E-3	-6.92807E-3
502.751E-6	9.66173E-12	440.450E-3	5.03784E-3	9.72734E-12	454.577E-3	-16.1554E-3
497.749E-6	9.52477E-12	445.844E-3	-11.8416E-3	9.68818E-12	459.858E-3	-15.9843E-3
492.746E-6	9.46992E-12	450.261E-3	-11.5448E-3	9.72067E-12	460.094E-3	-24.8223E-3
487.744E-6	9.38379E-12	448.364E-3	-14.7538E-3	9.58876E-12	454.766E-3	-26.6235E-3
482.741E-6	9.06505E-12	448.925E-3	-36.3862E-3	9.31762E-12	460.626E-3	-23.8035E-3
477.739E-6	8.96509E-12	452.226E-3	-33.0160E-3	9.22070E-12	463.566E-3	-25.0599E-3
472.736E-6	8.99741E-12	449.400E-3	-12.3867E-3	9.13932E-12	461.676E-3	-13.8701E-3
467.734E-6	8.91992E-12	446.379E-3	-20.9833E-3	8.87737E-12	464.389E-3	-2.76498E-3
462.731E-6	8.84727E-12	442.984E-3	-27.8387E-3	8.58891E-12	463.463E-3	-10.4399E-3
457.729E-6	8.63744E-12	440.131E-3	-19.3046E-3	8.33872E-12	454.079E-3	-17.1815E-3
452.726E-6	8.65634E-12	458.960E-3	-19.6193E-3	8.30512E-12	456.312E-3	-12.2781E-3
447.724E-6	8.49549E-12	486.132E-3	-15.4665E-3	8.13566E-12	457.478E-3	-15.9767E-3
442.721E-6	8.22038E-12	492.609E-3	-7.94220E-3	7.92459E-12	447.575E-3	-27.8435E-3
437.719E-6	8.07779E-12	491.780E-3	-8.46942E-3	7.65959E-12	450.425E-3	-35.9252E-3
432.716E-6	7.91764E-12	493.368E-3	-15.6434E-3	7.54705E-12	463.909E-3	-40.3430E-3
427.714E-6	7.67380E-12	485.324E-3	-22.2549E-3	7.33767E-12	466.633E-3	-36.0850E-3
422.711E-6	7.33873E-12	473.805E-3	-23.1166E-3	7.23967E-12	455.359E-3	-25.2368E-3
417.709E-6	7.17696E-12	467.650E-3	-23.5667E-3	7.12107E-12	449.016E-3	-17.3050E-3
412.706E-6	7.05065E-12	457.630E-3	-27.8186E-3	6.86229E-12	452.722E-3	-14.6877E-3
407.704E-6	6.82187E-12	458.467E-3	-38.8886E-3	6.69943E-12	452.959E-3	-16.4059E-3
402.701E-6	6.57429E-12	473.121E-3	-38.4599E-3	6.71895E-12	443.700E-3	-29.1957E-3
397.699E-6	6.42819E-12	465.296E-3	-23.3180E-3	6.67886E-12	434.081E-3	-42.2034E-3
392.696E-6	6.41290E-12	446.291E-3	-18.6888E-3	6.34614E-12	437.678E-3	-34.6095E-3
387.694E-6	6.24741E-12	443.968E-3	-12.5449E-3	6.08136E-12	441.293E-3	-23.4357E-3
382.691E-6	6.04101E-12	437.675E-3	-323.678E-6	6.07816E-12	428.269E-3	-21.3168E-3
377.689E-6	5.98483E-12	432.158E-3	-2.61641E-3	6.10492E-12	416.781E-3	-14.1400E-3
372.686E-6	5.89807E-12	443.818E-3	-4.54932E-3	5.89099E-12	419.419E-3	-11.5402E-3
367.684E-6	5.78404E-12	443.951E-3	591.117E-6	5.59920E-12	426.383E-3	-19.4267E-3
362.681E-6	5.65454E-12	436.782E-3	-1.38414E-3	5.54319E-12	425.976E-3	-21.2889E-3
357.679E-6	5.59225E-12	447.693E-3	-11.3326E-3	5.64427E-12	422.663E-3	-22.8741E-3
352.676E-6	5.47624E-12	447.612E-3	-23.3096E-3	5.39320E-12	418.400E-3	-24.2455E-3
347.674E-6	5.19201E-12	422.700E-3	-35.0337E-3	5.09762E-12	407.595E-3	-17.5779E-3
342.671E-6	5.06989E-12	410.266E-3	-31.9788E-3	5.03937E-12	400.211E-3	-14.4029E-3
337.669E-6	5.03079E-12	411.561E-3	-14.0476E-3	4.98197E-12	389.043E-3	-16.2750E-3
332.666E-6	4.85112E-12	409.078E-3	-12.1513E-3	4.86822E-12	368.935E-3	-12.6021E-3
327.664E-6	4.57068E-12	412.825E-3	-22.5091E-3	4.53163E-12	364.432E-3	-8.53688E-3
322.661E-6	4.38212E-12	412.119E-3	-28.0636E-3	4.37258E-12	366.355E-3	-6.10264E-3
317.659E-6	4.43036E-12	399.068E-3	-33.8013E-3	4.26940E-12	358.245E-3	-3.89580E-3
312.656E-6	4.30776E-12	392.977E-3	-34.1271E-3	4.20434E-12	349.813E-3	-3.91499E-3
307.654E-6	3.99777E-12	386.048E-3	-30.5227E-3	4.00391E-12	343.794E-3	1.90017E-3
302.651E-6	3.90126E-12	380.080E-3	-33.3739E-3	3.81836E-12	341.316E-3	5.18903E-3
297.649E-6	3.95178E-12	385.340E-3	-26.5875E-3	3.68803E-12	341.508E-3	-4.99141E-3
292.646E-6	3.86826E-12	382.289E-3	-12.8024E-3	3.61397E-12	333.833E-3	-13.8215E-3
287.644E-6	3.64858E-12	368.475E-3	-12.5005E-3	3.49432E-12	323.465E-3	-9.25729E-3
282.641E-6	3.50632E-12	367.550E-3	-13.6884E-3	3.44800E-12	332.600E-3	-9.02147E-3
277.639E-6	3.48862E-12	369.179E-3	-7.12044E-3	3.30863E-12	340.645E-3	-16.4883E-3
272.636E-6	3.40379E-12	352.473E-3	-3.73561E-3	3.13568E-12	323.648E-3	-14.5296E-3
267.634E-6	3.18407E-12	336.627E-3	-8.47884E-3	3.21577E-12	308.678E-3	-3.60376E-3
262.631E-6	3.04065E-12	328.764E-3	-8.62897E-3	3.15852E-12	299.645E-3	-875.811E-6
257.629E-6	2.99920E-12	315.411E-3	-4.46431E-3	3.00918E-12	287.394E-3	-12.7226E-3
252.626E-6	2.90200E-12	310.613E-3	-5.58758E-3	2.78586E-12	292.881E-3	-12.7064E-3
247.624E-6	2.75617E-12	306.538E-3	-211.827E-6	2.77337E-12	293.795E-3	-10.6638E-3
242.621E-6	2.79709E-12	292.735E-3	-360.247E-6	2.82464E-12	269.877E-3	-15.9420E-3
237.619E-6	2.62502E-12	285.420E-3	-8.68882E-3	2.68529E-12	252.291E-3	-2.10605E-3
232.616E-6	2.42837E-12	286.679E-3	-8.64522E-3	2.38965E-12	248.742E-3	8.14744E-3
227.614E-6	2.26339E-12	277.748E-3	-12.9381E-3	2.28160E-12	242.556E-3	-8.01077E-3
222.611E-6	2.33739E-12	264.082E-3	-15.0366E-3	2.30720E-12	241.904E-3	-20.1241E-3
217.609E-6	2.18584E-12	263.876E-3	-6.00099E-3	2.15066E-12	254.451E-3	-18.3109E-3
212.606E-6	1.99414E-12	255.917E-3	746.129E-6	1.93619E-12	249.851E-3	-23.5849E-3
207.604E-6	1.98056E-12	244.950E-3	-4.07791E-3	1.85309E-12	229.766E-3	-29.2575E-3
202.601E-6	2.01912E-12	247.490E-3	-13.2100E-3	1.92432E-12	223.403E-3	-25.2720E-3
197.599E-6	1.92526E-12	250.759E-3	-16.0568E-3	1.77077E-12	213.765E-3	-22.2119E-3
192.596E-6	1.71234E-12	241.144E-3	-18.5573E-3	1.64059E-12	201.222E-3	-16.9969E-3
187.594E-6	1.68011E-12	225.041E-3	-9.36715E-3	1.58925E-12	201.149E-3	-14.7049E-3
182.591E-6	1.72701E-12	217.441E-3	6.89571E-3	1.58287E-12	200.285E-3	-20.1897E-3
177.589E-6	1.65076E-12	216.147E-3	-4.63031E-3	1.53890E-12	197.437E-3	-12.2782E-3
172.586E-6	1.49266E-12	215.002E-3	-29.6462E-3	1.48644E-12	192.361E-3	-12.3443E-3
167.584E-6	1.38994E-12	208.673E-3	-33.1588E-3	1.41878E-12	181.726E-3	-25.3151E-3
162.581E-6	1.41008E-12	193.885E-3	-24.7541E-3	1.39265E-12	172.937E-3	-16.0212E-3
157.579E-6	1.28316E-12	188.456E-3	-19.4714E-3	1.29035E-12	172.886E-3	-9.72429E-3
152.576E-6	1.19201E-12	181.993E-3	-11.4893E-3	1.20699E-12	169.064E-3	-20.6965E-3
147.574E-6	1.15756E-12	169.684E-3	-9.31465E-3	1.25353E-12	163.050E-3	-18.2242E-3
142.571E-6	1.08075E-12	178.624E-3	-11.4955E-3	1.13060E-12	169.120E-3	-12.6391E-3
137.569E-6	1.07951E-12	181.687E-3	-2.03681E-3	972.026E-15	166.426E-3	-17.2307E-3
132.566E-6	978.086E-15	166.971E-3	1.75371E-3	968.390E-15	149.134E-3	-19.9517E-3
127.564E-6	939.233E-15	166.417E-3	-11.7235E-3	957.727E-15	145.865E-3	-22.0861E-3
122.561E-6	881.450E-15	167.656E-3	-17.1134E-3	907.939E-15	145.556E-3	-25.4322E-3
117.559E-6	839.066E-15	156.518E-3	-11.0759E-3	678.543E-15	125.882E-3	-26.4101E-3
112.556E-6	798.312E-15	153.428E-3	-19.1972E-3	662.613E-15	118.439E-3	-24.7441E-3
107.554E-6	786.811E-15	157.542E-3	-32.0492E-3	827.635E-15	117.160E-3	-23.9089E-3
102.551E-6	739.160E-15	153.197E-3	-30.4011E-3	702.818E-15	106.716E-3	-16.9616E-3
97.5488E-6	597.393E-15	140.147E-3	-25.0985E-3	529.504E-15	112.461E-3	-16.0844E-3
92.5463E-6	565.968E-15	128.074E-3	-18.8055E-3	532.704E-15	118.815E-3	-27.1098E-3
87.5438E-6	661.200E-15	122.764E-3	-11.5086E-3	573.005E-15	113.995E-3	-29.8112E-3
82.5413E-6	540.002E-15	129.764E-3	-6.38729E-3	592.213E-15	112.964E-3	-25.5787E-3
77.5388E-6	374.492E-15	137.582E-3	4.60580E-3	351.866E-15	116.799E-3	-23.9237E-3
72.5363E-6	397.764E-15	127.254E-3	5.92977E-3	365.040E-15	115.572E-3	-18.0034E-3
67.5338E-6	452.643E-15	119.580E-3	-12.3491E-3	389.254E-15	109.117E-3	-4.97403E-3
62.5313E-6	389.856E-15	126.170E-3	-21.5576E-3	364.927E-15	112.684E-3	-11.6432E-3
57.5288E-6	234.530E-15	120.738E-3	-18.1048E-3	337.566E-15	119.277E-3	-25.6490E-3
52.5263E-6	197.054E-15	112.967E-3	-21.3047E-3	259.232E-15	115.292E-3	-19.3192E-3
47.5238E-6	264.472E-15	117.276E-3	-24.1962E-3	221.869E-15	107.358E-3	-10.9954E-3
42.5213E-6	237.590E-15	112.290E-3	-20.9626E-3	181.255E-15	102.564E-3	-16.8662E-3
37.5188E-6	133.177E-15	106.547E-3	-21.9878E-3	129.863E-15	107.481E-3	-17.4233E-3
32.5163E-6	113.140E-15	116.820E-3	-16.6378E-3	129.977E-15	113.339E-3	-12.1458E-3
27.5138E-6	94.3495E-15	117.899E-3	-2.21255E-3	62.0794E-15	111.993E-3	-18.0978E-3
22.5113E-6	85.1507E-15	99.5888E-3	-12.0252E-3	-31.3655E-15	114.682E-3	-15.3914E-3
17.5088E-6	-6.74213E-15	90.4374E-3	-32.1243E-3	5.65673E-15	112.670E-3	-4.54526E-3
12.5063E-6	-62.7462E-15	88.8958E-3	-31.8827E-3	3.45074E-15	104.556E-3	-4.99343E-3
7.50375E-6	-90.1685E-15	85.2508E-3	-24.9221E-3	-95.8186E-15	104.849E-3	-15.5107E-3
2.50125E-6	-129.754E-15	98.5165E-3	-13.4212E-3	-204.156E-15	108.806E-3	-22.0477E-3
-2.50125E-6	-133.041E-15	113.653E-3	-93.7935E-6	-224.577E-15	110.865E-3	-23.0957E-3
-7.50375E-6	-161.684E-15	118.584E-3	-2.34981E-3	-119.134E-15	117.386E-3	-20.2999E-3
-12.5063E-6	-205.194E-15	129.856E-3	-15.3164E-3	-181.599E-15	128.655E-3	-7.05723E-3
-17.5088E-6	-328.912E-15	128.045E-3	-20.9742E-3	-361.662E-15	134.696E-3	-4.40346E-3
-22.5113E-6	-321.579E-15	114.964E-3	-20.1662E-3	-368.698E-15	131.144E-3	-21.1521E-3
-27.5138E-6	-259.105E-15	118.351E-3	-14.2696E-3	-279.927E-15	129.777E-3	-30.5296E-3
-32.5163E-6	-394.647E-15	125.615E-3	-7.49102E-3	-378.036E-15	133.302E-3	-28.6828E-3
-37.5188E-6	-534.443E-15	119.977E-3	-9.18954E-3	-491.719E-15	132.790E-3	-17.8015E-3
-42.5213E-6	-481.962E-15	111.894E-3	-18.9219E-3	-545.909E-15	132.419E-3	-7.66895E-3
-47.5238E-6	-453.005E-15	117.635E-3	-20.2095E-3	-496.349E-15	137.717E-3	-17.1696E-3
-52.5263E-6	-553.861E-15	127.249E-3	-11.5782E-3	-538.934E-15	138.576E-3	-27.2934E-3
-57.5288E-6	-683.116E-15	131.319E-3	-12.1120E-3	-632.614E-15	142.910E-3	-18.4301E-3
-62.5313E-6	-744.587E-15	132.709E-3	-7.36615E-3	-735.781E-15	152.783E-3	-11.4948E-3
-67.5338E-6	-660.289E-15	133.627E-3	416.242E-6	-748.834E-15	157.026E-3	-15.7871E-3
-72.5363E-6	-691.923E-15	142.967E-3	-8.39403E-3	-760.169E-15	169.907E-3	-14.0824E-3
-77.5388E-6	-908.999E-15	150.601E-3	-17.9264E-3	-824.866E-15	181.420E-3	-11.2845E-3
-82.5413E-6	-930.439E-15	151.284E-3	-24.2051E-3	-892.685E-15	175.224E-3	-11.0076E-3
-87.5438E-6	-944.905E-15	158.469E-3	-31.7211E-3	-926.089E-15	169.222E-3	-6.63117E-3
-92.5463E-6	-975.597E-15	168.601E-3	-24.4685E-3	-1.11465E-12	173.991E-3	-4.44516E-3
-97.5488E-6	-1.09236E-12	174.117E-3	-10.9405E-3	-1.08629E-12	186.627E-3	-5.99060E-3
-102.551E-6	-1.17962E-12	181.677E-3	-11.4057E-3	-1.07313E-12	206.218E-3	-14.6556E-3
-107.554E-6	-1.18538E-12	193.766E-3	-10.5279E-3	-1.22926E-12	224.313E-3	-21.1980E-3
-112.556E-6	-1.23255E-12	192.041E-3	-14.1921E-3	-1.34811E-12	225.526E-3	-10.1868E-3
-117.559E-6	-1.33461E-12	184.042E-3	-29.9320E-3	-1.39731E-12	216.504E-3	-3.45219E-3
-122.561E-6	-1.44556E-12	195.721E-3	-26.7548E-3	-1.39221E-12	223.679E-3	-14.7173E-3
-127.564E-6	-1.51884E-12	208.775E-3	-19.1875E-3	-1.46409E-12	235.918E-3	-17.4877E-3
-132.566E-6	-1.60893E-12	214.823E-3	-34.2850E-3	-1.65113E-12	240.380E-3	-9.34043E-3
-137.569E-6	-1.65438E-12	226.571E-3	-39.2111E-3	-1.75945E-12	259.909E-3	-15.2033E-3
-142.571E-6	-1.72525E-12	240.640E-3	-18.8437E-3	-1.67250E-12	282.632E-3	-36.5511E-3
-147.574E-6	-1.83042E-12	251.521E-3	-4.91082E-3	-1.76842E-12	286.167E-3	-43.1509E-3
-152.576E-6	-1.98153E-12	257.643E-3	-2.67222E-3	-1.95346E-12	288.822E-3	-26.6341E-3
-157.579E-6	-2.00467E-12	266.254E-3	-1.79286E-3	-2.07332E-12	296.869E-3	-19.3493E-3
-162.581E-6	-2.06825E-12	278.899E-3	-7.24225E-3	-2.05255E-12	302.471E-3	-24.0362E-3
-167.584E-6	-2.22982E-12	305.558E-3	-19.5699E-3	-2.15498E-12	315.401E-3	-19.4163E-3
-172.586E-6	-2.40469E-12	328.060E-3	-29.0130E-3	-2.36154E-12	332.084E-3	-15.0228E-3
-177.589E-6	-2.49888E-12	322.749E-3	-31.9217E-3	-2.48840E-12	349.302E-3	-10.2354E-3
-182.591E-6	-2.47516E-12	319.789E-3	-31.5996E-3	-2.50542E-12	379.814E-3	-4.54040E-3
-187.594E-6	-2.59567E-12	324.305E-3	-19.3322E-3	-2.63424E-12	401.318E-3	-10.6022E-3
-192.596E-6	-2.77987E-12	327.230E-3	-2.13694E-3	-2.78180E-12	401.902E-3	-12.4843E-3
-197.599E-6	-2.89221E-12	341.889E-3	2.86121E-3	-2.97319E-12	408.918E-3	-2.76045E-3
-202.601E-6	-2.89434E-12	354.561E-3	-2.34603E-3	-3.03972E-12	418.828E-3	-2.77682E-3
-207.604E-6	-2.98383E-12	353.162E-3	-18.0159E-3	-3.19493E-12	425.037E-3	-7.65085E-3
-212.606E-6	-3.27041E-12	360.884E-3	-38.1420E-3	-3.34561E-12	441.871E-3	-8.78190E-3
-217.609E-6	-3.37435E-12	372.876E-3	-37.6613E-3	-3.39412E-12	458.867E-3	-17.6249E-3
-222.611E-6	-3.47043E-12	381.643E-3	-15.2125E-3	-3.52871E-12	465.614E-3	-20.2129E-3
-227.614E-6	-3.64837E-12	402.151E-3	1.93502E-3	-3.78710E-12	472.689E-3	-12.0073E-3
-232.616E-6	-3.82953E-12	419.151E-3	-866.987E-6	-3.84046E-12	491.339E-3	-7.57893E-3
-237.619E-6	-4.06296E-12	422.740E-3	-12.2836E-3	-3.97106E-12	509.045E-3	-6.54405E-3
-242.621E-6	-4.18496E-12	431.722E-3	-14.7123E-3	-4.13536E-12	515.946E-3	-7.89516E-3
-247.624E-6	-4.34722E-12	453.815E-3	-8.84583E-3	-4.39381E-12	526.218E-3	-8.42584E-3
-252.626E-6	-4.55053E-12	472.563E-3	-3.59750E-3	-4.60956E-12	534.734E-3	-10.9379E-3
-257.629E-6	-4.75523E-12	478.315E-3	-8.56069E-3	-4.66892E-12	550.309E-3	-16.7030E-3
-262.631E-6	-5.02382E-12	497.552E-3	-16.9490E-3	-4.83856E-12	581.325E-3	-14.2577E-3
-267.634E-6	-5.19851E-12	530.845E-3	-21.5768E-3	-5.19365E-12	596.843E-3	-9.73512E-3
-272.636E-6	-5.37480E-12	550.030E-3	-30.8359E-3	-5.38445E-12	604.185E-3	-10.1644E-3
-277.639E-6	-5.44353E-12	557.777E-3	-31.3782E-3	-5.53869E-12	621.425E-3	-12.5580E-3
-282.641E-6	-5.66093E-12	562.177E-3	-28.7038E-3	-5.67965E-12	632.458E-3	-20.1379E-3
-287.644E-6	-5.94525E-12	574.326E-3	-32.1249E-3	-5.92366E-12	634.107E-3	-22.2255E-3
-292.646E-6	-6.11296E-12	600.997E-3	-22.6136E-3	-6.15133E-12	640.376E-3	-24.4012E-3
-297.649E-6	-6.20420E-12	625.044E-3	-12.3885E-3	-6.28696E-12	650.252E-3	-30.6826E-3
-302.651E-6	-6.38287E-12	635.465E-3	-16.0075E-3	-6.37726E-12	656.957E-3	-22.5224E-3
-307.654E-6	-6.69524E-12	641.865E-3	-26.4877E-3	-6.65642E-12	670.058E-3	-11.8443E-3
-312.656E-6	-7.01322E-12	647.759E-3	-33.6956E-3	-6.85428E-12	686.433E-3	-8.98453E-3
-317.659E-6	-7.08596E-12	659.444E-3	-28.6543E-3	-7.04361E-12	690.697E-3	-8.38783E-3
-322.661E-6	-7.18210E-12	676.153E-3	-15.4665E-3	-7.12703E-12	699.424E-3	-6.28027E-3
-327.664E-6	-7.52470E-12	680.747E-3	-5.54730E-3	-7.42012E-12	725.525E-3	-6.10650E-3
-332.666E-6	-7.89688E-12	688.418E-3	-9.83411E-3	-7.70031E-12	749.594E-3	-9.41683E-3
-337.669E-6	-8.09210E-12	708.577E-3	-19.2483E-3	-7.97368E-12	764.158E-3	-15.2344E-3
-342.671E-6	-8.18350E-12	726.480E-3	-17.3345E-3	-8.31401E-12	783.065E-3	-17.1537E-3
-347.674E-6	-8.52033E-12	737.842E-3	-24.3607E-3	-8.58522E-12	803.148E-3	-1.06705E-3
-352.676E-6	-8.85104E-12	753.147E-3	-39.3446E-3	-8.85070E-12	810.502E-3	12.3998E-3
-357.679E-6	-9.08313E-12	770.437E-3	-28.8653E-3	-9.30828E-12	804.823E-3	2.54279E-3
-362.681E-6	-9.22282E-12	773.561E-3	-4.15139E-3	-9.57842E-12	798.664E-3	-7.93918E-3
-367.684E-6	-9.44976E-12	773.081E-3	-2.57206E-3	-9.82936E-12	806.194E-3	-2.08126E-3
-372.686E-6	-9.80200E-12	769.848E-3	-21.0361E-3	-10.0395E-12	816.558E-3	3.62970E-3
-377.689E-6	-10.0808E-12	766.410E-3	-32.8074E-3	-10.2773E-12	816.850E-3	-5.71532E-3
-382.691E-6	-10.4545E-12	782.348E-3	-37.3562E-3	-10.6426E-12	816.007E-3	-16.0330E-3
-387.694E-6	-10.6819E-12	802.873E-3	-32.6002E-3	-10.8658E-12	817.172E-3	-23.7213E-3
-392.696E-6	-10.9808E-12	810.246E-3	-23.1113E-3	-10.9185E-12	820.739E-3	-31.8116E-3
-397.699E-6	-11.3128E-12	827.042E-3	-20.5440E-3	-11.0622E-12	833.253E-3	-28.6490E-3
-402.701E-6	-11.7321E-12	849.104E-3	-14.8944E-3	-11.4492E-12	842.058E-3	-29.8662E-3
-407.704E-6	-12.1419E-12	851.372E-3	-16.2023E-3	-11.7387E-12	835.658E-3	-32.9601E-3
-412.706E-6	-12.2323E-12	861.818E-3	-24.6857E-3	-11.8614E-12	835.959E-3	-23.1070E-3
-417.709E-6	-12.4879E-12	873.810E-3	-15.3215E-3	-12.0403E-12	855.357E-3	-12.4052E-3
-422.711E-6	-12.9229E-12	862.834E-3	-4.93170E-3	-12.4520E-12	867.911E-3	-8.28326E-3
-427.714E-6	-13.2572E-12	866.568E-3	-22.4966E-3	-12.8486E-12	879.621E-3	-18.7597E-3
-432.716E-6	-13.3577E-12	884.505E-3	-38.6771E-3	-13.2118E-12	902.447E-3	-32.4079E-3
-437.719E-6	-13.4613E-12	875.629E-3	-25.4963E-3	-13.4357E-12	908.043E-3	-27.7562E-3
-442.721E-6	-13.8745E-12	864.445E-3	-13.0216E-3	-13.9503E-12	896.805E-3	-12.8109E-3
-447.724E-6	-14.1978E-12	872.758E-3	-14.1143E-3	-14.4284E-12	891.105E-3	-4.08221E-3
-452.726E-6	-14.4167E-12	880.868E-3	-19.3571E-3	-14.7329E-12	893.618E-3	-5.20687E-3
-457.729E-6	-14.4293E-12	886.904E-3	-21.5830E-3	-14.8642E-12	888.569E-3	-10.5799E-3
-462.731E-6	-14.7199E-12	882.021E-3	-12.8234E-3	-15.2704E-12	886.934E-3	-16.0428E-3
-467.734E-6	-15.0516E-12	866.109E-3	-10.7041E-3	-15.6600E-12	898.982E-3	-17.7145E-3
-472.736E-6	-15.3793E-12	860.726E-3	-17.7518E-3	-15.8347E-12	892.092E-3	-21.2799E-3
-477.739E-6	-15.5980E-12	867.464E-3	-24.3453E-3	-15.9453E-12	867.874E-3	-25.4480E-3
-482.741E-6	-16.0317E-12	873.851E-3	-27.9782E-3	-16.0724E-12	855.771E-3	-23.2540E-3
-487.744E-6	-16.3644E-12	868.928E-3	-21.4067E-3	-16.3410E-12	852.397E-3	-17.5063E-3
-492.746E-6	-16.7157E-12	860.030E-3	-7.93256E-3	-16.4255E-12	845.619E-3	-8.15762E-3
-497.749E-6	-17.0296E-12	859.440E-3	-1.05427E-3	-16.6711E-12	837.915E-3	-12.4908E-3
-502.751E-6	-17.3664E-12	872.009E-3	-9.59312E-3	-16.9494E-12	832.871E-3	-24.9621E-3
-507.754E-6	-17.6039E-12	888.559E-3	-11.5993E-3	-17.0562E-12	835.916E-3	-19.2756E-3
-512.756E-6	-18.0607E-12	883.805E-3	-2.16821E-3	-17.3730E-12	836.998E-3	-11.5990E-3
-517.759E-6	-18.4638E-12	870.471E-3	-9.31104E-3	-17.7157E-12	825.850E-3	-8.64257E-3
-522.761E-6	-18.7393E-12	868.387E-3	-28.1396E-3	-18.1017E-12	812.918E-3	-617.249E-6
-527.764E-6	-18.7702E-12	863.624E-3	-29.1029E-3	-18.3387E-12	807.085E-3	-1.14492E-3
-532.766E-6	-19.0766E-12	843.866E-3	-30.4716E-3	-18.7691E-12	800.620E-3	-6.59977E-3
-537.769E-6	-19.3092E-12	826.544E-3	-39.7291E-3	-19.1539E-12	798.399E-3	-14.6458E-3
-542.771E-6	-19.4462E-12	823.447E-3	-23.5426E-3	-19.7271E-12	796.206E-3	-22.0586E-3
-547.774E-6	-19.4278E-12	818.432E-3	-4.12310E-3	-19.9832E-12	774.687E-3	-16.4484E-3
-552.776E-6	-19.5463E-12	805.923E-3	-5.10092E-3	-20.1001E-12	756.598E-3	-17.1963E-3
-557.779E-6	-19.8854E-12	791.975E-3	-4.67833E-3	-20.0838E-12	753.058E-3	-25.3636E-3
-562.781E-6	-20.3586E-12	787.318E-3	-4.89594E-3	-20.6308E-12	743.235E-3	-19.3971E-3
-567.784E-6	-20.7424E-12	788.994E-3	-13.4077E-3	-20.9539E-12	732.685E-3	-3.64909E-3
-572.786E-6	-20.9126E-12	777.718E-3	-14.8381E-3	-21.1027E-12	729.344E-3	95.4326E-6
-577.789E-6	-21.4758E-12	756.132E-3	-7.47317E-3	-21.2400E-12	716.364E-3	-8.11964E-3
-582.791E-6	-21.8624E-12	740.433E-3	-8.79173E-3	-21.4898E-12	705.768E-3	-12.6433E-3
-587.794E-6	-22.2428E-12	730.973E-3	-13.9145E-3	-21.8474E-12	700.948E-3	-8.99805E-3
-592.796E-6	-22.2636E-12	727.004E-3	-15.7671E-3	-22.1262E-12	688.081E-3	-7.84787E-3
-597.799E-6	-22.4863E-12	731.820E-3	-18.4888E-3	-22.1945E-12	681.712E-3	-11.4671E-3
-602.801E-6	-22.5733E-12	728.674E-3	-13.3905E-3	-22.2662E-12	673.728E-3	-7.72071E-3
-607.804E-6	-22.8090E-12	711.506E-3	-13.5822E-3	-22.8495E-12	653.020E-3	-5.29640E-3
-612.806E-6	-22.9871E-12	699.304E-3	-22.2814E-3	-23.0726E-12	637.840E-3	-12.6314E-3
-617.809E-6	-23.1747E-12	684.011E-3	-21.5307E-3	-23.2757E-12	629.744E-3	-15.7473E-3
-622.811E-6	-23.5064E-12	658.605E-3	-17.5681E-3	-23.4469E-12	619.390E-3	-20.8617E-3
-627.814E-6	-23.4208E-12	645.734E-3	-15.5724E-3	-23.6866E-12	606.955E-3	-32.8932E-3
-632.816E-6	-23.5456E-12	646.322E-3	-17.8604E-3	-23.9496E-12	597.809E-3	-28.6363E-3
-637.819E-6	-23.4568E-12	641.051E-3	-19.8955E-3	-24.0379E-12	592.237E-3	-11.7449E-3
-642.821E-6	-23.8415E-12	632.059E-3	-14.2140E-3	-24.2494E-12	576.036E-3	-2.79565E-3
-647.824E-6	-24.1727E-12	623.626E-3	-5.95408E-3	-24.1602E-12	560.832E-3	-3.49968E-3
-652.826E-6	-24.4161E-12	601.724E-3	-3.60883E-3	-24.3534E-12	562.081E-3	-10.6756E-3
-657.829E-6	-24.4553E-12	568.300E-3	-9.62740E-3	-24.4029E-12	551.463E-3	-23.1448E-3
-662.831E-6	-24.7897E-12	559.393E-3	-10.5959E-3	-24.6961E-12	532.954E-3	-29.4412E-3
-667.834E-6	-25.3449E-12	565.201E-3	-4.79426E-3	-25.0238E-12	518.387E-3	-24.6883E-3
-672.836E-6	-25.6970E-12	555.573E-3	-10.3716E-3	-25.3286E-12	493.908E-3	-20.9303E-3
-677.839E-6	-25.7448E-12	555.016E-3	-17.6738E-3	-25.5485E-12	480.550E-3	-18.2058E-3
-682.841E-6	-25.8562E-12	560.403E-3	-5.84552E-3	-25.9186E-12	479.632E-3	-12.8158E-3
-687.844E-6	-26.1661E-12	550.546E-3	-1.88416E-3	-26.2733E-12	472.921E-3	-15.0723E-3
-692.846E-6	-26.4613E-12	535.938E-3	-22.4818E-3	-26.3557E-12	474.996E-3	-14.1170E-3
-697.849E-6	-26.6647E-12	522.056E-3	-38.0156E-3	-26.6942E-12	474.404E-3	-9.06499E-3
-702.851E-6	-26.6553E-12	501.743E-3	-48.6988E-3	-27.0810E-12	447.974E-3	-20.5174E-3
-707.854E-6	-26.6998E-12	489.744E-3	-53.5285E-3	-27.2010E-12	415.803E-3	-37.3692E-3
-712.856E-6	-26.8930E-12	479.265E-3	-37.3624E-3	-27.3482E-12	397.932E-3	-46.6976E-3
-717.859E-6	-26.7124E-12	447.708E-3	-20.8822E-3	-27.4310E-12	389.614E-3	-43.7252E-3
-722.861E-6	-26.8917E-12	429.335E-3	-14.2618E-3	-27.5651E-12	384.258E-3	-26.2711E-3
-727.864E-6	-26.9193E-12	431.433E-3	-7.43777E-3	-27.3031E-12	376.926E-3	-10.5330E-3
-732.866E-6	-27.0030E-12	427.689E-3	-9.86833E-3	-26.9884E-12	364.938E-3	-8.42273E-3
-737.869E-6	-27.0571E-12	420.754E-3	-19.1042E-3	-27.1129E-12	354.831E-3	-5.28184E-3
-742.871E-6	-27.1234E-12	413.180E-3	-26.7584E-3	-27.3901E-12	343.395E-3	-4.91072E-3
-747.874E-6	-27.3641E-12	398.206E-3	-39.3999E-3	-27.3666E-12	332.467E-3	-17.1553E-3
-752.876E-6	-27.4180E-12	380.948E-3	-38.6128E-3	-27.1184E-12	322.401E-3	-19.4144E-3
-757.879E-6	-27.7032E-12	362.969E-3	-21.7100E-3	-27.1860E-12	313.300E-3	-19.7278E-3
-762.881E-6	-28.0187E-12	350.338E-3	-9.35094E-3	-27.5562E-12	315.892E-3	-30.4321E-3
-767.884E-6	-28.3648E-12	350.716E-3	-9.63281E-3	-28.1237E-12	320.575E-3	-28.5315E-3
-772.886E-6	-28.4332E-12	344.109E-3	-18.7474E-3	-28.1720E-12	310.519E-3	-12.8488E-3
-777.889E-6	-28.4425E-12	326.057E-3	-21.5929E-3	-28.2966E-12	289.777E-3	27.4398E-6
-782.891E-6	-28.6115E-12	322.462E-3	-13.6264E-3	-28.7111E-12	280.879E-3	2.84487E-3
-787.894E-6	-28.7956E-12	334.451E-3	-6.59589E-3	-28.9562E-12	284.684E-3	-7.80226E-3
-792.896E-6	-28.8263E-12	334.256E-3	-11.5140E-3	-29.2546E-12	283.930E-3	-22.8347E-3
-797.899E-6	-28.7778E-12	310.162E-3	-26.9397E-3	-29.4039E-12	273.785E-3	-22.7692E-3
-802.901E-6	-28.9888E-12	290.808E-3	-33.3917E-3	-29.4396E-12	259.431E-3	-14.3477E-3
-807.904E-6	-29.1953E-12	288.363E-3	-13.8237E-3	-29.4551E-12	245.327E-3	-20.5035E-3
-812.906E-6	-29.2474E-12	276.716E-3	7.18881E-3	-29.5267E-12	234.395E-3	-22.1998E-3
-817.909E-6	-29.2038E-12	264.289E-3	-1.53648E-3	-29.3600E-12	233.145E-3	-7.79007E-3
-822.911E-6	-29.0402E-12	258.995E-3	-17.2076E-3	-29.1711E-12	229.807E-3	-5.91456E-3
-827.914E-6	-29.4683E-12	257.435E-3	-11.5726E-3	-28.8373E-12	218.124E-3	-11.0004E-3
-832.916E-6	-29.7127E-12	256.409E-3	2.02049E-3	-28.7841E-12	214.705E-3	-8.00077E-3
-837.919E-6	-29.9170E-12	240.137E-3	1.35297E-3	-28.6814E-12	218.730E-3	-12.2723E-3
-842.921E-6	-29.7889E-12	217.818E-3	-4.97591E-3	-28.7014E-12	218.330E-3	-15.5981E-3
-847.924E-6	-29.8303E-12	207.138E-3	2.61698E-3	-28.6303E-12	215.542E-3	-4.49878E-3
-852.926E-6	-29.9530E-12	212.970E-3	5.75738E-3	-28.6920E-12	206.478E-3	-2.76279E-3
-857.929E-6	-30.1668E-12	215.932E-3	-5.39090E-3	-29.1553E-12	192.624E-3	-16.2239E-3
-862.931E-6	-30.1286E-12	217.143E-3	-17.4757E-3	-29.5648E-12	197.225E-3	-17.4031E-3
-867.934E-6	-29.9860E-12	224.497E-3	-26.5029E-3	-29.6503E-12	213.459E-3	-9.12620E-3
-872.936E-6	-29.9925E-12	208.844E-3	-27.3242E-3	-29.6614E-12	222.015E-3	-2.32564E-3
-877.939E-6	-29.9734E-12	182.422E-3	-28.8133E-3	-29.9047E-12	216.710E-3	3.60408E-3
-882.941E-6	-29.9314E-12	178.443E-3	-39.2827E-3	-30.1374E-12	201.524E-3	4.34357E-3
-887.944E-6	-29.7744E-12	181.396E-3	-35.3839E-3	-30.2962E-12	186.839E-3	2.08395E-3
-892.946E-6	-29.8916E-12	177.784E-3	-14.9271E-3	-30.0911E-12	176.690E-3	350.865E-6
-897.949E-6	-29.9977E-12	176.811E-3	-6.20955E-3	-30.3246E-12	167.570E-3	1.19649E-3
-902.951E-6	-30.0258E-12	177.083E-3	-9.40015E-3	-30.4315E-12	162.227E-3	4.03986E-3
-907.954E-6	-30.1598E-12	179.132E-3	-14.6917E-3	-30.3826E-12	174.394E-3	1.82801E-3
-912.956E-6	-30.2199E-12	186.655E-3	-11.4188E-3	-30.0551E-12	197.430E-3	-3.65077E-3
-917.959E-6	-30.4672E-12	183.769E-3	-9.23013E-3	-29.9446E-12	203.331E-3	-516.976E-6
-922.961E-6	-30.6892E-12	166.713E-3	-23.8943E-3	-29.6955E-12	189.313E-3	10.8598E-3
-927.964E-6	-30.6254E-12	161.632E-3	-22.7200E-3	-29.9298E-12	187.248E-3	12.3453E-3
-932.966E-6	-30.7586E-12	174.805E-3	-10.0062E-3	-29.8247E-12	191.040E-3	-4.83176E-3
-937.969E-6	-30.9354E-12	188.948E-3	-19.6536E-3	-30.0018E-12	181.474E-3	-14.4540E-3
-942.971E-6	-31.1832E-12	188.939E-3	-27.9664E-3	-30.0572E-12	178.400E-3	-12.1015E-3
-947.974E-6	-31.0792E-12	177.640E-3	-25.4548E-3	-30.4560E-12	181.382E-3	-13.9777E-3
-952.976E-6	-31.1977E-12	170.235E-3	-33.5395E-3	-30.4281E-12	183.263E-3	-2.11289E-3
-957.979E-6	-31.1078E-12	170.970E-3	-35.9914E-3	-30.6439E-12	191.142E-3	17.1320E-3
-962.981E-6	-31.1980E-12	172.607E-3	-13.1267E-3	-30.8786E-12	189.607E-3	19.7055E-3
-967.984E-6	-31.2547E-12	172.786E-3	10.1578E-3	-31.1533E-12	178.076E-3	3.65235E-3
-972.986E-6	-31.1638E-12	180.443E-3	11.7088E-3	-31.2069E-12	177.305E-3	-12.8412E-3
-977.989E-6	-30.9105E-12	189.189E-3	4.45092E-3	-31.3903E-12	186.125E-3	-20.8613E-3
-982.991E-6	-30.9501E-12	186.822E-3	-4.45711E-3	-31.6234E-12	194.156E-3	-21.0475E-3
-987.994E-6	-30.9191E-12	181.109E-3	-10.7038E-3	-31.4492E-12	206.759E-3	-7.31925E-3
-992.997E-6	-31.1106E-12	182.625E-3	-4.35975E-3	-31.4571E-12	215.150E-3	-5.29506E-3
-997.999E-6	-31.1446E-12	188.611E-3	5.34866E-3	-31.4260E-12	213.639E-3	-18.7032E-3
-1.00300E-3	-31.1574E-12	195.072E-3	2.27724E-3	-31.2270E-12	219.982E-3	-17.2875E-3
-1.00800E-3	-31.3606E-12	200.738E-3	-5.88725E-3	-31.4450E-12	217.675E-3	-18.1317E-3
-1.01301E-3	-31.7545E-12	197.924E-3	-11.9430E-3	-31.4557E-12	202.089E-3	-36.2425E-3
-1.01801E-3	-32.0733E-12	193.191E-3	-7.63849E-3	-31.6123E-12	198.872E-3	-31.2308E-3
-1.02301E-3	-31.8480E-12	198.310E-3	16.3969E-3	-31.4329E-12	210.937E-3	-7.81375E-3
-1.02801E-3	-31.8959E-12	211.674E-3	18.6403E-3	-31.9111E-12	227.510E-3	-4.73118E-3
-1.03302E-3	-32.4322E-12	218.132E-3	-9.29551E-3	-32.0345E-12	235.953E-3	-5.31759E-3
-1.03802E-3	-32.5413E-12	218.610E-3	-20.7433E-3	-32.0449E-12	241.139E-3	-6.82942E-3
-1.04302E-3	-32.2252E-12	226.087E-3	-13.2184E-3	-32.0651E-12	249.156E-3	-13.8952E-3
-1.04802E-3	-32.0261E-12	240.188E-3	-6.60156E-3	-32.2561E-12	261.126E-3	-6.56531E-3
-1.05303E-3	-32.3668E-12	245.480E-3	-9.65689E-3	-32.5667E-12	273.832E-3	5.62243E-3
-1.05803E-3	-32.7796E-12	234.653E-3	-22.9026E-3	-32.4191E-12	281.314E-3	3.00507E-3
-1.06303E-3	-32.4934E-12	233.444E-3	-36.2249E-3	-32.2337E-12	288.883E-3	-14.1638E-3
-1.06803E-3	-32.1951E-12	238.020E-3	-26.2596E-3	-32.3283E-12	299.357E-3	-24.2106E-3
-1.07304E-3	-32.3691E-12	240.286E-3	-6.99187E-3	-32.9412E-12	297.982E-3	-20.9445E-3
-1.07804E-3	-32.5831E-12	259.186E-3	-14.7783E-3	-32.6390E-12	296.301E-3	-25.4313E-3
-1.08304E-3	-32.5692E-12	271.123E-3	-27.4748E-3	-32.4420E-12	311.168E-3	-35.6028E-3
-1.08804E-3	-32.5223E-12	263.818E-3	-27.4302E-3	-32.3860E-12	313.055E-3	-34.9988E-3
-1.09305E-3	-32.9778E-12	264.725E-3	-30.7688E-3	-33.1183E-12	304.045E-3	-19.3949E-3
-1.09805E-3	-33.1758E-12	278.662E-3	-27.8733E-3	-33.3172E-12	315.895E-3	-6.86870E-3
-1.10305E-3	-33.3211E-12	301.142E-3	-20.4405E-3	-33.0594E-12	333.368E-3	-8.18186E-3
-1.10805E-3	-33.3834E-12	325.016E-3	-21.7594E-3	-33.1705E-12	345.697E-3	-7.48416E-3
-1.11306E-3	-33.8150E-12	325.682E-3	-18.9718E-3	-34.0033E-12	368.914E-3	-12.7780E-3
-1.11806E-3	-33.9758E-12	315.210E-3	-7.88225E-3	-34.3787E-12	376.705E-3	-32.7776E-3
-1.12306E-3	-34.2116E-12	323.543E-3	-5.29282E-3	-34.3890E-12	370.499E-3	-40.9043E-3
-1.12806E-3	-34.1625E-12	339.178E-3	-12.5314E-3	-34.3668E-12	380.108E-3	-31.6815E-3
-1.13307E-3	-34.3959E-12	351.194E-3	-16.4999E-3	-34.7586E-12	390.010E-3	-23.3614E-3
-1.13807E-3	-34.6379E-12	360.316E-3	-14.7035E-3	-34.8442E-12	397.014E-3	-19.7887E-3
-1.14307E-3	-34.7426E-12	374.422E-3	-12.9362E-3	-34.9184E-12	411.015E-3	-13.4248E-3
-1.14807E-3	-34.7663E-12	393.792E-3	-16.2456E-3	-34.7671E-12	432.407E-3	-5.05817E-3
-1.15308E-3	-34.9245E-12	402.625E-3	-22.4893E-3	-34.9294E-12	456.018E-3	-8.89206E-3
-1.15808E-3	-35.0120E-12	408.749E-3	-23.5992E-3	-34.9358E-12	467.308E-3	-14.4346E-3
-1.16308E-3	-34.9582E-12	416.100E-3	-19.1856E-3	-35.0373E-12	471.368E-3	-9.24978E-3
-1.16808E-3	-35.2250E-12	424.119E-3	-29.0174E-3	-34.8765E-12	480.257E-3	-7.55274E-3
-1.17309E-3	-35.4244E-12	445.518E-3	-38.4746E-3	-34.8931E-12	497.138E-3	-13.7627E-3
-1.17809E-3	-35.3655E-12	449.134E-3	-31.0422E-3	-34.7943E-12	511.292E-3	-25.6452E-3
-1.18309E-3	-35.3488E-12	431.356E-3	-30.5420E-3	-34.9611E-12	507.845E-3	-30.9376E-3
-1.18809E-3	-35.8275E-12	444.324E-3	-27.7029E-3	-35.3470E-12	512.068E-3	-18.1597E-3
-1.19310E-3	-36.3545E-12	475.643E-3	-9.59336E-3	-35.3848E-12	547.115E-3	-5.68762E-3
-1.19810E-3	-36.3608E-12	492.086E-3	-3.97300E-3	-35.6575E-12	583.043E-3	-9.08286E-3
-1.20310E-3	-36.4428E-12	495.467E-3	-10.0307E-3	-36.0193E-12	589.861E-3	-17.3183E-3
-1.20810E-3	-37.0116E-12	501.513E-3	-6.93297E-3	-36.7289E-12	585.985E-3	-24.4293E-3
-1.21311E-3	-37.3329E-12	519.547E-3	-5.49603E-3	-37.2720E-12	591.850E-3	-23.4655E-3
-1.21811E-3	-37.2039E-12	537.324E-3	-18.4342E-3	-37.3221E-12	606.527E-3	-17.2231E-3
-1.22311E-3	-37.1449E-12	554.235E-3	-31.3865E-3	-37.6175E-12	623.053E-3	-17.1468E-3
-1.22811E-3	-37.3117E-12	570.687E-3	-25.6824E-3	-37.7764E-12	627.053E-3	-22.6306E-3
-1.23312E-3	-37.6897E-12	585.993E-3	-8.86444E-3	-37.9491E-12	628.460E-3	-22.6299E-3
-1.23812E-3	-37.5170E-12	600.679E-3	-7.00075E-3	-37.9575E-12	644.737E-3	-12.3655E-3
-1.24312E-3	-37.8347E-12	606.962E-3	-18.3707E-3	-38.5154E-12	666.955E-3	-7.31096E-3
-1.24812E-3	-37.9931E-12	614.597E-3	-20.0329E-3	-38.3109E-12	684.902E-3	-13.1658E-3
-1.25313E-3	-38.3561E-12	627.253E-3	-16.6351E-3	-38.1784E-12	696.889E-3	-26.8414E-3
-1.25813E-3	-38.6032E-12	634.053E-3	-14.7417E-3	-38.3435E-12	701.567E-3	-33.9238E-3
-1.26313E-3	-38.7495E-12	634.536E-3	-11.4106E-3	-38.4657E-12	716.676E-3	-28.1503E-3
-1.26813E-3	-39.1011E-12	646.746E-3	-15.0175E-3	-38.6611E-12	740.417E-3	-25.4199E-3
-1.27314E-3	-39.1386E-12	677.636E-3	-21.5921E-3	-38.6879E-12	759.747E-3	-27.0589E-3
-1.27814E-3	-39.6362E-12	705.129E-3	-20.2304E-3	-39.0206E-12	770.325E-3	-26.3784E-3
-1.28314E-3	-39.8776E-12	718.261E-3	-19.4831E-3	-39.2450E-12	774.629E-3	-22.8614E-3
-1.28814E-3	-40.1828E-12	729.030E-3	-21.2561E-3	-39.5840E-12	796.500E-3	-19.9193E-3
-1.29315E-3	-40.1039E-12	744.641E-3	-16.3986E-3	-40.0405E-12	834.253E-3	-19.2091E-3
-1.29815E-3	-40.5670E-12	759.557E-3	-11.8803E-3	-40.5246E-12	859.595E-3	-24.1443E-3
-1.30315E-3	-41.1824E-12	767.166E-3	-19.5199E-3	-41.0549E-12	858.651E-3	-28.9215E-3
-1.30815E-3	-41.2804E-12	782.183E-3	-29.4777E-3	-41.2736E-12	850.552E-3	-19.3316E-3
-1.31316E-3	-41.2808E-12	806.267E-3	-29.2612E-3	-41.6183E-12	853.106E-3	-9.43988E-3
-1.31816E-3	-41.1987E-12	822.199E-3	-23.0979E-3	-41.9531E-12	870.396E-3	-12.0185E-3
-1.32316E-3	-41.7739E-12	841.364E-3	-24.2426E-3	-42.5606E-12	888.632E-3	-11.7085E-3
-1.32816E-3	-42.2231E-12	868.256E-3	-27.7214E-3	-42.5656E-12	899.370E-3	-10.6997E-3
-1.33317E-3	-41.9851E-12	879.490E-3	-12.9689E-3	-42.5679E-12	914.642E-3	-12.8164E-3
-1.33817E-3	-41.8689E-12	871.805E-3	4.19077E-3	-42.4274E-12	918.525E-3	-7.23141E-3
-1.34317E-3	-42.7614E-12	865.743E-3	798.994E-6	-42.6570E-12	914.932E-3	1.67980E-3
-1.34817E-3	-43.3711E-12	875.541E-3	-1.63907E-3	-42.7399E-12	927.799E-3	-7.97576E-3
-1.35318E-3	-43.6342E-12	896.093E-3	6.74220E-3	-42.5548E-12	942.327E-3	-28.2217E-3
-1.35818E-3	-43.4585E-12	916.873E-3	3.58557E-3	-43.0582E-12	953.294E-3	-29.4635E-3
-1.36318E-3	-44.3001E-12	935.266E-3	-5.58681E-3	-43.4182E-12	962.433E-3	-16.5093E-3
-1.36818E-3	-44.8263E-12	946.408E-3	-7.30462E-3	-44.1194E-12	967.860E-3	-15.2692E-3
-1.37319E-3	-45.2971E-12	955.534E-3	-13.1741E-3	-44.1776E-12	982.944E-3	-21.7076E-3
-1.37819E-3	-45.1009E-12	967.593E-3	-26.2665E-3	-44.8177E-12	1.00774E+0	-24.5651E-3
-1.38319E-3	-45.2661E-12	977.267E-3	-29.7480E-3	-45.1079E-12	1.02102E+0	-20.8131E-3
-1.38819E-3	-46.0274E-12	988.099E-3	-15.4502E-3	-46.1174E-12	1.01347E+0	-9.91168E-3
-1.39320E-3	-46.5017E-12	1.00398E+0	-6.66192E-3	-46.2278E-12	1.01205E+0	-6.53400E-3
-1.39820E-3	-46.4316E-12	1.01607E+0	-14.1449E-3	-46.6927E-12	1.02104E+0	-11.7660E-3
-1.40320E-3	-46.5654E-12	1.01569E+0	-20.1533E-3	-47.2516E-12	1.01768E+0	-10.4906E-3
-1.40820E-3	-47.4459E-12	1.00929E+0	-27.9070E-3	-47.5296E-12	1.02163E+0	33.4039E-6
-1.41321E-3	-47.1664E-12	1.00512E+0	-31.2074E-3	-48.1616E-12	1.04237E+0	-2.52200E-3
-1.41821E-3	-47.3529E-12	1.01139E+0	-17.5216E-3	-48.1836E-12	1.05366E+0	-17.6288E-3
-1.42321E-3	-47.9111E-12	1.02232E+0	-4.35166E-3	-48.5412E-12	1.05481E+0	-24.6346E-3
-1.42821E-3	-48.2311E-12	1.03120E+0	-3.87847E-3	-48.5806E-12	1.05262E+0	-39.0471E-3
-1.43322E-3	-48.4911E-12	1.04579E+0	-15.6116E-3	-49.2984E-12	1.05044E+0	-50.2738E-3
-1.43822E-3	-48.9905E-12	1.04761E+0	-17.8571E-3	-49.6580E-12	1.05101E+0	-36.3825E-3
-1.44322E-3	-50.0130E-12	1.02896E+0	-10.2253E-3	-49.6481E-12	1.05348E+0	-28.8159E-3
-1.44822E-3	-50.2820E-12	1.03416E+0	-18.3703E-3	-49.6710E-12	1.06789E+0	-23.2751E-3
-1.45323E-3	-50.8561E-12	1.07406E+0	-24.0260E-3	-50.0876E-12	1.09007E+0	-9.73812E-3
-1.45823E-3	-51.2737E-12	1.09857E+0	-22.7612E-3	-50.8706E-12	1.09599E+0	-16.4895E-3
-1.46323E-3	-52.0737E-12	1.09497E+0	-23.1359E-3	-51.1775E-12	1.08554E+0	-31.4925E-3
-1.46823E-3	-52.2979E-12	1.08802E+0	-17.4419E-3	-51.5441E-12	1.09994E+0	-28.6516E-3
-1.47324E-3	-52.6353E-12	1.08710E+0	-19.5321E-3	-52.0523E-12	1.13142E+0	-22.4415E-3
-1.47824E-3	-53.3073E-12	1.08876E+0	-25.3030E-3	-52.9428E-12	1.12287E+0	-19.7648E-3
-1.48324E-3	-53.3201E-12	1.09081E+0	-16.0624E-3	-53.6308E-12	1.09418E+0	-7.55505E-3
-1.48824E-3	-53.0766E-12	1.09766E+0	-3.43236E-3	-53.3729E-12	1.09362E+0	-3.09934E-3
-1.49325E-3	-53.1710E-12	1.09883E+0	-1.73964E-3	-53.8372E-12	1.10460E+0	-11.4136E-3
-1.49825E-3	-53.7048E-12	1.08675E+0	-8.67199E-3	-54.6452E-12	1.10677E+0	-19.5964E-3
-1.50325E-3	-53.6931E-12	1.08798E+0	-6.85082E-3	-54.9568E-12	1.10665E+0	-25.7029E-3
-1.50825E-3	-53.3587E-12	1.09623E+0	12.7147E-3	-54.5007E-12	1.09910E+0	-26.8592E-3
-1.51326E-3	-53.6693E-12	1.09009E+0	23.5358E-3	-54.9227E-12	1.08382E+0	-24.4086E-3
-1.51826E-3	-54.3511E-12	1.08478E+0	10.1966E-3	-55.8883E-12	1.06797E+0	-28.4890E-3
-1.52326E-3	-54.8460E-12	1.07482E+0	-5.35269E-3	-56.2934E-12	1.06242E+0	-38.5122E-3
-1.52826E-3	-55.0161E-12	1.06328E+0	-4.69313E-3	-55.9493E-12	1.07730E+0	-35.2680E-3
-1.53327E-3	-55.6654E-12	1.06615E+0	2.31020E-3	-56.0577E-12	1.09783E+0	-32.2951E-3
-1.53827E-3	-56.2250E-12	1.07148E+0	2.78033E-3	-57.0151E-12	1.08957E+0	-40.9696E-3
-1.54327E-3	-56.8527E-12	1.07633E+0	3.22137E-3	-57.7406E-12	1.05730E+0	-36.0100E-3
-1.54827E-3	-57.2255E-12	1.07319E+0	-737.392E-6	-57.5709E-12	1.05121E+0	-17.4713E-3
-1.55328E-3	-58.3338E-12	1.06452E+0	-14.0234E-3	-57.6686E-12	1.06958E+0	-11.4016E-3
-1.55828E-3	-58.6647E-12	1.06796E+0	-27.2862E-3	-58.6537E-12	1.07006E+0	-16.5591E-3
-1.56328E-3	-59.6538E-12	1.07134E+0	-29.3799E-3	-59.4413E-12	1.05852E+0	-14.5408E-3
-1.56828E-3	-59.6237E-12	1.07647E+0	-16.0295E-3	-59.3657E-12	1.05974E+0	-7.32456E-3
-1.57329E-3	-59.8204E-12	1.07732E+0	-17.2468E-3	-59.7291E-12	1.06474E+0	-9.99646E-3
-1.57829E-3	-60.1170E-12	1.07287E+0	-31.2377E-3	-60.2918E-12	1.06600E+0	-15.5492E-3
-1.58329E-3	-60.5182E-12	1.07919E+0	-25.0800E-3	-60.7578E-12	1.06669E+0	-11.7931E-3
-1.58829E-3	-60.4935E-12	1.07887E+0	-11.8924E-3	-60.6838E-12	1.05517E+0	-6.95119E-3
-1.59330E-3	-60.1576E-12	1.08155E+0	-4.39746E-3	-61.1304E-12	1.04130E+0	2.49185E-3
-1.59830E-3	-60.1276E-12	1.08210E+0	-645.429E-6	-61.4559E-12	1.02454E+0	3.04776E-3
-1.60330E-3	-60.2177E-12	1.05433E+0	-4.18791E-3	-61.4234E-12	1.00209E+0	-18.4497E-3
-1.60830E-3	-60.5555E-12	1.02575E+0	-6.85970E-3	-61.6055E-12	1.00853E+0	-24.3607E-3
-1.61331E-3	-60.7900E-12	1.01697E+0	-6.21636E-3	-61.7703E-12	1.02465E+0	-14.4253E-3
-1.61831E-3	-61.1395E-12	1.01351E+0	-12.9064E-3	-62.4165E-12	1.01849E+0	-30.0343E-3
-1.62331E-3	-61.3355E-12	1.00173E+0	-24.1100E-3	-62.7599E-12	1.01462E+0	-48.1578E-3
-1.62831E-3	-61.8560E-12	991.445E-3	-24.9079E-3	-63.1206E-12	1.01368E+0	-39.1955E-3
-1.63332E-3	-62.5390E-12	997.387E-3	-25.9506E-3	-63.1849E-12	1.00642E+0	-21.4651E-3
-1.63832E-3	-63.2766E-12	1.00637E+0	-39.7780E-3	-63.3702E-12	1.00304E+0	-10.5113E-3
-1.64332E-3	-63.4034E-12	1.00398E+0	-33.4007E-3	-64.3854E-12	999.153E-3	-10.7091E-3
-1.64832E-3	-64.1480E-12	995.116E-3	-9.06385E-3	-64.9835E-12	993.318E-3	-14.3890E-3
-1.65333E-3	-65.1893E-12	983.101E-3	-3.43293E-3	-65.1414E-12	986.621E-3	-13.8188E-3
-1.65833E-3	-65.1511E-12	979.398E-3	-7.61913E-3	-64.6633E-12	981.117E-3	-16.3766E-3
-1.66333E-3	-65.0919E-12	979.051E-3	-11.7957E-3	-65.4335E-12	981.195E-3	-20.3121E-3
-1.66833E-3	-65.2378E-12	983.104E-3	-14.5103E-3	-65.6662E-12	978.351E-3	-16.9826E-3
-1.67334E-3	-66.1353E-12	991.343E-3	-1.32886E-3	-66.4684E-12	978.241E-3	-18.5063E-3
-1.67834E-3	-66.2973E-12	985.057E-3	22.3095E-3	-66.3915E-12	977.272E-3	-27.9440E-3
-1.68334E-3	-66.0439E-12	981.357E-3	28.0040E-3	-66.3590E-12	968.812E-3	-26.3569E-3
-1.68834E-3	-66.2443E-12	988.919E-3	18.0736E-3	-66.8866E-12	966.096E-3	-23.3529E-3
-1.69335E-3	-66.9841E-12	978.538E-3	5.78543E-3	-66.8524E-12	966.272E-3	-31.1787E-3
-1.69835E-3	-67.3998E-12	949.862E-3	-18.9689E-3	-66.9403E-12	959.582E-3	-24.1956E-3
-1.70335E-3	-66.9097E-12	934.140E-3	-30.2282E-3	-67.2929E-12	955.040E-3	-6.37357E-3
-1.70835E-3	-67.2793E-12	933.369E-3	-17.9672E-3	-68.0123E-12	946.038E-3	5.46683E-3
-1.71336E-3	-67.7948E-12	929.082E-3	-13.9319E-3	-68.0745E-12	922.563E-3	11.3814E-3
-1.71836E-3	-68.7654E-12	932.582E-3	-14.7416E-3	-68.4658E-12	906.011E-3	1.85473E-3
-1.72336E-3	-68.4955E-12	938.071E-3	-7.69291E-3	-69.2495E-12	893.676E-3	-15.8164E-3
-1.72836E-3	-68.9366E-12	928.609E-3	-12.5044E-3	-69.9379E-12	884.782E-3	-20.1976E-3
-1.73337E-3	-69.3746E-12	917.748E-3	-32.8717E-3	-70.2856E-12	902.301E-3	-12.5026E-3
-1.73837E-3	-69.9310E-12	917.741E-3	-29.0564E-3	-70.3126E-12	924.186E-3	-4.05464E-3
-1.74337E-3	-69.9852E-12	928.941E-3	-6.02699E-3	-70.5571E-12	925.913E-3	-2.55892E-3
-1.74837E-3	-70.3107E-12	934.730E-3	-10.5270E-3	-71.2780E-12	914.364E-3	-14.5903E-3
-1.75338E-3	-70.1669E-12	928.862E-3	-21.0648E-3	-71.6629E-12	893.129E-3	-31.2436E-3
-1.75838E-3	-70.5682E-12	921.870E-3	-13.9702E-3	-71.3930E-12	881.263E-3	-24.7386E-3
-1.76338E-3	-71.3816E-12	912.466E-3	-10.9984E-3	-71.0330E-12	894.121E-3	-975.734E-6
-1.76838E-3	-71.6140E-12	897.411E-3	-15.8888E-3	-71.4874E-12	895.645E-3	2.23219E-3
-1.77339E-3	-71.3456E-12	895.034E-3	-20.5298E-3	-71.7089E-12	874.274E-3	-16.3372E-3
-1.77839E-3	-71.6449E-12	912.766E-3	-17.9142E-3	-71.2203E-12	862.062E-3	-25.2136E-3
-1.78339E-3	-72.5927E-12	916.208E-3	-10.3432E-3	-70.8774E-12	873.528E-3	-18.0818E-3
-1.78839E-3	-73.4380E-12	900.267E-3	84.4723E-6	-71.2122E-12	891.269E-3	-18.0568E-3
-1.79340E-3	-73.2132E-12	907.581E-3	7.52293E-3	-71.7886E-12	886.107E-3	-25.9823E-3
-1.79840E-3	-73.4103E-12	922.578E-3	12.0205E-3	-72.1490E-12	873.599E-3	-25.3128E-3
-1.80340E-3	-74.2141E-12	899.300E-3	14.0765E-3	-72.6116E-12	861.223E-3	-15.3027E-3
-1.80840E-3	-75.0859E-12	862.185E-3	-2.31120E-3	-73.1371E-12	851.431E-3	-11.1046E-3
-1.81341E-3	-75.0069E-12	853.739E-3	-16.8562E-3	-73.4929E-12	864.148E-3	-15.3467E-3
-1.81841E-3	-74.3725E-12	875.769E-3	-19.2249E-3	-74.2259E-12	881.835E-3	-13.3422E-3
-1.82341E-3	-74.9458E-12	890.513E-3	-24.7464E-3	-75.2099E-12	887.923E-3	-7.03852E-3
-1.82841E-3	-75.6526E-12	877.437E-3	-21.3100E-3	-76.0515E-12	884.208E-3	-11.7547E-3
-1.83342E-3	-75.6652E-12	860.629E-3	-9.12497E-3	-76.4112E-12	872.319E-3	-6.04658E-3
-1.83842E-3	-74.7791E-12	860.339E-3	-3.58508E-3	-77.1899E-12	868.684E-3	4.25265E-3
-1.84342E-3	-75.1383E-12	870.444E-3	-11.7421E-3	-77.7547E-12	871.541E-3	-10.6990E-3
-1.84842E-3	-75.5832E-12	871.674E-3	-21.6949E-3	-77.8442E-12	849.711E-3	-31.7291E-3
-1.85343E-3	-75.9074E-12	864.385E-3	-17.3732E-3	-77.6900E-12	829.888E-3	-36.8975E-3
-1.85843E-3	-76.1731E-12	857.002E-3	-16.9957E-3	-77.8126E-12	853.400E-3	-24.1917E-3
-1.86343E-3	-76.0020E-12	843.417E-3	-16.5596E-3	-77.8255E-12	866.461E-3	-9.83291E-3
-1.86843E-3	-76.6888E-12	835.990E-3	-4.59473E-3	-77.9128E-12	835.711E-3	-6.18408E-3
-1.87344E-3	-77.3182E-12	841.711E-3	-8.65948E-3	-77.6656E-12	813.157E-3	-10.9120E-3
-1.87844E-3	-78.3423E-12	836.170E-3	-22.5839E-3	-77.0247E-12	822.786E-3	-23.3866E-3
-1.88344E-3	-78.6138E-12	822.590E-3	-28.1906E-3	-76.9778E-12	836.627E-3	-36.1188E-3
-1.88844E-3	-78.8224E-12	822.894E-3	-40.6260E-3	-77.2976E-12	833.230E-3	-23.8479E-3
-1.89345E-3	-78.9189E-12	829.335E-3	-46.1910E-3	-77.5132E-12	822.379E-3	2.72677E-3
-1.89845E-3	-79.7758E-12	827.120E-3	-34.5083E-3	-77.6343E-12	821.860E-3	9.82521E-3
-1.90345E-3	-80.2134E-12	822.181E-3	-25.1080E-3	-78.3145E-12	828.406E-3	10.2332E-3
-1.90845E-3	-80.2694E-12	822.619E-3	-14.9187E-3	-78.8317E-12	829.422E-3	4.80462E-3
-1.91346E-3	-79.5918E-12	828.566E-3	-11.4474E-3	-79.1626E-12	829.673E-3	-11.6965E-3
-1.91846E-3	-79.9288E-12	829.111E-3	-27.3567E-3	-80.0144E-12	825.712E-3	-16.0983E-3
-1.92346E-3	-80.4535E-12	813.635E-3	-34.1914E-3	-80.8429E-12	811.990E-3	-14.2862E-3
-1.92846E-3	-80.6378E-12	794.915E-3	-25.9735E-3	-81.5915E-12	804.980E-3	-17.9968E-3
-1.93347E-3	-79.8080E-12	789.517E-3	-21.5160E-3	-81.7820E-12	810.235E-3	-16.0469E-3
-1.93847E-3	-79.9555E-12	801.086E-3	-11.0098E-3	-82.4177E-12	817.242E-3	-15.4865E-3
-1.94347E-3	-80.4725E-12	806.277E-3	5.57366E-3	-82.7093E-12	822.478E-3	-15.5564E-3
-1.94847E-3	-80.7759E-12	801.725E-3	8.81944E-3	-83.0909E-12	816.178E-3	-16.0282E-3
-1.95348E-3	-80.4284E-12	813.593E-3	-4.88106E-3	-83.4867E-12	799.575E-3	-32.0796E-3
-1.95848E-3	-80.7429E-12	826.866E-3	-11.2045E-3	-82.8534E-12	791.780E-3	-44.7039E-3
-1.96348E-3	-82.0103E-12	819.222E-3	-16.9064E-3	-82.9942E-12	796.152E-3	-29.6325E-3
-1.96848E-3	-82.1784E-12	804.965E-3	-31.0138E-3	-82.7706E-12	814.211E-3	-4.14002E-3
-1.97349E-3	-82.3312E-12	794.125E-3	-32.8307E-3	-83.0297E-12	817.889E-3	-5.28065E-3
-1.97849E-3	-83.2807E-12	795.884E-3	-24.2025E-3	-82.9590E-12	801.298E-3	-14.8655E-3
-1.98349E-3	-84.0783E-12	801.950E-3	-14.1008E-3	-82.7861E-12	793.702E-3	-6.35652E-3
-1.98849E-3	-84.5876E-12	797.052E-3	-8.65987E-3	-83.0710E-12	782.988E-3	1.48343E-3
-1.99350E-3	-84.9808E-12	802.644E-3	-20.5666E-3	-83.6773E-12	777.105E-3	-6.09777E-3
-1.99850E-3	-85.6352E-12	813.871E-3	-28.0606E-3	-84.1417E-12	795.434E-3	-21.8460E-3
-2.00350E-3	-85.4996E-12	817.472E-3	-8.25329E-3	-84.0794E-12	807.313E-3	-29.5159E-3
-2.00850E-3	-85.6451E-12	813.015E-3	1.78058E-3	-84.6643E-12	798.957E-3	-14.3759E-3
-2.01351E-3	-85.6732E-12	794.205E-3	-14.1174E-3	-85.3243E-12	793.170E-3	10.5261E-3
-2.01851E-3	-86.0624E-12	790.268E-3	-30.9452E-3	-85.8361E-12	790.018E-3	3.08928E-3
-2.02351E-3	-86.2382E-12	800.841E-3	-24.2038E-3	-85.3264E-12	778.354E-3	-17.9291E-3
-2.02851E-3	-86.0072E-12	797.283E-3	-4.23669E-3	-85.4603E-12	772.268E-3	-16.4994E-3
-2.03352E-3	-85.2398E-12	780.091E-3	-8.71252E-3	-86.0468E-12	776.025E-3	-10.9638E-3
-2.03852E-3	-86.0679E-12	760.851E-3	-28.4188E-3	-86.4364E-12	781.808E-3	-14.8297E-3
-2.04352E-3	-86.8946E-12	760.788E-3	-31.7235E-3	-86.9943E-12	785.723E-3	-15.2278E-3
-2.04852E-3	-86.7153E-12	771.103E-3	-19.7389E-3	-87.3531E-12	780.537E-3	-11.4565E-3
-2.05353E-3	-86.2822E-12	773.657E-3	-15.3959E-3	-87.5002E-12	777.112E-3	-10.1641E-3
-2.05853E-3	-87.9518E-12	781.947E-3	-22.5064E-3	-87.6972E-12	783.313E-3	1.77872E-3
-2.06353E-3	-88.9682E-12	780.978E-3	-22.6718E-3	-87.7960E-12	788.789E-3	11.2354E-3
-2.06853E-3	-89.2958E-12	769.503E-3	-15.8294E-3	-88.0942E-12	784.271E-3	-2.13120E-3
-2.07354E-3	-88.7715E-12	774.958E-3	-12.9525E-3	-88.6164E-12	768.426E-3	-20.5141E-3
-2.07854E-3	-89.3399E-12	781.575E-3	-8.33834E-3	-89.2315E-12	752.605E-3	-21.8533E-3
-2.08354E-3	-89.8261E-12	776.556E-3	5.18986E-3	-89.1703E-12	744.192E-3	-14.6749E-3
-2.08854E-3	-89.8878E-12	772.810E-3	5.17643E-3	-89.8375E-12	751.121E-3	-14.6206E-3
-2.09355E-3	-90.0342E-12	778.035E-3	-19.5284E-3	-89.4607E-12	765.161E-3	-14.8850E-3
-2.09855E-3	-89.6151E-12	777.397E-3	-33.8366E-3	-90.2914E-12	763.677E-3	-11.0499E-3
-2.10355E-3	-89.5151E-12	771.953E-3	-34.7211E-3	-90.4777E-12	768.193E-3	-5.88427E-3
-2.10855E-3	-89.2787E-12	770.732E-3	-31.9935E-3	-90.6360E-12	774.348E-3	-14.1771E-3
-2.11356E-3	-89.4861E-12	763.834E-3	-20.6405E-3	-89.7504E-12	749.945E-3	-24.7825E-3
-2.11856E-3	-89.7519E-12	764.759E-3	-26.8249E-3	-89.6806E-12	725.046E-3	-3.58060E-3
-2.12356E-3	-88.9966E-12	769.854E-3	-36.2811E-3	-90.2555E-12	725.855E-3	13.4677E-3
-2.12856E-3	-89.0081E-12	754.147E-3	-28.9056E-3	-90.4014E-12	740.218E-3	-12.4250E-3
-2.13357E-3	-89.4409E-12	733.504E-3	-37.6828E-3	-90.3695E-12	743.864E-3	-39.7031E-3
-2.13857E-3	-90.2367E-12	733.629E-3	-39.7157E-3	-90.5048E-12	739.682E-3	-27.3752E-3
-2.14357E-3	-89.9147E-12	741.841E-3	-14.0908E-3	-91.3569E-12	745.250E-3	108.233E-6
-2.14857E-3	-90.2994E-12	745.876E-3	-2.24542E-3	-91.7974E-12	754.890E-3	3.02128E-3
-2.15358E-3	-91.5058E-12	749.134E-3	-10.3821E-3	-91.8913E-12	750.094E-3	-17.1733E-3
-2.15858E-3	-92.6868E-12	751.551E-3	-17.8515E-3	-92.1899E-12	733.953E-3	-35.9452E-3
-2.16358E-3	-92.6655E-12	751.131E-3	-25.8895E-3	-93.3027E-12	736.215E-3	-30.5550E-3
-2.16858E-3	-93.1986E-12	741.194E-3	-30.4538E-3	-93.9762E-12	748.278E-3	-13.0604E-3
-2.17359E-3	-94.2404E-12	747.160E-3	-33.7450E-3	-94.3644E-12	757.710E-3	-366.603E-6
-2.17859E-3	-95.0416E-12	763.979E-3	-40.7173E-3	-94.7588E-12	756.277E-3	3.58414E-3
-2.18359E-3	-94.5129E-12	761.461E-3	-36.9382E-3	-94.6953E-12	747.467E-3	-14.1969E-3
-2.18859E-3	-94.1276E-12	747.222E-3	-27.6076E-3	-95.3539E-12	745.696E-3	-29.3015E-3
-2.19360E-3	-94.4604E-12	736.890E-3	-16.1313E-3	-95.3588E-12	746.977E-3	-17.9810E-3
-2.19860E-3	-94.2153E-12	747.264E-3	-8.20297E-3	-95.0506E-12	747.642E-3	-3.83105E-3
-2.20360E-3	-94.6843E-12	764.022E-3	-5.12013E-3	-94.4851E-12	739.678E-3	-459.045E-6
-2.20860E-3	-94.8241E-12	759.930E-3	-11.5082E-3	-94.1638E-12	731.077E-3	2.98774E-3
-2.21361E-3	-95.1932E-12	753.117E-3	-28.1363E-3	-94.0622E-12	726.107E-3	2.60023E-3
-2.21861E-3	-95.1106E-12	749.033E-3	-20.3432E-3	-93.8653E-12	712.137E-3	-13.2280E-3
-2.22361E-3	-95.2689E-12	738.485E-3	-4.23519E-3	-93.3324E-12	701.136E-3	-31.1161E-3
-2.22861E-3	-95.5254E-12	740.783E-3	-13.7151E-3	-92.9765E-12	716.036E-3	-31.2461E-3
-2.23362E-3	-95.8245E-12	745.882E-3	-26.8925E-3	-93.5744E-12	737.745E-3	-29.6509E-3
-2.23862E-3	-96.2694E-12	731.189E-3	-28.1387E-3	-93.7272E-12	736.418E-3	-37.6138E-3
-2.24362E-3	-96.9130E-12	723.661E-3	-14.0314E-3	-94.9501E-12	725.299E-3	-43.2690E-3
-2.24862E-3	-97.2433E-12	736.541E-3	-6.16671E-3	-95.3848E-12	721.426E-3	-39.9088E-3
-2.25363E-3	-97.3492E-12	749.344E-3	-24.3467E-3	-96.2741E-12	716.545E-3	-9.44295E-3
-2.25863E-3	-97.6069E-12	751.074E-3	-28.1484E-3	-97.2966E-12	717.347E-3	30.4518E-3
-2.26363E-3	-97.6544E-12	741.123E-3	-8.28293E-3	-98.5641E-12	734.756E-3	24.9003E-3
-2.26863E-3	-98.3645E-12	730.058E-3	145.229E-6	-99.3709E-12	751.801E-3	-10.4838E-3
-2.27364E-3	-98.4824E-12	725.389E-3	-9.89563E-3	-99.5596E-12	765.625E-3	-12.7985E-3
-2.27864E-3	-98.5721E-12	737.271E-3	-7.04243E-3	-100.055E-12	768.446E-3	6.37868E-3
-2.28364E-3	-98.5517E-12	747.992E-3	13.8558E-3	-100.256E-12	754.590E-3	4.03864E-3
-2.28864E-3	-99.1109E-12	743.414E-3	11.4986E-3	-100.745E-12	748.770E-3	-15.9388E-3
-2.29365E-3	-100.054E-12	745.605E-3	-2.47859E-3	-100.497E-12	751.554E-3	-37.5929E-3
-2.29865E-3	-100.118E-12	737.533E-3	-5.31786E-3	-100.738E-12	751.466E-3	-42.1715E-3
-2.30365E-3	-100.167E-12	733.729E-3	-9.16494E-3	-100.374E-12	755.158E-3	-23.8433E-3
-2.30865E-3	-100.243E-12	737.660E-3	-14.4037E-3	-99.6679E-12	751.503E-3	-12.4121E-3
-2.31366E-3	-100.805E-12	723.559E-3	-25.4970E-3	-99.8419E-12	742.694E-3	-11.5488E-3
-2.31866E-3	-101.322E-12	719.594E-3	-30.4339E-3	-99.3890E-12	749.555E-3	-5.14471E-3
-2.32366E-3	-101.232E-12	729.787E-3	-21.0952E-3	-99.2572E-12	742.685E-3	-20.6043E-3
-2.32866E-3	-102.058E-12	726.669E-3	-16.5334E-3	-98.8605E-12	721.692E-3	-50.3392E-3
-2.33367E-3	-102.944E-12	711.163E-3	-30.6437E-3	-99.1651E-12	726.237E-3	-53.3693E-3
-2.33867E-3	-103.802E-12	714.866E-3	-39.8615E-3	-100.198E-12	737.974E-3	-44.9490E-3
-2.34367E-3	-102.798E-12	736.619E-3	-20.9262E-3	-100.863E-12	746.696E-3	-43.1960E-3
-2.34867E-3	-102.967E-12	754.045E-3	-7.75890E-3	-101.383E-12	749.409E-3	-35.5356E-3
-2.35368E-3	-103.117E-12	750.859E-3	-24.5648E-3	-101.159E-12	731.513E-3	-16.4642E-3
-2.35868E-3	-103.446E-12	728.940E-3	-47.6834E-3	-101.707E-12	724.286E-3	-6.32091E-3
-2.36368E-3	-102.757E-12	718.437E-3	-65.5837E-3	-102.886E-12	730.626E-3	-9.02140E-3
-2.36868E-3	-102.484E-12	726.934E-3	-67.3292E-3	-103.457E-12	731.900E-3	1.30902E-3
-2.37369E-3	-102.685E-12	737.016E-3	-41.4880E-3	-102.717E-12	720.801E-3	-5.29669E-3
-2.37869E-3	-102.437E-12	739.040E-3	-12.0470E-3	-102.755E-12	692.644E-3	-32.6953E-3
-2.38369E-3	-102.862E-12	733.649E-3	7.18575E-3	-103.578E-12	680.922E-3	-36.6730E-3
-2.38869E-3	-102.642E-12	718.036E-3	7.38291E-3	-104.087E-12	699.066E-3	-34.3625E-3
-2.39370E-3	-103.416E-12	693.270E-3	-15.4583E-3	-103.310E-12	713.305E-3	-37.5740E-3
-2.39870E-3	-103.043E-12	684.963E-3	-22.3415E-3	-103.400E-12	710.071E-3	-30.9785E-3
-2.40370E-3	-104.826E-12	704.965E-3	-5.02332E-3	-103.783E-12	706.923E-3	-32.4768E-3
-2.40870E-3	-105.264E-12	714.398E-3	-5.14552E-3	-104.360E-12	712.977E-3	-36.8162E-3
-2.41371E-3	-105.545E-12	707.638E-3	-16.3541E-3	-104.488E-12	716.576E-3	-21.1894E-3
-2.41871E-3	-106.309E-12	721.724E-3	-14.8791E-3	-104.544E-12	709.607E-3	-6.06116E-3
-2.42371E-3	-106.610E-12	739.670E-3	-10.1450E-3	-104.692E-12	708.250E-3	-3.63865E-3
-2.42871E-3	-106.827E-12	736.943E-3	-17.3422E-3	-104.921E-12	713.679E-3	229.814E-6
-2.43372E-3	-106.862E-12	733.600E-3	-30.0568E-3	-105.762E-12	718.294E-3	1.76980E-3
-2.43872E-3	-108.290E-12	742.817E-3	-32.1118E-3	-105.997E-12	724.313E-3	-4.02375E-3
-2.44372E-3	-107.448E-12	752.735E-3	-32.5228E-3	-106.219E-12	726.425E-3	-6.99874E-3
-2.44872E-3	-106.381E-12	747.021E-3	-33.7626E-3	-106.749E-12	721.776E-3	-5.31580E-3
-2.45373E-3	-105.964E-12	742.607E-3	-27.3553E-3	-106.841E-12	714.952E-3	-8.97300E-3
-2.45873E-3	-106.746E-12	752.285E-3	-27.6265E-3	-106.996E-12	721.715E-3	-24.8104E-3
-2.46373E-3	-107.332E-12	745.507E-3	-44.6856E-3	-106.566E-12	733.536E-3	-35.5491E-3
-2.46873E-3	-106.216E-12	720.487E-3	-47.8634E-3	-107.171E-12	734.338E-3	-22.2801E-3
-2.47374E-3	-106.140E-12	707.266E-3	-39.6319E-3	-107.907E-12	734.756E-3	-2.45197E-3
-2.47874E-3	-107.249E-12	694.902E-3	-31.2591E-3	-107.724E-12	731.291E-3	627.075E-6
-2.48374E-3	-108.012E-12	669.565E-3	-20.9436E-3	-107.250E-12	723.538E-3	1.63184E-3
-2.48874E-3	-108.089E-12	670.758E-3	-33.3698E-3	-108.043E-12	723.525E-3	13.1079E-3
-2.49375E-3	-108.339E-12	701.773E-3	-49.5609E-3	-109.253E-12	723.354E-3	14.0540E-3
-2.49875E-3	-109.139E-12	715.164E-3	-43.6647E-3	-108.723E-12	714.330E-3	2.49547E-3
-2.50375E-3	-109.691E-12	714.952E-3	-34.6150E-3	-108.577E-12	711.491E-3	-9.96581E-3
-2.50875E-3	-110.832E-12	718.733E-3	-28.0595E-3	-108.966E-12	732.950E-3	-23.4478E-3
-2.51376E-3	-110.964E-12	713.885E-3	-15.9060E-3	-110.116E-12	742.173E-3	-31.0800E-3
-2.51876E-3	-111.039E-12	716.141E-3	-11.7394E-3	-111.114E-12	715.871E-3	-26.7839E-3
-2.52376E-3	-111.539E-12	722.172E-3	-20.2365E-3	-111.386E-12	697.690E-3	-20.2158E-3
-2.52876E-3	-112.493E-12	708.193E-3	-30.9324E-3	-110.984E-12	707.227E-3	-10.6723E-3
-2.53377E-3	-111.497E-12	710.154E-3	-21.4602E-3	-110.920E-12	714.663E-3	6.97453E-3
-2.53877E-3	-111.401E-12	730.171E-3	-656.058E-6	-111.948E-12	707.469E-3	9.45299E-3
-2.54377E-3	-111.200E-12	719.725E-3	-8.67106E-3	-112.500E-12	708.983E-3	-10.4938E-3
-2.54877E-3	-112.305E-12	691.001E-3	-14.0052E-3	-112.042E-12	710.311E-3	-26.0478E-3
-2.55378E-3	-112.352E-12	682.251E-3	-1.15923E-3	-111.188E-12	708.964E-3	-27.2807E-3
-2.55878E-3	-111.049E-12	703.631E-3	-4.46802E-3	-111.677E-12	709.205E-3	-28.2228E-3
-2.56378E-3	-111.256E-12	712.712E-3	-13.5708E-3	-112.700E-12	686.526E-3	-35.2752E-3
-2.56878E-3	-111.416E-12	683.354E-3	-18.1153E-3	-112.919E-12	674.878E-3	-46.7595E-3
-2.57379E-3	-112.763E-12	674.593E-3	-5.64600E-3	-111.499E-12	697.647E-3	-39.7760E-3
-2.57879E-3	-112.162E-12	703.431E-3	11.0942E-3	-111.671E-12	710.980E-3	-15.7217E-3
-2.58379E-3	-113.096E-12	716.377E-3	4.40431E-3	-112.594E-12	711.472E-3	-11.4896E-3
-2.58879E-3	-113.301E-12	703.990E-3	-9.36920E-3	-113.643E-12	711.633E-3	-17.2272E-3
-2.59380E-3	-114.130E-12	690.530E-3	-20.4381E-3	-113.687E-12	714.523E-3	-17.9994E-3
-2.59880E-3	-114.526E-12	680.104E-3	-15.7942E-3	-113.246E-12	713.767E-3	-15.0960E-3
-2.60380E-3	-114.673E-12	688.624E-3	-4.70312E-3	-113.749E-12	706.417E-3	7.54541E-3
-2.60880E-3	-115.460E-12	712.462E-3	-15.4048E-3	-114.762E-12	709.375E-3	25.7290E-3
-2.61381E-3	-115.437E-12	714.606E-3	-22.0404E-3	-115.311E-12	707.490E-3	9.08392E-3
-2.61881E-3	-116.679E-12	713.187E-3	-1.13461E-3	-115.002E-12	703.648E-3	-6.18482E-3
-2.62381E-3	-115.951E-12	719.495E-3	9.16976E-3	-114.928E-12	706.755E-3	16.7758E-6
-2.62881E-3	-114.895E-12	720.432E-3	-2.78090E-3	-116.046E-12	696.843E-3	-2.52124E-3
-2.63382E-3	-115.115E-12	723.109E-3	-12.2985E-3	-115.960E-12	677.639E-3	-18.9491E-3
-2.63882E-3	-115.160E-12	716.846E-3	-21.4701E-3	-115.024E-12	676.849E-3	-25.7112E-3
-2.64382E-3	-116.125E-12	702.295E-3	-45.5657E-3	-114.984E-12	686.811E-3	-20.9865E-3
-2.64882E-3	-114.941E-12	701.342E-3	-52.5152E-3	-115.214E-12	702.285E-3	-23.8020E-3
-2.65383E-3	-115.955E-12	710.782E-3	-33.9047E-3	-116.563E-12	727.523E-3	-16.3432E-3
-2.65883E-3	-115.976E-12	715.312E-3	-34.0333E-3	-115.380E-12	737.077E-3	12.4953E-3
-2.66383E-3	-116.772E-12	718.652E-3	-21.7745E-3	-115.420E-12	728.606E-3	20.4295E-3
-2.66883E-3	-116.227E-12	709.745E-3	4.88656E-3	-116.328E-12	711.498E-3	398.272E-6
-2.67384E-3	-116.854E-12	689.575E-3	-12.2598E-3	-117.539E-12	690.836E-3	-13.1950E-3
-2.67884E-3	-117.367E-12	683.202E-3	-26.6984E-3	-118.097E-12	697.520E-3	-10.7312E-3
-2.68384E-3	-117.494E-12	681.982E-3	-5.26424E-3	-117.449E-12	721.890E-3	-5.41024E-3
-2.68884E-3	-117.432E-12	686.707E-3	1.74750E-3	-118.436E-12	724.115E-3	-11.1602E-3
-2.69385E-3	-117.786E-12	699.385E-3	-8.95655E-3	-119.910E-12	713.001E-3	-9.50913E-3
-2.69885E-3	-118.293E-12	710.295E-3	-11.8182E-3	-121.300E-12	706.243E-3	11.9906E-3
-2.70385E-3	-118.206E-12	722.841E-3	-10.1348E-3	-120.304E-12	709.757E-3	15.6608E-3
-2.70885E-3	-118.255E-12	720.706E-3	-20.6542E-3	-119.744E-12	712.934E-3	-7.85829E-3
-2.71386E-3	-118.333E-12	693.729E-3	-36.5905E-3	-119.987E-12	693.234E-3	-26.9429E-3
-2.71886E-3	-118.490E-12	691.159E-3	-39.5882E-3	-120.715E-12	666.625E-3	-44.2225E-3
-2.72386E-3	-118.134E-12	716.328E-3	-22.1350E-3	-120.748E-12	664.158E-3	-48.6433E-3
-2.72886E-3	-118.693E-12	715.874E-3	7.44957E-3	-119.080E-12	681.487E-3	-17.8171E-3
-2.73387E-3	-118.789E-12	705.627E-3	-803.301E-6	-118.764E-12	700.793E-3	6.10615E-3
-2.73887E-3	-119.275E-12	706.135E-3	-39.9094E-3	-118.745E-12	703.653E-3	8.40437E-3
-2.74387E-3	-119.399E-12	704.730E-3	-38.9745E-3	-119.431E-12	691.982E-3	6.42767E-3
-2.74887E-3	-119.998E-12	700.397E-3	-25.1159E-3	-119.127E-12	683.720E-3	-21.1548E-3
-2.75388E-3	-120.820E-12	687.591E-3	-23.8644E-3	-118.796E-12	696.046E-3	-42.9907E-3
-2.75888E-3	-120.729E-12	676.999E-3	-11.3748E-3	-119.740E-12	714.788E-3	-25.9510E-3
-2.76388E-3	-120.843E-12	679.499E-3	-13.6126E-3	-120.821E-12	711.517E-3	-3.75766E-3
-2.76888E-3	-121.853E-12	685.467E-3	-28.8867E-3	-121.553E-12	696.465E-3	-3.56247E-3
-2.77389E-3	-121.838E-12	692.447E-3	-19.1369E-3	-122.109E-12	685.207E-3	-19.1383E-3
-2.77889E-3	-122.039E-12	709.883E-3	-918.971E-6	-122.958E-12	681.024E-3	-18.3603E-3
-2.78389E-3	-121.973E-12	733.259E-3	-7.27304E-3	-124.184E-12	683.316E-3	-15.7305E-3
-2.78889E-3	-123.041E-12	724.079E-3	-8.76373E-3	-124.547E-12	690.857E-3	-18.1005E-3
-2.79390E-3	-122.817E-12	701.437E-3	-5.43461E-3	-123.879E-12	695.455E-3	-8.08865E-3
-2.79890E-3	-122.421E-12	700.919E-3	-17.5793E-3	-123.566E-12	694.030E-3	-6.57104E-3
-2.80390E-3	-122.316E-12	695.408E-3	-12.4090E-3	-124.890E-12	692.116E-3	3.98726E-3
-2.80890E-3	-123.225E-12	679.513E-3	-5.12793E-3	-125.287E-12	683.721E-3	28.9997E-3
-2.81391E-3	-123.109E-12	665.071E-3	-2.38282E-3	-124.010E-12	670.162E-3	31.9662E-3
-2.81891E-3	-123.042E-12	661.753E-3	18.8055E-3	-122.835E-12	671.776E-3	16.7698E-3
-2.82391E-3	-122.636E-12	667.448E-3	14.6858E-3	-123.229E-12	695.759E-3	-2.29252E-3
-2.82891E-3	-123.512E-12	674.771E-3	-16.1819E-3	-123.713E-12	702.612E-3	-12.1532E-3
-2.83392E-3	-124.225E-12	678.235E-3	-22.6623E-3	-123.108E-12	677.141E-3	-16.4601E-3
-2.83892E-3	-124.923E-12	667.369E-3	-4.72624E-3	-121.309E-12	673.326E-3	-36.9652E-3
-2.84392E-3	-125.250E-12	661.263E-3	18.8354E-3	-122.321E-12	699.124E-3	-35.3085E-3
-2.84892E-3	-126.150E-12	675.295E-3	23.3574E-3	-123.632E-12	711.194E-3	-4.14229E-3
-2.85393E-3	-126.368E-12	682.008E-3	1.21225E-3	-124.597E-12	706.224E-3	3.19665E-3
-2.85893E-3	-127.139E-12	687.178E-3	-27.9746E-3	-124.771E-12	709.203E-3	-10.0500E-3
-2.86393E-3	-127.514E-12	714.959E-3	-54.8162E-3	-125.087E-12	726.662E-3	-22.8153E-3
-2.86893E-3	-127.193E-12	720.154E-3	-59.9174E-3	-126.739E-12	724.967E-3	-34.9280E-3
-2.87394E-3	-127.326E-12	690.322E-3	-33.5405E-3	-128.091E-12	699.884E-3	-28.6773E-3
-2.87894E-3	-127.648E-12	666.395E-3	-6.69857E-3	-128.658E-12	687.993E-3	-12.1886E-3
-2.88394E-3	-127.656E-12	656.281E-3	-4.89897E-3	-127.817E-12	694.660E-3	-9.63163E-3
-2.88894E-3	-126.981E-12	676.007E-3	-7.04974E-3	-128.773E-12	706.510E-3	-16.3081E-3
-2.89395E-3	-127.246E-12	703.653E-3	4.86138E-3	-129.668E-12	712.937E-3	-29.6377E-3
-2.89895E-3	-127.140E-12	696.684E-3	29.1256E-3	-129.998E-12	698.857E-3	-39.0257E-3
-2.90395E-3	-126.894E-12	676.006E-3	34.9552E-3	-128.980E-12	674.658E-3	-27.7077E-3
-2.90895E-3	-126.647E-12	669.675E-3	3.83896E-3	-127.246E-12	664.463E-3	-11.8295E-3
-2.91396E-3	-127.489E-12	677.384E-3	-32.1802E-3	-128.067E-12	664.185E-3	-6.93227E-3
-2.91896E-3	-128.014E-12	685.864E-3	-42.4993E-3	-129.294E-12	666.264E-3	-7.86645E-3
-2.92396E-3	-127.959E-12	694.345E-3	-26.7016E-3	-128.841E-12	673.148E-3	-18.3577E-3
-2.92896E-3	-128.575E-12	699.439E-3	-11.5963E-3	-127.857E-12	676.092E-3	-32.3139E-3
-2.93397E-3	-128.272E-12	699.880E-3	-8.78713E-3	-127.593E-12	672.265E-3	-17.8081E-3
-2.93897E-3	-128.871E-12	702.912E-3	-13.3186E-3	-128.666E-12	668.897E-3	1.98996E-3
-2.94397E-3	-128.682E-12	687.810E-3	-23.1502E-3	-129.664E-12	672.217E-3	-5.04009E-3
-2.94897E-3	-129.364E-12	675.646E-3	-21.3909E-3	-130.118E-12	672.538E-3	-4.29558E-3
-2.95398E-3	-129.857E-12	689.621E-3	-10.4120E-3	-130.042E-12	675.038E-3	-8.29402E-3
-2.95898E-3	-130.578E-12	689.252E-3	-15.2206E-3	-130.598E-12	693.580E-3	-23.4875E-3
-2.96398E-3	-129.707E-12	691.585E-3	-30.9990E-3	-132.063E-12	694.487E-3	-26.5602E-3
-2.96898E-3	-131.030E-12	711.869E-3	-41.4056E-3	-132.538E-12	678.837E-3	-30.7524E-3
-2.97399E-3	-131.204E-12	698.990E-3	-33.2958E-3	-131.898E-12	676.722E-3	-41.4240E-3
-2.97899E-3	-131.629E-12	668.874E-3	-16.3159E-3	-131.692E-12	684.700E-3	-45.9366E-3
-2.98399E-3	-131.358E-12	665.652E-3	-17.3214E-3	-132.481E-12	687.309E-3	-35.5689E-3
-2.98899E-3	-131.132E-12	676.111E-3	-14.7671E-3	-132.748E-12	689.029E-3	-27.7237E-3
-2.99400E-3	-131.687E-12	692.142E-3	-13.5517E-3	-133.150E-12	705.575E-3	-32.0818E-3
-2.99900E-3	-131.899E-12	707.148E-3	-7.46385E-3	-132.822E-12	716.872E-3	-42.6274E-3
-3.00400E-3	-131.948E-12	691.703E-3	20.5104E-3	-133.387E-12	715.293E-3	-42.7009E-3
-3.00900E-3	-131.496E-12	662.840E-3	35.2401E-3	-133.197E-12	711.154E-3	-20.7494E-3
-3.01401E-3	-132.570E-12	676.756E-3	19.0590E-3	-134.226E-12	699.720E-3	-9.72256E-3
-3.01901E-3	-132.519E-12	705.582E-3	-11.7890E-3	-134.825E-12	681.050E-3	-19.3304E-3
-3.02401E-3	-132.397E-12	697.319E-3	-33.3014E-3	-134.627E-12	672.778E-3	-7.99953E-3
-3.02901E-3	-133.131E-12	682.043E-3	-38.7111E-3	-134.230E-12	676.313E-3	5.35979E-3
-3.03402E-3	-133.808E-12	685.683E-3	-23.5603E-3	-135.062E-12	685.080E-3	-9.32446E-3
-3.03902E-3	-134.926E-12	689.816E-3	-8.90926E-3	-135.729E-12	700.601E-3	-11.5867E-3
-3.04402E-3	-135.095E-12	685.761E-3	-10.8310E-3	-135.297E-12	703.354E-3	-4.38780E-3
-3.04902E-3	-135.306E-12	686.808E-3	-6.81438E-3	-134.916E-12	687.134E-3	-17.1458E-3
-3.05403E-3	-134.943E-12	690.893E-3	2.35328E-3	-135.092E-12	686.621E-3	-28.6878E-3
-3.05903E-3	-135.887E-12	692.099E-3	-10.0723E-3	-135.224E-12	706.010E-3	-31.1375E-3
-3.06403E-3	-135.785E-12	693.291E-3	-35.6114E-3	-135.771E-12	687.271E-3	-19.1067E-3
-3.06903E-3	-134.476E-12	691.560E-3	-46.5930E-3	-134.943E-12	653.019E-3	3.51099E-3
-3.07404E-3	-134.382E-12	689.212E-3	-44.6843E-3	-134.588E-12	661.075E-3	-8.19246E-3
-3.07904E-3	-134.736E-12	687.044E-3	-41.6652E-3	-133.365E-12	684.358E-3	-35.5942E-3
-3.08404E-3	-135.602E-12	688.282E-3	-31.0502E-3	-134.607E-12	690.769E-3	-23.1708E-3
-3.08904E-3	-135.288E-12	688.901E-3	-16.3059E-3	-134.902E-12	677.019E-3	6.43604E-3
-3.09405E-3	-134.827E-12	684.921E-3	-9.67883E-3	-134.395E-12	658.239E-3	6.29595E-3
-3.09905E-3	-134.724E-12	688.069E-3	-3.97821E-3	-134.318E-12	646.227E-3	-11.7199E-3
-3.10405E-3	-136.805E-12	692.580E-3	-20.0267E-3	-135.283E-12	656.339E-3	-22.5660E-3
-3.10905E-3	-138.280E-12	691.099E-3	-43.4690E-3	-137.302E-12	679.763E-3	-27.5176E-3
-3.11406E-3	-137.635E-12	693.575E-3	-36.9098E-3	-137.198E-12	685.338E-3	-23.4739E-3
-3.11906E-3	-137.252E-12	702.914E-3	-35.3287E-3	-138.293E-12	686.785E-3	-11.4460E-3
-3.12406E-3	-138.633E-12	705.021E-3	-34.2146E-3	-137.937E-12	696.919E-3	-3.95889E-3
-3.12906E-3	-140.557E-12	694.923E-3	-19.5786E-3	-139.472E-12	702.380E-3	-434.282E-6
-3.13407E-3	-140.580E-12	689.831E-3	-27.3885E-3	-140.058E-12	695.816E-3	-6.84923E-3
-3.13907E-3	-139.607E-12	699.950E-3	-45.5011E-3	-139.934E-12	696.602E-3	-23.0574E-3
-3.14407E-3	-139.167E-12	703.418E-3	-39.6628E-3	-139.094E-12	700.130E-3	-25.5818E-3
-3.14907E-3	-140.246E-12	692.072E-3	-30.3472E-3	-139.985E-12	687.129E-3	-21.0086E-3
-3.15408E-3	-141.116E-12	698.131E-3	-24.7045E-3	-139.396E-12	675.184E-3	-16.1693E-3
-3.15908E-3	-139.493E-12	715.176E-3	862.279E-6	-138.251E-12	671.025E-3	-9.62463E-3
-3.16408E-3	-138.627E-12	705.626E-3	105.670E-6	-137.523E-12	664.107E-3	-12.8197E-3
-3.16908E-3	-139.715E-12	685.659E-3	-19.0345E-3	-137.842E-12	649.249E-3	-18.3329E-3
-3.17409E-3	-140.516E-12	666.218E-3	-13.1265E-3	-137.731E-12	645.539E-3	-15.7809E-3
-3.17909E-3	-139.759E-12	656.693E-3	-15.9191E-3	-137.334E-12	660.792E-3	-20.4486E-3
-3.18409E-3	-139.040E-12	676.079E-3	-25.2151E-3	-137.823E-12	676.843E-3	-30.7052E-3
-3.18909E-3	-139.646E-12	686.174E-3	-18.0076E-3	-139.155E-12	676.682E-3	-28.6559E-3
-3.19410E-3	-141.617E-12	674.494E-3	-5.22123E-3	-139.103E-12	678.949E-3	-18.2598E-3
-3.19910E-3	-142.712E-12	679.973E-3	-5.70780E-3	-139.393E-12	693.095E-3	-8.74408E-3
-3.20410E-3	-143.173E-12	691.432E-3	-30.9040E-3	-141.061E-12	703.656E-3	-1.23692E-3
-3.20910E-3	-143.406E-12	681.121E-3	-60.2982E-3	-142.390E-12	709.764E-3	-5.16021E-3
-3.21411E-3	-143.938E-12	666.965E-3	-67.7047E-3	-143.152E-12	705.546E-3	-22.7439E-3
-3.21911E-3	-144.602E-12	676.414E-3	-57.4697E-3	-144.117E-12	703.291E-3	-29.9473E-3
-3.22411E-3	-146.014E-12	702.291E-3	-37.2631E-3	-144.740E-12	695.085E-3	-21.4326E-3
-3.22911E-3	-146.333E-12	713.498E-3	-15.2914E-3	-144.205E-12	676.524E-3	-14.5410E-3
-3.23412E-3	-145.576E-12	716.210E-3	2.64307E-3	-144.178E-12	676.683E-3	-27.6317E-3
-3.23912E-3	-145.307E-12	701.172E-3	4.85076E-3	-144.626E-12	683.763E-3	-38.6835E-3
-3.24412E-3	-145.380E-12	678.108E-3	-16.5771E-3	-144.402E-12	681.346E-3	-21.7163E-3
-3.24912E-3	-145.137E-12	686.206E-3	-22.9971E-3	-143.867E-12	681.478E-3	-17.9260E-3
-3.25413E-3	-144.589E-12	695.055E-3	-12.0094E-3	-144.186E-12	667.318E-3	-45.6470E-3
-3.25913E-3	-144.333E-12	689.220E-3	-8.49081E-3	-142.974E-12	653.178E-3	-58.9226E-3
-3.26413E-3	-144.347E-12	684.362E-3	2.00148E-3	-143.071E-12	656.758E-3	-43.7511E-3
-3.26913E-3	-143.839E-12	667.095E-3	10.8275E-3	-141.953E-12	652.236E-3	-20.9391E-3
-3.27414E-3	-144.502E-12	660.249E-3	-3.85425E-3	-142.610E-12	650.808E-3	-4.51067E-3
-3.27914E-3	-144.982E-12	677.170E-3	-17.5644E-3	-143.318E-12	651.186E-3	-13.5164E-3
-3.28414E-3	-145.702E-12	657.943E-3	-5.90328E-3	-143.224E-12	656.314E-3	-40.9235E-3
-3.28914E-3	-145.748E-12	613.280E-3	3.01505E-3	-143.148E-12	674.860E-3	-54.4900E-3
-3.29415E-3	-146.354E-12	621.648E-3	-8.74635E-3	-143.711E-12	673.478E-3	-38.7980E-3
-3.29915E-3	-146.875E-12	651.881E-3	-29.1622E-3	-145.576E-12	673.693E-3	-20.0203E-3
-3.30415E-3	-148.292E-12	656.776E-3	-52.0924E-3	-146.906E-12	696.531E-3	-10.9213E-3
-3.30915E-3	-148.374E-12	666.532E-3	-62.5892E-3	-146.684E-12	708.594E-3	-9.89031E-3
-3.31416E-3	-149.055E-12	669.612E-3	-42.1399E-3	-146.626E-12	719.399E-3	-22.9929E-3
-3.31916E-3	-148.923E-12	657.521E-3	-15.3214E-3	-148.258E-12	730.921E-3	-26.1400E-3
-3.32416E-3	-149.263E-12	663.329E-3	-7.48139E-3	-149.106E-12	713.649E-3	-15.2452E-3
-3.32916E-3	-148.697E-12	675.219E-3	-941.512E-6	-148.154E-12	689.863E-3	-12.7551E-3
-3.33417E-3	-147.811E-12	678.571E-3	-1.54813E-3	-148.031E-12	684.569E-3	-17.4226E-3
-3.33917E-3	-147.511E-12	678.791E-3	-15.9293E-3	-148.240E-12	683.485E-3	-21.0523E-3
-3.34417E-3	-147.495E-12	676.257E-3	-16.2589E-3	-148.807E-12	682.149E-3	-21.2010E-3
-3.34917E-3	-147.572E-12	681.336E-3	-13.5032E-3	-147.923E-12	674.197E-3	-9.38230E-3
-3.35418E-3	-147.061E-12	678.124E-3	-27.3037E-3	-148.094E-12	661.362E-3	-7.38746E-3
-3.35918E-3	-147.201E-12	648.454E-3	-42.7848E-3	-147.934E-12	656.841E-3	-17.3506E-3
-3.36418E-3	-148.095E-12	624.727E-3	-33.8432E-3	-148.431E-12	664.717E-3	4.05075E-3
-3.36918E-3	-148.267E-12	628.028E-3	-7.91424E-3	-148.722E-12	683.318E-3	23.6052E-3
-3.37419E-3	-148.405E-12	635.069E-3	-18.7943E-3	-148.532E-12	693.471E-3	9.60760E-3
-3.37919E-3	-149.288E-12	647.354E-3	-40.0533E-3	-148.828E-12	691.858E-3	-5.18933E-3
-3.38419E-3	-150.457E-12	675.989E-3	-35.5391E-3	-148.545E-12	689.196E-3	-20.5404E-3
-3.38919E-3	-150.605E-12	682.570E-3	-26.2353E-3	-150.205E-12	686.747E-3	-33.2054E-3
-3.39420E-3	-150.896E-12	666.309E-3	-17.6997E-3	-150.342E-12	688.925E-3	-33.7091E-3
-3.39920E-3	-151.611E-12	680.156E-3	-4.29831E-3	-150.446E-12	699.959E-3	-26.1673E-3
-3.40420E-3	-151.981E-12	707.272E-3	8.57238E-3	-150.271E-12	682.275E-3	-15.3452E-3
-3.40920E-3	-151.502E-12	681.629E-3	5.97125E-3	-150.559E-12	640.981E-3	-20.2749E-3
-3.41421E-3	-151.454E-12	659.762E-3	-12.7990E-3	-150.924E-12	629.374E-3	-31.7013E-3
-3.41921E-3	-152.870E-12	691.150E-3	-15.5370E-3	-150.971E-12	636.487E-3	-41.0506E-3
-3.42421E-3	-153.151E-12	702.261E-3	1.05815E-3	-151.454E-12	658.145E-3	-34.9144E-3
-3.42921E-3	-151.859E-12	692.605E-3	3.50321E-3	-151.460E-12	682.570E-3	-5.22341E-3
-3.43422E-3	-151.402E-12	678.461E-3	2.98194E-3	-151.869E-12	671.551E-3	6.97926E-3
-3.43922E-3	-152.551E-12	659.708E-3	-9.52688E-3	-152.141E-12	659.282E-3	-9.25090E-3
-3.44422E-3	-154.352E-12	658.413E-3	-31.7761E-3	-151.701E-12	669.524E-3	-25.8877E-3
-3.44922E-3	-153.917E-12	671.995E-3	-38.0002E-3	-152.092E-12	674.598E-3	-28.2834E-3
-3.45423E-3	-154.265E-12	706.314E-3	-41.4521E-3	-153.031E-12	681.809E-3	-13.7747E-3
-3.45923E-3	-154.474E-12	722.267E-3	-36.8471E-3	-153.868E-12	699.227E-3	-5.91026E-3
-3.46423E-3	-155.734E-12	701.423E-3	-28.1359E-3	-153.805E-12	703.410E-3	-21.1579E-3
-3.46923E-3	-155.596E-12	686.023E-3	-30.6150E-3	-153.152E-12	690.484E-3	-21.5469E-3
-3.47424E-3	-155.975E-12	678.215E-3	-30.4681E-3	-153.622E-12	684.161E-3	-9.80821E-3
-3.47924E-3	-156.260E-12	670.775E-3	-21.0084E-3	-154.834E-12	690.934E-3	-16.0759E-3
-3.48424E-3	-156.602E-12	681.164E-3	-19.9328E-3	-154.658E-12	683.779E-3	-755.188E-6
-3.48924E-3	-156.614E-12	697.489E-3	-19.2981E-3	-154.157E-12	683.276E-3	28.3387E-3
-3.49425E-3	-157.196E-12	704.817E-3	-6.90348E-3	-154.203E-12	686.139E-3	27.4604E-3
-3.49925E-3	-155.364E-12	688.934E-3	2.51965E-3	-155.392E-12	656.560E-3	11.9956E-3
-3.50425E-3	-154.524E-12	668.468E-3	-11.5887E-3	-155.356E-12	656.260E-3	2.65592E-3
-3.50925E-3	-154.172E-12	666.973E-3	-31.8732E-3	-155.023E-12	684.546E-3	-11.6689E-3
-3.51426E-3	-154.134E-12	667.749E-3	-38.4101E-3	-154.782E-12	682.030E-3	-25.8397E-3
-3.51926E-3	-153.721E-12	664.209E-3	-50.0726E-3	-155.058E-12	676.553E-3	-20.7879E-3
-3.52426E-3	-152.581E-12	657.136E-3	-39.3166E-3	-155.624E-12	684.830E-3	-14.4176E-3
-3.52926E-3	-153.639E-12	654.825E-3	6.86150E-3	-156.426E-12	684.021E-3	-14.8227E-3
-3.53427E-3	-155.594E-12	652.074E-3	33.7920E-3	-156.523E-12	677.484E-3	-7.72991E-3
-3.53927E-3	-156.544E-12	653.731E-3	21.8661E-3	-157.379E-12	672.640E-3	-5.66854E-3
-3.54427E-3	-155.690E-12	652.861E-3	-116.010E-6	-158.239E-12	668.712E-3	-10.2178E-3
-3.54927E-3	-156.254E-12	643.496E-3	-21.4527E-3	-158.941E-12	677.238E-3	-2.96443E-3
-3.55428E-3	-158.035E-12	632.718E-3	-40.1805E-3	-159.330E-12	683.841E-3	2.80968E-3
-3.55928E-3	-159.679E-12	632.321E-3	-42.1203E-3	-159.235E-12	673.296E-3	-6.06299E-3
-3.56428E-3	-159.552E-12	645.151E-3	-25.5909E-3	-159.202E-12	672.594E-3	-21.0136E-3
-3.56928E-3	-158.552E-12	660.372E-3	209.900E-6	-159.714E-12	678.212E-3	-13.8762E-3
-3.57429E-3	-159.420E-12	673.024E-3	720.642E-6	-159.635E-12	668.148E-3	1.77475E-3
-3.57929E-3	-160.121E-12	664.655E-3	-29.7294E-3	-159.756E-12	664.440E-3	-18.4788E-3
-3.58429E-3	-159.219E-12	663.263E-3	-48.2540E-3	-158.882E-12	666.076E-3	-39.9552E-3
-3.58929E-3	-157.523E-12	675.915E-3	-32.5727E-3	-158.384E-12	667.782E-3	-33.6704E-3
-3.59430E-3	-156.380E-12	684.212E-3	-5.74811E-3	-157.877E-12	675.145E-3	-23.2847E-3
-3.59930E-3	-156.418E-12	692.510E-3	-3.52801E-3	-157.419E-12	671.194E-3	-22.4612E-3
-3.60430E-3	-157.666E-12	679.701E-3	-12.0182E-3	-157.017E-12	667.662E-3	-28.7585E-3
-3.60930E-3	-156.583E-12	661.821E-3	-20.1846E-3	-157.936E-12	663.314E-3	-35.3193E-3
-3.61431E-3	-155.774E-12	659.151E-3	-38.1828E-3	-158.763E-12	659.028E-3	-49.8987E-3
-3.61931E-3	-155.705E-12	647.598E-3	-37.8394E-3	-158.161E-12	666.814E-3	-51.8398E-3
-3.62431E-3	-157.661E-12	630.154E-3	-17.3515E-3	-159.063E-12	669.020E-3	-39.0637E-3
-3.62931E-3	-159.894E-12	634.740E-3	-14.0103E-3	-159.575E-12	674.460E-3	-33.0048E-3
-3.63432E-3	-160.212E-12	666.568E-3	-18.8356E-3	-160.542E-12	677.848E-3	-24.2839E-3
-3.63932E-3	-160.632E-12	688.326E-3	-30.3825E-3	-160.954E-12	669.603E-3	-12.7373E-3
-3.64432E-3	-161.980E-12	680.981E-3	-50.7781E-3	-162.290E-12	672.561E-3	-11.9365E-3
-3.64932E-3	-163.008E-12	680.781E-3	-42.6928E-3	-162.558E-12	670.962E-3	-17.7965E-3
-3.65433E-3	-163.055E-12	683.766E-3	-11.1836E-3	-162.497E-12	673.248E-3	-2.48020E-3
-3.65933E-3	-163.785E-12	667.816E-3	2.49904E-3	-163.019E-12	691.787E-3	19.3311E-3
-3.66433E-3	-163.519E-12	666.042E-3	-9.45770E-3	-162.787E-12	679.416E-3	19.4226E-3
-3.66933E-3	-164.480E-12	668.320E-3	-26.6660E-3	-163.727E-12	646.918E-3	16.1348E-3
-3.67434E-3	-164.577E-12	656.397E-3	-40.1559E-3	-162.798E-12	652.506E-3	12.3153E-3
-3.67934E-3	-163.187E-12	676.149E-3	-51.9975E-3	-162.613E-12	688.771E-3	-2.43493E-3
-3.68434E-3	-162.335E-12	709.213E-3	-42.3110E-3	-162.266E-12	699.571E-3	-8.18415E-3
-3.68934E-3	-163.554E-12	696.429E-3	-27.8678E-3	-162.933E-12	684.270E-3	5.47698E-3
-3.69435E-3	-163.484E-12	682.038E-3	-20.9915E-3	-162.155E-12	686.325E-3	5.45616E-3
-3.69935E-3	-162.129E-12	701.455E-3	2.04547E-3	-161.158E-12	692.340E-3	-22.5950E-3
-3.70435E-3	-162.810E-12	699.912E-3	749.808E-6	-161.660E-12	668.317E-3	-43.1664E-3
-3.70935E-3	-163.842E-12	687.973E-3	-27.1525E-3	-161.910E-12	645.725E-3	-31.1355E-3
-3.71436E-3	-165.403E-12	687.358E-3	-34.3946E-3	-162.501E-12	659.582E-3	-20.1539E-3
-3.71936E-3	-164.881E-12	691.432E-3	-42.7909E-3	-163.067E-12	685.286E-3	-26.0017E-3
-3.72436E-3	-165.752E-12	696.408E-3	-53.2186E-3	-163.468E-12	689.826E-3	-31.7415E-3
-3.72936E-3	-167.906E-12	670.924E-3	-33.7082E-3	-164.140E-12	669.529E-3	-46.3816E-3
-3.73437E-3	-169.222E-12	639.969E-3	-25.2451E-3	-165.866E-12	646.052E-3	-51.9062E-3
-3.73937E-3	-169.005E-12	641.620E-3	-43.3327E-3	-167.109E-12	648.444E-3	-38.0649E-3
-3.74437E-3	-167.987E-12	666.722E-3	-47.1030E-3	-167.337E-12	652.101E-3	-22.9024E-3
-3.74937E-3	-169.078E-12	675.469E-3	-48.1925E-3	-168.026E-12	646.632E-3	-10.1157E-3
-3.75438E-3	-168.787E-12	668.529E-3	-51.5621E-3	-169.040E-12	686.034E-3	-3.47175E-3
-3.75938E-3	-168.311E-12	686.792E-3	-31.0257E-3	-169.574E-12	724.777E-3	-4.25014E-3
-3.76438E-3	-166.748E-12	699.394E-3	-7.70029E-3	-168.168E-12	699.325E-3	6.20324E-3
-3.76938E-3	-165.884E-12	693.067E-3	-16.0215E-3	-168.986E-12	651.389E-3	9.71429E-3
-3.77439E-3	-164.711E-12	676.194E-3	-25.4808E-3	-168.415E-12	626.401E-3	-12.5766E-3
-3.77939E-3	-164.382E-12	638.615E-3	-17.3519E-3	-168.302E-12	628.490E-3	-16.7312E-3
-3.78439E-3	-164.936E-12	635.238E-3	-21.6008E-3	-166.713E-12	642.274E-3	-16.7032E-3
-3.78939E-3	-165.518E-12	665.497E-3	-19.6959E-3	-166.100E-12	647.144E-3	-17.9105E-3
-3.79440E-3	-165.092E-12	672.365E-3	-9.43707E-3	-166.236E-12	641.532E-3	-4.62892E-3
-3.79940E-3	-165.515E-12	666.090E-3	-13.1902E-3	-165.736E-12	639.956E-3	-6.59249E-3
-3.80440E-3	-167.800E-12	657.564E-3	-11.9934E-3	-165.839E-12	630.871E-3	-14.1501E-3
-3.80940E-3	-170.004E-12	659.123E-3	-1.49435E-3	-165.977E-12	624.845E-3	-13.7941E-3
-3.81441E-3	-169.084E-12	676.115E-3	-3.32896E-3	-166.716E-12	653.075E-3	-12.4031E-3
-3.81941E-3	-169.985E-12	699.669E-3	-17.8419E-3	-167.059E-12	669.187E-3	-23.1750E-3
-3.82441E-3	-170.883E-12	704.194E-3	-28.8089E-3	-168.241E-12	651.790E-3	-34.4330E-3
-3.82941E-3	-171.778E-12	668.419E-3	-29.2662E-3	-169.243E-12	660.407E-3	-22.4487E-3
-3.83442E-3	-171.302E-12	647.318E-3	-19.1903E-3	-170.362E-12	682.685E-3	-607.038E-6
-3.83942E-3	-170.347E-12	654.393E-3	-10.6368E-3	-171.914E-12	692.086E-3	10.5509E-3
-3.84442E-3	-170.143E-12	662.967E-3	-21.0823E-3	-172.694E-12	706.373E-3	-1.25739E-3
-3.84942E-3	-170.152E-12	662.683E-3	-26.8089E-3	-172.817E-12	723.278E-3	-29.4543E-3
-3.85443E-3	-169.786E-12	645.467E-3	-6.89691E-3	-171.699E-12	726.366E-3	-38.9522E-3
-3.85943E-3	-168.617E-12	626.191E-3	-11.8444E-3	-172.663E-12	706.315E-3	-18.0844E-3
-3.86443E-3	-168.809E-12	619.905E-3	-30.7908E-3	-172.464E-12	682.252E-3	-13.3575E-3
-3.86943E-3	-168.965E-12	622.057E-3	-22.9446E-3	-172.335E-12	665.366E-3	-38.2484E-3
-3.87444E-3	-169.851E-12	637.283E-3	-10.8435E-3	-171.307E-12	657.077E-3	-37.1390E-3
-3.87944E-3	-170.376E-12	665.816E-3	-7.10793E-3	-172.067E-12	662.877E-3	-16.2537E-3
-3.88444E-3	-170.636E-12	667.140E-3	-15.6469E-3	-171.740E-12	672.032E-3	-11.0386E-3
-3.88944E-3	-172.290E-12	654.309E-3	-28.1022E-3	-172.014E-12	676.040E-3	-6.16609E-3
-3.89445E-3	-172.932E-12	661.763E-3	-15.6735E-3	-171.589E-12	684.428E-3	-6.96005E-3
-3.89945E-3	-174.150E-12	659.559E-3	8.89093E-3	-171.724E-12	690.083E-3	-17.3247E-3
-3.90445E-3	-175.008E-12	645.442E-3	11.5523E-3	-172.071E-12	684.175E-3	-17.7502E-3
-3.90945E-3	-176.352E-12	650.248E-3	-17.1705E-3	-173.161E-12	676.073E-3	-19.8175E-3
-3.91446E-3	-176.743E-12	668.206E-3	-35.7067E-3	-173.217E-12	659.158E-3	-31.4459E-3
-3.91946E-3	-175.554E-12	677.510E-3	-26.3657E-3	-173.489E-12	653.687E-3	-35.3131E-3
-3.92446E-3	-175.156E-12	675.272E-3	-19.7184E-3	-174.408E-12	658.055E-3	-45.6501E-3
-3.92946E-3	-174.723E-12	663.631E-3	-27.2432E-3	-175.431E-12	638.490E-3	-47.2983E-3
-3.93447E-3	-174.083E-12	632.402E-3	-50.4124E-3	-177.152E-12	624.590E-3	-24.0244E-3
-3.93947E-3	-172.809E-12	606.883E-3	-62.4436E-3	-177.990E-12	641.417E-3	-15.2482E-3
-3.94447E-3	-171.380E-12	616.539E-3	-49.5039E-3	-177.548E-12	656.331E-3	-14.0733E-3
-3.94947E-3	-170.742E-12	641.377E-3	-42.7332E-3	-178.080E-12	667.500E-3	-10.8493E-3
-3.95448E-3	-171.711E-12	651.902E-3	-53.7973E-3	-178.268E-12	687.518E-3	-32.2584E-3
-3.95948E-3	-172.301E-12	648.228E-3	-37.4079E-3	-179.167E-12	698.393E-3	-66.1834E-3
-3.96448E-3	-172.349E-12	637.357E-3	-18.2836E-3	-178.193E-12	676.014E-3	-58.6953E-3
-3.96948E-3	-172.772E-12	636.145E-3	-34.6150E-3	-178.287E-12	648.534E-3	-18.8364E-3
-3.97449E-3	-174.325E-12	645.242E-3	-37.2777E-3	-177.685E-12	643.153E-3	-17.9671E-3
-3.97949E-3	-176.721E-12	635.645E-3	-20.3861E-3	-178.231E-12	633.424E-3	-31.5898E-3
-3.98449E-3	-177.314E-12	631.714E-3	-20.4569E-3	-178.278E-12	641.216E-3	-24.5241E-3
-3.98949E-3	-178.390E-12	649.142E-3	-26.7575E-3	-177.389E-12	646.500E-3	-40.4275E-3
-3.99450E-3	-178.958E-12	666.477E-3	-17.2652E-3	-177.596E-12	636.174E-3	-51.2818E-3
-3.99950E-3	-179.881E-12	669.844E-3	-9.56878E-3	-177.624E-12	661.513E-3	-36.1370E-3
-4.00450E-3	-180.479E-12	679.566E-3	-15.7305E-3	-178.012E-12	693.848E-3	-28.1287E-3
-4.00950E-3	-180.611E-12	682.586E-3	-11.9315E-3	-177.626E-12	701.548E-3	-19.1316E-3
-4.01451E-3	-178.784E-12	666.906E-3	-7.29864E-3	-177.673E-12	690.274E-3	-17.7268E-3
-4.01951E-3	-179.210E-12	678.068E-3	-7.92490E-3	-178.076E-12	668.515E-3	-30.7239E-3
-4.02451E-3	-179.339E-12	686.401E-3	11.0943E-3	-180.115E-12	656.301E-3	-44.2169E-3
-4.02951E-3	-178.760E-12	661.359E-3	15.0681E-3	-178.319E-12	664.608E-3	-42.9590E-3
-4.03452E-3	-178.466E-12	649.533E-3	-15.7402E-3	-178.903E-12	667.590E-3	-25.5472E-3
-4.03952E-3	-177.582E-12	660.937E-3	-44.6151E-3	-180.528E-12	664.242E-3	-12.7796E-3
-4.04452E-3	-176.527E-12	663.238E-3	-51.8306E-3	-180.880E-12	683.108E-3	-4.56453E-3
-4.04952E-3	-176.899E-12	651.473E-3	-30.0948E-3	-179.880E-12	683.894E-3	-780.448E-6
-4.05453E-3	-179.065E-12	644.715E-3	5.91281E-3	-178.660E-12	662.309E-3	-4.55029E-3
-4.05953E-3	-179.714E-12	655.145E-3	15.1729E-3	-180.487E-12	659.985E-3	-12.1111E-3
-4.06453E-3	-180.623E-12	678.846E-3	-5.64127E-3	-181.286E-12	673.178E-3	-25.6368E-3
-4.06953E-3	-181.444E-12	698.335E-3	-13.3991E-3	-181.202E-12	664.193E-3	-43.2113E-3
-4.07454E-3	-183.968E-12	697.592E-3	-9.79449E-3	-180.760E-12	647.735E-3	-36.9034E-3
-4.07954E-3	-185.533E-12	693.158E-3	-17.0459E-3	-182.681E-12	676.610E-3	-35.0582E-3
-4.08454E-3	-185.513E-12	686.933E-3	-12.6625E-3	-182.476E-12	691.210E-3	-67.6283E-3
-4.08954E-3	-184.194E-12	680.319E-3	-14.3847E-3	-182.620E-12	667.757E-3	-69.6038E-3
-4.09455E-3	-184.765E-12	684.938E-3	-31.3860E-3	-183.383E-12	663.749E-3	-36.2010E-3
-4.09955E-3	-185.852E-12	691.606E-3	-21.9964E-3	-182.881E-12	659.904E-3	-21.7669E-3
-4.10455E-3	-184.138E-12	686.596E-3	-9.60422E-3	-181.985E-12	639.854E-3	-20.0713E-3
-4.10955E-3	-182.179E-12	666.425E-3	-30.5111E-3	-181.473E-12	636.087E-3	-8.72137E-3
-4.11456E-3	-181.827E-12	643.158E-3	-34.9511E-3	-181.867E-12	658.960E-3	16.1228E-3
-4.11956E-3	-182.890E-12	641.424E-3	-10.7895E-3	-181.923E-12	672.886E-3	28.2521E-3
-4.12456E-3	-182.851E-12	659.383E-3	4.85537E-3	-180.600E-12	668.443E-3	1.67682E-3
-4.12956E-3	-182.710E-12	662.462E-3	4.85965E-3	-181.777E-12	658.076E-3	-25.8058E-3
-4.13457E-3	-182.905E-12	634.984E-3	-22.7730E-3	-183.110E-12	664.723E-3	-24.0216E-3
-4.13957E-3	-182.560E-12	624.198E-3	-59.5519E-3	-183.374E-12	687.083E-3	-16.6086E-3
-4.14457E-3	-183.804E-12	635.607E-3	-79.3945E-3	-181.548E-12	685.690E-3	-8.99867E-3
-4.14957E-3	-185.718E-12	636.841E-3	-73.0487E-3	-183.025E-12	677.734E-3	-10.1544E-3
-4.15458E-3	-186.797E-12	641.940E-3	-38.6443E-3	-185.276E-12	676.246E-3	-24.1087E-3
-4.15958E-3	-186.738E-12	647.900E-3	-9.11678E-3	-187.413E-12	685.247E-3	-19.5650E-3
-4.16458E-3	-188.043E-12	657.271E-3	-9.92438E-3	-185.839E-12	697.912E-3	-10.7189E-3
-4.16958E-3	-189.639E-12	674.030E-3	-17.5621E-3	-186.899E-12	697.334E-3	-17.7891E-3
-4.17459E-3	-188.492E-12	683.812E-3	-29.4148E-3	-189.134E-12	695.493E-3	-35.3436E-3
-4.17959E-3	-187.806E-12	686.644E-3	-49.2983E-3	-190.485E-12	682.110E-3	-44.4547E-3
-4.18459E-3	-186.836E-12	678.547E-3	-48.6336E-3	-189.127E-12	684.520E-3	-23.0362E-3
-4.18959E-3	-186.218E-12	667.808E-3	-25.4005E-3	-188.775E-12	716.383E-3	-14.1920E-3
-4.19460E-3	-185.490E-12	670.394E-3	3.84331E-3	-189.416E-12	716.790E-3	-21.7439E-3
-4.19960E-3	-184.266E-12	669.229E-3	-7.91380E-3	-190.507E-12	698.826E-3	-8.90991E-3
-4.20460E-3	-183.105E-12	672.543E-3	-33.6752E-3	-189.478E-12	703.777E-3	-15.0599E-3
-4.20960E-3	-183.319E-12	678.518E-3	-14.3544E-3	-187.255E-12	685.690E-3	-41.8964E-3
-4.21461E-3	-184.543E-12	677.793E-3	-10.8565E-3	-185.744E-12	646.760E-3	-48.6571E-3
-4.21961E-3	-184.571E-12	690.636E-3	-11.4460E-3	-185.751E-12	628.345E-3	-45.2282E-3
-4.22461E-3	-183.812E-12	675.642E-3	27.6271E-3	-186.277E-12	616.678E-3	-42.5000E-3
-4.22961E-3	-185.007E-12	639.732E-3	24.2307E-3	-185.294E-12	636.149E-3	-51.4744E-3
-4.23462E-3	-188.135E-12	642.220E-3	-18.1823E-3	-185.400E-12	682.474E-3	-65.4075E-3
-4.23962E-3	-189.936E-12	664.236E-3	-13.1353E-3	-186.282E-12	683.126E-3	-53.2158E-3
-4.24462E-3	-190.290E-12	672.643E-3	4.23021E-3	-187.853E-12	656.827E-3	-15.4141E-3
-4.24962E-3	-190.619E-12	667.975E-3	-4.24790E-3	-187.970E-12	674.228E-3	13.2031E-3
-4.25463E-3	-190.627E-12	669.540E-3	-1.62414E-3	-188.637E-12	693.815E-3	6.75922E-3
-4.25963E-3	-191.998E-12	686.242E-3	-1.50638E-3	-190.227E-12	677.820E-3	-20.0043E-3
-4.26463E-3	-191.408E-12	690.050E-3	-16.2521E-3	-192.590E-12	685.855E-3	-60.8637E-3
-4.26963E-3	-190.359E-12	681.300E-3	-23.1488E-3	-192.610E-12	702.346E-3	-88.3784E-3
-4.27464E-3	-188.306E-12	681.582E-3	-23.1522E-3	-192.563E-12	689.910E-3	-60.2563E-3
-4.27964E-3	-188.960E-12	677.070E-3	-20.4198E-3	-193.401E-12	678.328E-3	-28.1338E-3
-4.28464E-3	-188.855E-12	669.360E-3	-3.30458E-3	-193.763E-12	657.596E-3	-38.3659E-3
-4.28964E-3	-187.421E-12	661.100E-3	21.6872E-3	-193.136E-12	636.647E-3	-44.3627E-3
-4.29465E-3	-186.204E-12	657.934E-3	-2.00643E-3	-192.031E-12	640.132E-3	-24.3271E-3
-4.29965E-3	-185.209E-12	675.902E-3	-40.1292E-3	-191.202E-12	632.373E-3	-17.1059E-3
-4.30465E-3	-187.612E-12	679.593E-3	-36.9970E-3	-190.067E-12	622.718E-3	-26.7751E-3
-4.30965E-3	-188.881E-12	661.288E-3	-26.3146E-3	-190.185E-12	635.508E-3	-18.3282E-3
-4.31466E-3	-188.666E-12	645.535E-3	-11.8030E-3	-189.862E-12	651.704E-3	806.614E-6
-4.31966E-3	-189.407E-12	641.044E-3	-25.8567E-3	-190.002E-12	675.316E-3	15.7446E-3
-4.32466E-3	-192.918E-12	659.649E-3	-57.8112E-3	-189.777E-12	676.696E-3	15.8087E-3
-4.32966E-3	-195.163E-12	673.729E-3	-26.5789E-3	-189.000E-12	634.817E-3	-5.79561E-3
-4.33467E-3	-194.851E-12	665.006E-3	14.1805E-3	-191.097E-12	614.897E-3	-20.8421E-3
-4.33967E-3	-194.777E-12	661.082E-3	-6.61305E-3	-190.912E-12	648.691E-3	-17.8206E-3
-4.34467E-3	-195.640E-12	663.607E-3	-31.8165E-3	-191.718E-12	679.652E-3	-7.40213E-3
-4.34967E-3	-198.401E-12	650.105E-3	-29.0262E-3	-191.659E-12	665.953E-3	-4.51083E-3
-4.35468E-3	-194.540E-12	642.710E-3	-15.9374E-3	-194.126E-12	642.714E-3	-18.1040E-3
-4.35968E-3	-194.257E-12	661.056E-3	-2.55383E-3	-195.403E-12	643.301E-3	-39.9554E-3
-4.36468E-3	-193.277E-12	650.858E-3	-3.65964E-3	-196.502E-12	652.319E-3	-42.7468E-3
-4.36968E-3	-195.167E-12	625.571E-3	-28.2418E-3	-196.156E-12	675.255E-3	-26.1338E-3
-4.37469E-3	-192.108E-12	641.423E-3	-62.1239E-3	-196.886E-12	691.098E-3	-3.28041E-3
-4.37969E-3	-190.901E-12	640.039E-3	-43.6065E-3	-198.439E-12	659.676E-3	21.1734E-3
-4.38469E-3	-190.763E-12	618.429E-3	-7.49485E-3	-198.387E-12	638.727E-3	21.9723E-3
-4.38969E-3	-192.143E-12	637.835E-3	-11.2672E-3	-196.017E-12	653.473E-3	-7.40124E-3
-4.39470E-3	-193.567E-12	643.285E-3	-9.13394E-3	-193.524E-12	649.274E-3	-32.4691E-3
-4.39970E-3	-193.485E-12	617.715E-3	-10.6654E-3	-193.317E-12	636.085E-3	-28.2916E-3
-4.40470E-3	-194.183E-12	632.418E-3	-22.0819E-3	-194.482E-12	638.495E-3	-21.3759E-3
-4.40970E-3	-195.406E-12	662.948E-3	-5.76215E-3	-192.633E-12	634.600E-3	-26.2144E-3
-4.41471E-3	-200.067E-12	663.170E-3	6.42140E-3	-191.877E-12	636.337E-3	-33.9886E-3
-4.41971E-3	-200.555E-12	651.119E-3	6.99041E-3	-192.056E-12	639.333E-3	-48.9016E-3
-4.42471E-3	-199.282E-12	644.857E-3	16.5382E-3	-194.007E-12	622.626E-3	-52.9398E-3
-4.42971E-3	-200.144E-12	650.318E-3	-4.33259E-3	-193.787E-12	641.463E-3	-33.6149E-3
-4.43472E-3	-201.857E-12	656.606E-3	-43.4611E-3	-192.978E-12	663.226E-3	-29.3444E-3
-4.43972E-3	-201.327E-12	654.783E-3	-37.8711E-3	-194.254E-12	637.067E-3	-38.9467E-3
-4.44472E-3	-198.867E-12	662.245E-3	-24.7749E-3	-196.633E-12	642.911E-3	-20.7548E-3
-4.44972E-3	-198.922E-12	689.085E-3	-51.7955E-3	-197.237E-12	667.498E-3	-9.05271E-3
-4.45473E-3	-198.762E-12	693.460E-3	-49.4246E-3	-196.474E-12	653.850E-3	-14.9769E-3
-4.45973E-3	-199.270E-12	676.273E-3	-4.53038E-3	-198.293E-12	649.699E-3	4.76809E-3
-4.46473E-3	-195.422E-12	678.529E-3	155.187E-6	-198.929E-12	662.714E-3	20.6476E-3
-4.46973E-3	-195.329E-12	702.255E-3	-34.5217E-3	-198.633E-12	665.265E-3	9.79293E-3
-4.47474E-3	-195.536E-12	703.134E-3	-51.9745E-3	-198.107E-12	662.638E-3	-5.69686E-3
-4.47974E-3	-197.733E-12	667.252E-3	-57.0661E-3	-199.035E-12	661.759E-3	-5.13080E-3
-4.48474E-3	-196.868E-12	647.488E-3	-56.3045E-3	-199.667E-12	661.127E-3	-21.0853E-3
-4.48974E-3	-196.613E-12	641.446E-3	-41.7251E-3	-198.830E-12	654.708E-3	-48.0952E-3
-4.49475E-3	-198.694E-12	642.138E-3	-44.2884E-3	-198.071E-12	676.196E-3	-39.2942E-3
-4.49975E-3	-200.891E-12	653.155E-3	-28.6217E-3	-198.603E-12	700.518E-3	-23.1795E-3
-4.50475E-3	-202.907E-12	654.213E-3	14.2131E-3	-198.979E-12	673.997E-3	5.45116E-3
-4.50975E-3	-201.760E-12	647.109E-3	10.3585E-3	-198.458E-12	656.005E-3	40.7155E-3
-4.51476E-3	-201.939E-12	643.353E-3	-9.63075E-3	-199.396E-12	675.298E-3	26.8961E-3
-4.51976E-3	-203.006E-12	662.814E-3	-4.27138E-3	-199.519E-12	676.917E-3	-2.75155E-3
-4.52476E-3	-204.694E-12	675.716E-3	5.43184E-3	-200.581E-12	675.870E-3	6.15020E-3
-4.52976E-3	-202.485E-12	667.119E-3	17.4930E-3	-199.871E-12	695.143E-3	-1.28864E-3
-4.53477E-3	-199.857E-12	671.477E-3	29.9929E-3	-200.172E-12	692.873E-3	-31.1591E-3
-4.53977E-3	-200.050E-12	659.724E-3	9.49739E-3	-201.228E-12	686.262E-3	-39.4179E-3
-4.54477E-3	-200.660E-12	634.071E-3	-26.7703E-3	-202.658E-12	680.018E-3	-49.0611E-3
-4.54977E-3	-199.990E-12	645.371E-3	-12.2956E-3	-202.782E-12	636.726E-3	-40.8504E-3
-4.55478E-3	-197.255E-12	663.082E-3	17.5718E-3	-202.592E-12	622.233E-3	-14.0381E-3
-4.55978E-3	-197.293E-12	662.092E-3	3.84677E-3	-201.755E-12	659.837E-3	-15.5681E-3
-4.56478E-3	-199.739E-12	651.501E-3	-2.12374E-3	-202.027E-12	668.139E-3	-25.2783E-3
-4.56978E-3	-201.395E-12	631.584E-3	794.128E-6	-202.319E-12	660.785E-3	-24.4078E-3
-4.57479E-3	-201.237E-12	632.718E-3	-39.3187E-3	-202.221E-12	668.187E-3	-19.0814E-3
-4.57979E-3	-201.319E-12	636.148E-3	-68.4548E-3	-202.600E-12	649.135E-3	-8.47617E-3
-4.58479E-3	-203.302E-12	632.082E-3	-49.0440E-3	-203.256E-12	624.916E-3	3.41578E-3
-4.58979E-3	-207.371E-12	651.390E-3	-18.1640E-3	-203.714E-12	636.914E-3	-5.21420E-3
-4.59480E-3	-207.992E-12	655.685E-3	3.54852E-3	-204.608E-12	672.495E-3	-33.9956E-3
-4.59980E-3	-206.387E-12	641.403E-3	-22.2344E-3	-205.246E-12	703.105E-3	-32.6267E-3
-4.60480E-3	-206.276E-12	645.864E-3	-55.8603E-3	-205.905E-12	703.720E-3	-5.98478E-3
-4.60980E-3	-207.599E-12	642.424E-3	-40.2773E-3	-205.828E-12	672.540E-3	-10.5484E-3
-4.61481E-3	-209.198E-12	629.010E-3	-33.1566E-3	-206.196E-12	657.125E-3	-52.2840E-3
-4.61981E-3	-205.125E-12	643.317E-3	-21.7795E-3	-205.500E-12	680.624E-3	-83.9556E-3
-4.62481E-3	-202.484E-12	654.160E-3	1.24851E-3	-206.044E-12	686.934E-3	-72.1386E-3
-4.62981E-3	-203.452E-12	649.216E-3	-9.08855E-3	-206.550E-12	659.539E-3	-41.2087E-3
-4.63482E-3	-204.567E-12	649.674E-3	-8.89440E-3	-206.106E-12	654.892E-3	-29.1069E-3
-4.63982E-3	-204.333E-12	647.696E-3	7.33606E-3	-204.808E-12	661.595E-3	-39.3734E-3
-4.64482E-3	-203.303E-12	641.071E-3	-1.84567E-3	-205.220E-12	642.017E-3	-27.5222E-3
-4.64982E-3	-202.780E-12	627.251E-3	-30.5554E-3	-205.052E-12	634.568E-3	1.76986E-3
-4.65483E-3	-205.442E-12	633.484E-3	-63.6416E-3	-203.838E-12	652.403E-3	-5.91496E-3
-4.65983E-3	-205.755E-12	644.222E-3	-67.3658E-3	-203.870E-12	658.749E-3	-27.4889E-3
-4.66483E-3	-206.277E-12	636.836E-3	-32.6874E-3	-203.839E-12	667.461E-3	-27.8269E-3
-4.66983E-3	-207.106E-12	619.930E-3	-2.81178E-3	-204.078E-12	691.419E-3	-27.5912E-3
-4.67484E-3	-209.465E-12	579.482E-3	-10.7848E-3	-205.224E-12	689.096E-3	-36.4904E-3
-4.67984E-3	-211.352E-12	587.290E-3	-28.3347E-3	-206.290E-12	668.439E-3	-30.0372E-3
-4.68484E-3	-210.910E-12	655.535E-3	-24.9930E-3	-208.039E-12	668.573E-3	-23.3798E-3
-4.68984E-3	-210.437E-12	671.995E-3	-34.3328E-3	-208.272E-12	670.755E-3	-42.3384E-3
-4.69485E-3	-210.524E-12	635.739E-3	-45.0090E-3	-210.530E-12	675.078E-3	-51.5528E-3
-4.69985E-3	-210.910E-12	635.514E-3	-4.34984E-3	-211.665E-12	680.985E-3	-35.4665E-3
-4.70485E-3	-210.272E-12	663.570E-3	46.2495E-3	-212.246E-12	665.946E-3	-20.7612E-3
-4.70985E-3	-208.956E-12	680.015E-3	23.2091E-3	-212.100E-12	653.087E-3	-2.91271E-3
-4.71486E-3	-208.779E-12	683.339E-3	-24.4835E-3	-211.454E-12	650.047E-3	12.8262E-3
-4.71986E-3	-208.133E-12	667.392E-3	-19.4396E-3	-210.450E-12	645.978E-3	18.3446E-3
-4.72486E-3	-207.416E-12	637.642E-3	-6.73313E-3	-210.476E-12	649.877E-3	19.4016E-3
-4.72986E-3	-206.879E-12	617.065E-3	9.44073E-3	-209.885E-12	664.570E-3	-7.52328E-3
-4.73487E-3	-208.132E-12	609.491E-3	31.3647E-3	-208.579E-12	654.498E-3	-17.7615E-3
-4.73987E-3	-209.216E-12	607.803E-3	18.3395E-3	-206.870E-12	640.205E-3	12.4181E-3
-4.74487E-3	-209.923E-12	631.501E-3	573.521E-6	-206.806E-12	644.721E-3	-6.56056E-3
-4.74988E-3	-210.947E-12	658.754E-3	-8.01712E-3	-206.924E-12	636.114E-3	-39.7937E-3
-4.75488E-3	-213.326E-12	654.579E-3	-23.9729E-3	-206.761E-12	632.712E-3	-18.7844E-3
-4.75988E-3	-214.877E-12	640.860E-3	-36.2101E-3	-206.498E-12	637.146E-3	-19.6787E-3
-4.76488E-3	-216.054E-12	649.869E-3	-27.6459E-3	-208.411E-12	641.972E-3	-57.9291E-3
-4.76988E-3	-215.295E-12	662.705E-3	-26.6963E-3	-210.148E-12	654.194E-3	-50.5026E-3
-4.77489E-3	-215.311E-12	668.450E-3	-53.1718E-3	-211.371E-12	654.088E-3	-24.9178E-3
-4.77989E-3	-217.253E-12	669.878E-3	-47.7277E-3	-211.453E-12	650.404E-3	-30.7899E-3
-4.78489E-3	-217.077E-12	673.468E-3	-19.2913E-3	-213.535E-12	652.856E-3	-23.0244E-3
-4.78989E-3	-215.589E-12	700.103E-3	-23.2370E-3	-215.667E-12	650.306E-3	-13.6642E-3
-4.79490E-3	-212.657E-12	705.330E-3	-26.2658E-3	-217.141E-12	648.548E-3	-27.8775E-3
-4.79990E-3	-212.196E-12	676.354E-3	-5.89288E-3	-217.212E-12	653.688E-3	-8.25128E-3
-4.80490E-3	-209.994E-12	666.971E-3	14.3854E-3	-216.487E-12	672.507E-3	39.3731E-3
-4.80990E-3	-210.511E-12	669.671E-3	13.1669E-3	-216.787E-12	698.257E-3	23.3954E-3
-4.81491E-3	-211.321E-12	659.413E-3	-13.5660E-3	-215.904E-12	691.413E-3	-32.3206E-3
-4.81991E-3	-212.003E-12	658.475E-3	-16.4466E-3	-215.503E-12	664.003E-3	-35.0695E-3
-4.82491E-3	-212.385E-12	670.895E-3	9.39546E-3	-214.871E-12	656.896E-3	-17.4827E-3
-4.82991E-3	-212.724E-12	688.163E-3	16.9873E-3	-214.263E-12	656.312E-3	-13.9998E-3
-4.83492E-3	-216.858E-12	709.008E-3	-11.3096E-3	-213.226E-12	660.411E-3	-1.38212E-3
-4.83992E-3	-215.550E-12	709.320E-3	-13.1318E-3	-212.273E-12	645.654E-3	3.04301E-3
-4.84492E-3	-217.324E-12	682.380E-3	6.82327E-3	-213.291E-12	611.608E-3	17.3854E-3
-4.84992E-3	-217.051E-12	673.488E-3	-33.4073E-3	-212.407E-12	623.460E-3	44.7209E-3
-4.85493E-3	-219.164E-12	693.126E-3	-57.9536E-3	-213.298E-12	668.255E-3	31.5032E-3
-4.85993E-3	-220.257E-12	686.382E-3	-30.7571E-3	-213.447E-12	673.669E-3	-972.935E-6
-4.86493E-3	-219.286E-12	671.695E-3	-28.4481E-3	-216.476E-12	660.828E-3	5.21729E-3
-4.86993E-3	-218.221E-12	685.398E-3	-11.3933E-3	-218.436E-12	663.257E-3	29.4795E-3
-4.87494E-3	-217.196E-12	683.247E-3	35.9395E-3	-219.796E-12	651.429E-3	25.6754E-3
-4.87994E-3	-216.573E-12	658.412E-3	21.1069E-3	-218.913E-12	644.530E-3	-6.36334E-3
-4.88494E-3	-214.912E-12	640.436E-3	-30.3538E-3	-220.266E-12	655.814E-3	-41.0656E-3
-4.88995E-3	-214.392E-12	649.873E-3	-52.4468E-3	-222.222E-12	676.796E-3	-55.3980E-3
-4.89495E-3	-213.530E-12	679.840E-3	-59.9715E-3	-221.423E-12	693.401E-3	-49.0796E-3
-4.89995E-3	-213.839E-12	680.471E-3	-40.0673E-3	-220.522E-12	682.061E-3	-51.2556E-3
-4.90495E-3	-213.557E-12	662.128E-3	-24.0789E-3	-220.380E-12	662.522E-3	-53.3457E-3
-4.90995E-3	-213.459E-12	666.506E-3	-49.1841E-3	-221.621E-12	663.896E-3	-24.8197E-3
-4.91496E-3	-213.855E-12	681.993E-3	-52.5951E-3	-220.255E-12	670.335E-3	-11.9521E-3
-4.91996E-3	-214.898E-12	685.623E-3	-22.9702E-3	-218.035E-12	656.341E-3	-41.2498E-3
-4.92496E-3	-216.162E-12	669.820E-3	2.92966E-3	-217.394E-12	651.524E-3	-62.0862E-3
-4.92996E-3	-217.012E-12	673.272E-3	9.35555E-3	-217.467E-12	674.547E-3	-51.9930E-3
-4.93497E-3	-219.003E-12	674.493E-3	3.38706E-3	-219.020E-12	673.585E-3	-36.2225E-3
-4.93997E-3	-219.966E-12	656.802E-3	-9.84389E-3	-217.362E-12	653.786E-3	-21.7994E-3
-4.94497E-3	-220.871E-12	678.618E-3	-19.0333E-3	-216.429E-12	667.373E-3	-25.1106E-3
-4.94997E-3	-219.433E-12	700.500E-3	1.49945E-3	-217.226E-12	678.276E-3	-38.5497E-3
-4.95498E-3	-221.343E-12	671.940E-3	-746.276E-6	-220.219E-12	666.392E-3	-22.2948E-3
-4.95998E-3	-220.699E-12	645.563E-3	-20.5073E-3	-221.429E-12	666.575E-3	-6.08029E-3
-4.96498E-3	-219.352E-12	639.962E-3	249.757E-6	-219.409E-12	664.000E-3	-7.60988E-3
-4.96998E-3	-217.432E-12	646.882E-3	14.9472E-3	-219.891E-12	653.298E-3	-9.15834E-3
-4.97499E-3	-217.583E-12	669.231E-3	2.22280E-3	-219.598E-12	666.689E-3	-15.2308E-3
-4.97999E-3	-217.543E-12	668.537E-3	447.127E-6	-222.328E-12	689.367E-3	-21.8936E-3
-4.98499E-3	-216.396E-12	651.513E-3	639.787E-6	-220.265E-12	695.403E-3	-18.5811E-3
-4.98999E-3	-216.322E-12	662.798E-3	5.09345E-3	-219.045E-12	681.100E-3	-10.3126E-3
-4.99500E-3	-215.860E-12	689.158E-3	-717.398E-6	-218.444E-12	651.534E-3	-19.9518E-3
-5.00000E-3	-219.341E-12	678.954E-3	-39.0884E-3	-219.902E-12	647.409E-3	-47.7588E-3
