Experiment	bias spectroscopy	
Date	19.01.2016 19:01:30	
User		
X (m)	49.9338E-9	
Y (m)	256.176E-9	
Z (m)	-132.608E-9	
Z offset (m)	0E+0	
Settling time (s)	200E-6	
Integration time (s)	5E-3	
Z-Ctrl hold	TRUE	
Final Z (m)	N/A	
Filter type	None	
Order		
Cutoff frq		
Comment01	MnPc/Pb(111)	
Comment02	dz =00pm	
Comment03	7 Sweeps	
Comment04	MagField =0.T	
Comment05	Divider 1:10	
Comment06	Setpoint:5mV,200 pA	
Comment07	Lockin: 50uVrms,5ms,5mV	
Comment08	Gain:9; 912Hz modulation	
Comment09	T=1.06K	
Bias>Bias (V)	5E-3	
Bias>Calibration (V/V)	81.475E-3	
Bias>Offset (V)	1.046E-3	
Bias Spectroscopy>Sweep Start (V)	5E-3	
Bias Spectroscopy>Sweep End (V)	-5E-3	
Bias Spectroscopy>Num Pixel	2000	
Bias Spectroscopy>Z Avg time (s)	500E-3	
Bias Spectroscopy>Z offset (m)	0E+0	
Bias Spectroscopy>1st Settling time (s)	500E-3	
Bias Spectroscopy>Settling time (s)	200E-6	
Bias Spectroscopy>Integration time (s)	5E-3	
Bias Spectroscopy>End Settling time (s)	500E-3	
Bias Spectroscopy>Z control time (s)	500E-3	
Bias Spectroscopy>Max Slew rate (V/s)	Inf	
Bias Spectroscopy>backward sweep	TRUE	
Bias Spectroscopy>Z-controller hold	TRUE	
Bias Spectroscopy>Number of sweeps	7	
Bias Spectroscopy>Channels	Current (A);X% LockIn (V);Y% LockIn (V)	
Bias Spectroscopy>Reset Bias	TRUE	
Bias Spectroscopy>Record final Z	FALSE	
Bias Spectroscopy>Lock-In run	FALSE	
Bias Spectroscopy>Sweep mode	Linear	
Bias Spectroscopy>MultiLine Settings : Segment Start (V), Segment End (V), Settling (s), Integration (s), Steps (xn)	100E-3,3.3E-3,100E-6,10E-3,2500;3.3E-3,-3.3E-3,100E-6,10E-3,10;-3.3E-3,-100E-3,100E-6,10E-3,2500	
Current>Current (A)	200.298E-12	
Current>Calibration (A/V)	999.99900E-12	
Current>Offset (A)	-455.429E-15	
Current>Gain	LN 10^9	
Z-Controller>Z (m)	-132.608E-9	
Z-Controller>Controller name	log Current	
Z-Controller>Controller status	ON	
Z-Controller>Setpoint	200E-12	
Z-Controller>Setpoint unit	A	
Z-Controller>P gain	2.96994E-12	
Z-Controller>I gain	67.0321E-9	
Z-Controller>Time const (s)	44.3062E-6	
Z-Controller>TipLift (m)	0E+0	
Z-Controller>Switch off delay (s)	50E-3	
Current (A)	199.895E-12	
Z (m)	-132.608E-9	

[DATA]
Bias calc (V)	Current (A)	X% LockIn (V)	Y% LockIn (V)	Current [bwd] (A)	X% LockIn [bwd] (V)	Y% LockIn [bwd] (V)
5.00000E-3	198.400E-12	660.475E-3	46.9750E-3	197.833E-12	642.600E-3	-3.00163E-3
4.99500E-3	199.766E-12	687.147E-3	52.8424E-3	197.952E-12	605.419E-3	-1.71428E-3
4.98999E-3	199.779E-12	667.175E-3	44.7052E-3	197.417E-12	596.603E-3	3.66846E-3
4.98499E-3	200.889E-12	636.241E-3	2.62315E-3	197.678E-12	619.740E-3	15.3960E-3
4.97999E-3	201.427E-12	631.989E-3	-26.6841E-3	198.339E-12	621.446E-3	18.3920E-3
4.97499E-3	201.650E-12	657.211E-3	-23.3541E-3	198.070E-12	632.616E-3	7.52062E-3
4.96998E-3	200.326E-12	690.356E-3	-43.1601E-3	198.740E-12	661.331E-3	-13.8724E-3
4.96498E-3	200.731E-12	690.444E-3	-48.4202E-3	200.022E-12	656.850E-3	-22.0063E-3
4.95998E-3	200.094E-12	660.935E-3	-29.0469E-3	200.317E-12	632.168E-3	-16.3641E-3
4.95498E-3	199.182E-12	637.661E-3	-30.8673E-3	199.955E-12	625.542E-3	-30.8821E-3
4.94997E-3	197.529E-12	638.770E-3	-36.7211E-3	199.852E-12	634.653E-3	-31.8565E-3
4.94497E-3	196.231E-12	648.765E-3	-37.9770E-3	199.397E-12	661.699E-3	2.08615E-3
4.93997E-3	195.142E-12	650.699E-3	-44.9922E-3	198.391E-12	664.016E-3	6.45322E-3
4.93497E-3	193.565E-12	631.192E-3	-38.8651E-3	197.878E-12	625.946E-3	-30.8714E-3
4.92996E-3	192.050E-12	611.564E-3	-18.4088E-3	197.146E-12	608.874E-3	-43.9258E-3
4.92496E-3	190.882E-12	603.261E-3	-28.3024E-3	195.838E-12	607.481E-3	-18.3899E-3
4.91996E-3	191.024E-12	598.744E-3	-38.0491E-3	195.070E-12	590.915E-3	-33.9263E-6
4.91496E-3	191.414E-12	610.294E-3	-29.5200E-3	195.220E-12	587.067E-3	-779.933E-6
4.90995E-3	191.697E-12	617.773E-3	-23.1694E-3	194.867E-12	608.742E-3	-10.6590E-3
4.90495E-3	192.456E-12	622.000E-3	-7.78574E-3	194.113E-12	618.215E-3	-16.9434E-3
4.89995E-3	193.962E-12	625.668E-3	19.1389E-3	193.731E-12	607.482E-3	-26.7286E-3
4.89495E-3	195.538E-12	622.050E-3	38.7508E-3	193.650E-12	598.890E-3	-42.8005E-3
4.88995E-3	195.726E-12	638.065E-3	37.9796E-3	193.126E-12	593.640E-3	-33.6589E-3
4.88494E-3	196.193E-12	652.050E-3	22.1751E-3	193.234E-12	598.842E-3	-19.8835E-3
4.87994E-3	196.478E-12	633.728E-3	-17.2788E-3	192.646E-12	618.863E-3	-28.4826E-3
4.87494E-3	196.402E-12	637.646E-3	-40.7007E-3	192.719E-12	634.561E-3	-40.9054E-3
4.86993E-3	196.113E-12	672.384E-3	-15.6891E-3	192.869E-12	623.031E-3	-47.5506E-3
4.86493E-3	195.673E-12	677.351E-3	-1.10034E-3	193.444E-12	610.907E-3	-41.2682E-3
4.85993E-3	194.460E-12	653.096E-3	-11.6917E-3	193.844E-12	636.435E-3	-28.5831E-3
4.85493E-3	193.496E-12	627.759E-3	-13.2191E-3	193.532E-12	657.243E-3	-33.0706E-3
4.84992E-3	192.266E-12	612.290E-3	-797.781E-6	193.528E-12	641.497E-3	-39.3049E-3
4.84492E-3	190.152E-12	610.877E-3	10.5953E-3	193.186E-12	620.510E-3	-43.4558E-3
4.83992E-3	188.702E-12	635.333E-3	3.84099E-3	192.712E-12	602.895E-3	-39.1871E-3
4.83492E-3	188.556E-12	648.356E-3	-1.36181E-3	192.127E-12	604.617E-3	-9.25351E-3
4.82991E-3	187.549E-12	631.778E-3	-4.47038E-3	191.640E-12	620.321E-3	-3.14250E-3
4.82491E-3	186.794E-12	626.101E-3	-35.2013E-3	191.456E-12	613.610E-3	-21.3917E-3
4.81991E-3	186.381E-12	622.567E-3	-54.6494E-3	191.070E-12	599.360E-3	-26.4354E-3
4.81491E-3	187.899E-12	619.376E-3	-43.1370E-3	190.384E-12	598.956E-3	-47.3811E-3
4.80990E-3	188.779E-12	638.343E-3	-29.3050E-3	189.363E-12	615.530E-3	-69.5224E-3
4.80490E-3	189.724E-12	649.769E-3	-31.1384E-3	189.161E-12	636.349E-3	-56.9701E-3
4.79990E-3	190.296E-12	646.503E-3	-37.0444E-3	188.913E-12	647.905E-3	-36.5055E-3
4.79490E-3	191.842E-12	653.126E-3	-29.0732E-3	188.162E-12	645.497E-3	-24.4474E-3
4.78989E-3	192.365E-12	649.011E-3	-24.3908E-3	187.083E-12	639.098E-3	-13.2603E-3
4.78489E-3	192.903E-12	631.445E-3	-33.4837E-3	186.710E-12	632.174E-3	3.89270E-3
4.77989E-3	192.143E-12	611.750E-3	-18.9533E-3	187.413E-12	613.293E-3	11.7632E-3
4.77489E-3	191.722E-12	603.717E-3	-1.74568E-3	187.293E-12	607.671E-3	2.03067E-3
4.76988E-3	191.734E-12	615.933E-3	-10.4798E-3	186.343E-12	619.327E-3	-7.68964E-3
4.76488E-3	191.457E-12	646.216E-3	-9.92882E-3	186.619E-12	619.384E-3	-9.76485E-3
4.75988E-3	189.714E-12	664.392E-3	4.18216E-3	187.096E-12	598.746E-3	-21.9695E-3
4.75488E-3	188.447E-12	645.675E-3	1.07479E-3	187.136E-12	597.997E-3	-34.8618E-3
4.74988E-3	187.216E-12	626.790E-3	-21.9704E-3	187.024E-12	630.099E-3	-31.6330E-3
4.74487E-3	186.937E-12	636.698E-3	-28.1523E-3	187.014E-12	644.540E-3	-26.8275E-3
4.73987E-3	186.762E-12	652.393E-3	-25.3255E-3	188.172E-12	636.996E-3	-2.87324E-3
4.73487E-3	186.311E-12	656.049E-3	-27.2925E-3	188.418E-12	630.327E-3	28.7138E-3
4.72986E-3	185.915E-12	636.789E-3	-12.9629E-3	188.926E-12	631.808E-3	24.4839E-3
4.72486E-3	186.807E-12	613.960E-3	-4.13608E-3	188.396E-12	630.852E-3	4.98537E-3
4.71986E-3	187.259E-12	617.533E-3	-10.8067E-3	188.556E-12	639.617E-3	-12.1059E-3
4.71486E-3	187.029E-12	602.539E-3	-7.60530E-3	189.132E-12	644.698E-3	-18.7483E-3
4.70985E-3	186.998E-12	587.540E-3	-8.47256E-3	188.876E-12	626.058E-3	-9.81457E-3
4.70485E-3	187.840E-12	604.371E-3	-20.8277E-3	187.772E-12	615.083E-3	-18.9940E-3
4.69985E-3	187.594E-12	622.421E-3	-30.9857E-3	186.789E-12	627.633E-3	-31.5691E-3
4.69485E-3	187.023E-12	645.181E-3	-25.5147E-3	186.534E-12	642.766E-3	-10.7460E-3
4.68984E-3	186.904E-12	667.191E-3	-6.30773E-3	185.875E-12	646.362E-3	-1.57801E-3
4.68484E-3	186.804E-12	672.283E-3	-8.92643E-3	185.094E-12	652.917E-3	-15.5995E-3
4.67984E-3	186.185E-12	669.001E-3	-21.6583E-3	184.119E-12	664.890E-3	-17.5718E-3
4.67484E-3	185.784E-12	653.311E-3	-12.9800E-3	183.705E-12	667.766E-3	-26.6545E-3
4.66983E-3	184.903E-12	622.169E-3	-553.719E-6	183.984E-12	667.254E-3	-31.6189E-3
4.66483E-3	183.976E-12	617.895E-3	-5.36488E-3	184.388E-12	675.649E-3	-13.7262E-3
4.65983E-3	183.785E-12	638.566E-3	-28.1569E-3	184.297E-12	681.225E-3	-6.75353E-3
4.65483E-3	183.268E-12	637.766E-3	-40.0461E-3	184.905E-12	676.841E-3	-11.7600E-3
4.64982E-3	182.667E-12	609.339E-3	-15.5522E-3	185.833E-12	658.919E-3	-17.2208E-3
4.64482E-3	182.801E-12	603.551E-3	3.40597E-3	186.396E-12	635.977E-3	-17.9849E-3
4.63982E-3	182.775E-12	636.019E-3	4.48855E-3	187.427E-12	640.821E-3	6.40820E-3
4.63482E-3	183.362E-12	669.165E-3	-1.48316E-3	188.008E-12	649.915E-3	38.9853E-3
4.62981E-3	183.491E-12	672.235E-3	-28.2025E-3	187.652E-12	639.962E-3	41.5632E-3
4.62481E-3	183.364E-12	652.565E-3	-32.1148E-3	187.531E-12	634.511E-3	9.53098E-3
4.61981E-3	183.266E-12	651.281E-3	-9.02699E-3	187.693E-12	638.008E-3	-26.0046E-3
4.61481E-3	183.678E-12	659.746E-3	16.2297E-3	187.013E-12	628.858E-3	-32.6623E-3
4.60980E-3	183.154E-12	656.175E-3	20.4592E-3	185.761E-12	613.289E-3	-25.0143E-3
4.60480E-3	182.102E-12	641.831E-3	559.073E-6	185.138E-12	622.483E-3	-20.2846E-3
4.59980E-3	181.750E-12	622.831E-3	1.54636E-3	183.637E-12	631.236E-3	-29.1882E-3
4.59480E-3	180.936E-12	604.027E-3	28.3890E-3	182.139E-12	611.451E-3	-42.1432E-3
4.58979E-3	180.853E-12	604.608E-3	22.9707E-3	181.705E-12	607.332E-3	-23.0248E-3
4.58479E-3	179.850E-12	636.615E-3	-27.9222E-3	180.357E-12	620.386E-3	-1.11537E-3
4.57979E-3	179.861E-12	666.732E-3	-46.6611E-3	178.757E-12	607.509E-3	5.51672E-3
4.57479E-3	179.494E-12	663.984E-3	-33.1274E-3	178.592E-12	601.331E-3	12.4090E-3
4.56978E-3	179.188E-12	647.240E-3	-14.3239E-3	178.487E-12	624.336E-3	12.5835E-3
4.56478E-3	178.170E-12	645.976E-3	9.60896E-3	177.793E-12	645.404E-3	3.84739E-3
4.55978E-3	178.796E-12	649.819E-3	13.7488E-3	177.754E-12	634.056E-3	-3.29960E-3
4.55478E-3	178.394E-12	641.914E-3	-1.07900E-3	177.565E-12	609.517E-3	13.2863E-3
4.54977E-3	178.219E-12	628.427E-3	-9.09015E-3	178.218E-12	629.253E-3	15.0218E-3
4.54477E-3	178.963E-12	612.576E-3	-17.5295E-3	178.281E-12	666.598E-3	-3.33066E-3
4.53977E-3	179.376E-12	604.273E-3	-18.7832E-3	178.596E-12	671.889E-3	-9.56995E-3
4.53477E-3	179.842E-12	612.031E-3	-14.0494E-3	179.260E-12	658.270E-3	-17.6147E-3
4.52976E-3	180.063E-12	618.556E-3	-24.9075E-3	180.447E-12	652.047E-3	-24.8938E-3
4.52476E-3	180.619E-12	622.259E-3	-25.2516E-3	179.821E-12	647.068E-3	-16.1848E-3
4.51976E-3	179.852E-12	627.640E-3	-4.19532E-3	179.570E-12	630.499E-3	4.25937E-3
4.51476E-3	179.523E-12	634.133E-3	5.33734E-3	179.360E-12	634.775E-3	3.78917E-3
4.50975E-3	179.411E-12	645.513E-3	-5.91377E-3	179.847E-12	643.437E-3	-14.4158E-3
4.50475E-3	178.689E-12	649.743E-3	-4.11419E-3	178.852E-12	617.441E-3	-22.3633E-3
4.49975E-3	177.523E-12	645.172E-3	7.08070E-3	178.206E-12	594.359E-3	-21.2881E-3
4.49475E-3	176.335E-12	628.550E-3	8.11203E-3	177.303E-12	593.294E-3	-15.2416E-3
4.48974E-3	176.237E-12	593.356E-3	10.0039E-3	176.971E-12	611.897E-3	-4.74185E-3
4.48474E-3	175.636E-12	564.596E-3	18.8513E-3	175.429E-12	645.280E-3	-4.69440E-3
4.47974E-3	175.673E-12	585.235E-3	23.0850E-3	174.914E-12	643.880E-3	-19.9173E-3
4.47474E-3	175.241E-12	618.644E-3	17.7762E-3	174.072E-12	621.473E-3	-31.9173E-3
4.46973E-3	175.904E-12	611.201E-3	13.4060E-3	173.834E-12	637.918E-3	-29.6418E-3
4.46473E-3	176.212E-12	595.996E-3	15.6967E-3	173.944E-12	662.820E-3	-23.7986E-3
4.45973E-3	176.782E-12	613.415E-3	8.97924E-3	174.387E-12	634.186E-3	-21.6081E-3
4.45473E-3	176.395E-12	648.564E-3	-19.1034E-3	174.156E-12	595.716E-3	-21.5327E-3
4.44972E-3	176.744E-12	654.450E-3	-48.1516E-3	174.301E-12	605.200E-3	-10.9875E-3
4.44472E-3	176.629E-12	637.781E-3	-51.4201E-3	175.094E-12	630.145E-3	10.1934E-3
4.43972E-3	176.624E-12	636.033E-3	-22.9452E-3	176.251E-12	636.011E-3	10.8120E-3
4.43472E-3	176.975E-12	633.252E-3	13.7485E-3	176.250E-12	640.034E-3	-12.0618E-3
4.42971E-3	176.595E-12	645.669E-3	48.9678E-3	176.587E-12	635.029E-3	-14.8044E-3
4.42471E-3	175.908E-12	675.733E-3	51.2110E-3	176.333E-12	633.064E-3	4.66313E-3
4.41971E-3	175.830E-12	665.933E-3	1.39722E-3	177.128E-12	658.181E-3	13.1064E-3
4.41471E-3	175.257E-12	641.259E-3	-36.0222E-3	176.581E-12	655.652E-3	-1.25365E-3
4.40970E-3	174.094E-12	628.441E-3	-34.8918E-3	176.742E-12	633.492E-3	-18.2724E-3
4.40470E-3	173.331E-12	630.427E-3	-38.3459E-3	175.720E-12	635.406E-3	-27.5059E-3
4.39970E-3	173.137E-12	651.566E-3	-41.9706E-3	175.500E-12	651.412E-3	-27.0539E-3
4.39470E-3	172.669E-12	659.133E-3	-28.7779E-3	175.051E-12	661.352E-3	-11.9648E-3
4.38969E-3	172.564E-12	651.883E-3	-23.9076E-3	174.087E-12	665.115E-3	-11.7080E-3
4.38469E-3	171.790E-12	654.844E-3	-33.6745E-3	173.092E-12	648.842E-3	-23.0049E-3
4.37969E-3	173.053E-12	647.629E-3	-48.4564E-3	172.315E-12	621.059E-3	-14.3153E-3
4.37469E-3	173.365E-12	627.461E-3	-40.7491E-3	171.960E-12	629.636E-3	-1.92289E-3
4.36968E-3	173.566E-12	623.496E-3	-22.3848E-3	171.790E-12	649.155E-3	-21.5270E-3
4.36468E-3	173.387E-12	620.954E-3	-8.73838E-3	171.396E-12	652.950E-3	-49.7747E-3
4.35968E-3	174.673E-12	612.177E-3	-4.64628E-3	171.594E-12	653.212E-3	-51.1739E-3
4.35468E-3	173.885E-12	606.559E-3	-3.66308E-3	171.024E-12	638.497E-3	-57.5842E-3
4.34967E-3	173.342E-12	616.319E-3	14.5939E-3	171.109E-12	620.910E-3	-64.2436E-3
4.34467E-3	172.912E-12	628.107E-3	21.2002E-3	170.952E-12	609.988E-3	-32.0504E-3
4.33967E-3	172.302E-12	634.748E-3	14.2849E-3	171.250E-12	598.237E-3	253.618E-6
4.33467E-3	171.413E-12	633.381E-3	6.63568E-3	170.794E-12	608.741E-3	-6.39907E-3
4.32966E-3	169.983E-12	631.142E-3	373.012E-6	170.136E-12	625.837E-3	-34.9621E-3
4.32466E-3	169.195E-12	645.827E-3	-11.7262E-3	169.977E-12	604.780E-3	-50.8692E-3
4.31966E-3	167.930E-12	666.684E-3	-27.1684E-3	170.391E-12	584.371E-3	-32.7684E-3
4.31466E-3	167.366E-12	666.027E-3	-47.3371E-3	170.109E-12	617.050E-3	-12.4129E-3
4.30965E-3	167.520E-12	625.379E-3	-67.4508E-3	170.155E-12	654.371E-3	-20.7716E-3
4.30465E-3	166.910E-12	599.078E-3	-50.1632E-3	169.881E-12	653.398E-3	-36.7293E-3
4.29965E-3	166.867E-12	599.164E-3	-19.4451E-3	169.178E-12	641.541E-3	-34.7392E-3
4.29465E-3	167.221E-12	598.311E-3	-20.1331E-3	169.741E-12	638.486E-3	-21.9253E-3
4.28964E-3	168.008E-12	602.052E-3	-23.4590E-3	169.372E-12	635.839E-3	-6.04327E-3
4.28464E-3	168.513E-12	618.380E-3	-11.0342E-3	168.430E-12	631.318E-3	22.8197E-3
4.27964E-3	169.288E-12	629.660E-3	-9.65080E-3	168.586E-12	625.449E-3	30.5192E-3
4.27464E-3	169.654E-12	630.156E-3	-14.6131E-3	168.362E-12	616.779E-3	6.73097E-3
4.26963E-3	170.115E-12	624.391E-3	-19.4911E-3	167.805E-12	607.581E-3	-5.54636E-3
4.26463E-3	170.220E-12	597.698E-3	-15.3334E-3	166.280E-12	611.730E-3	1.59687E-3
4.25963E-3	169.978E-12	597.769E-3	-2.99812E-3	165.803E-12	620.471E-3	5.45425E-3
4.25463E-3	168.894E-12	635.223E-3	-12.4591E-3	164.885E-12	618.866E-3	-22.2423E-3
4.24962E-3	168.426E-12	668.798E-3	-25.6816E-3	164.277E-12	627.216E-3	-53.2320E-3
4.24462E-3	167.361E-12	693.650E-3	-17.8022E-3	163.697E-12	622.283E-3	-40.0807E-3
4.23962E-3	165.941E-12	691.958E-3	-22.7308E-3	164.036E-12	590.470E-3	-9.41668E-3
4.23462E-3	165.261E-12	669.621E-3	-30.3341E-3	162.798E-12	578.537E-3	-9.36372E-3
4.22961E-3	163.804E-12	643.135E-3	-18.8825E-3	163.098E-12	596.556E-3	-41.5551E-3
4.22461E-3	163.276E-12	621.855E-3	-20.5404E-3	163.996E-12	614.055E-3	-63.5616E-3
4.21961E-3	163.083E-12	624.366E-3	-29.4982E-3	164.759E-12	624.442E-3	-59.8019E-3
4.21461E-3	163.339E-12	627.788E-3	-22.2092E-3	165.179E-12	633.546E-3	-63.5442E-3
4.20960E-3	163.097E-12	625.881E-3	-3.82978E-3	165.060E-12	634.737E-3	-62.6762E-3
4.20460E-3	163.416E-12	630.766E-3	-6.67561E-3	166.219E-12	633.807E-3	-44.1666E-3
4.19960E-3	163.752E-12	631.482E-3	-30.5151E-3	166.497E-12	635.991E-3	-32.8354E-3
4.19460E-3	164.258E-12	641.215E-3	-46.6179E-3	167.459E-12	639.428E-3	-24.4765E-3
4.18959E-3	164.170E-12	662.357E-3	-43.4428E-3	166.366E-12	646.927E-3	-28.6541E-3
4.18459E-3	164.896E-12	652.849E-3	-28.3813E-3	166.269E-12	628.260E-3	-42.5905E-3
4.17959E-3	165.255E-12	624.393E-3	-34.9587E-3	165.817E-12	598.880E-3	-42.0125E-3
4.17459E-3	165.442E-12	628.323E-3	-61.3035E-3	165.242E-12	610.369E-3	-16.5343E-3
4.16958E-3	165.298E-12	616.344E-3	-47.8217E-3	163.445E-12	631.244E-3	4.13396E-3
4.16458E-3	165.273E-12	594.292E-3	-28.2573E-3	162.728E-12	627.693E-3	-9.26345E-3
4.15958E-3	164.949E-12	618.006E-3	-41.2879E-3	161.456E-12	614.443E-3	-21.4070E-3
4.15458E-3	163.850E-12	629.550E-3	-33.0671E-3	160.618E-12	602.801E-3	-26.4790E-3
4.14957E-3	162.153E-12	603.067E-3	-14.5514E-3	159.821E-12	601.032E-3	-31.1168E-3
4.14457E-3	161.514E-12	612.093E-3	-8.77006E-3	159.507E-12	613.183E-3	-20.3876E-3
4.13957E-3	161.200E-12	655.968E-3	-7.27271E-3	159.701E-12	623.502E-3	-18.3252E-3
4.13457E-3	160.559E-12	657.415E-3	-16.2589E-3	160.629E-12	628.442E-3	-18.9598E-3
4.12956E-3	159.570E-12	635.078E-3	-36.7559E-3	160.901E-12	635.245E-3	-9.27011E-3
4.12456E-3	159.577E-12	639.136E-3	-39.8164E-3	161.993E-12	628.082E-3	-4.19685E-3
4.11956E-3	159.625E-12	657.690E-3	-20.4024E-3	162.814E-12	603.941E-3	2.09160E-3
4.11456E-3	159.578E-12	653.983E-3	-10.7116E-3	164.290E-12	601.958E-3	-7.46793E-3
4.10955E-3	159.605E-12	628.034E-3	-11.6143E-3	164.413E-12	634.407E-3	-37.7675E-3
4.10455E-3	159.650E-12	600.948E-3	-20.7971E-3	164.717E-12	647.664E-3	-50.0187E-3
4.09955E-3	159.288E-12	606.836E-3	-30.2017E-3	164.806E-12	623.815E-3	-26.7702E-3
4.09455E-3	159.796E-12	650.963E-3	-20.8903E-3	165.820E-12	604.650E-3	5.22482E-3
4.08954E-3	159.699E-12	656.859E-3	49.8577E-6	165.074E-12	614.869E-3	13.3398E-3
4.08454E-3	158.717E-12	621.005E-3	17.1654E-3	164.558E-12	643.798E-3	-10.9625E-3
4.07954E-3	158.449E-12	609.578E-3	1.89079E-3	163.185E-12	662.514E-3	-41.3976E-3
4.07454E-3	158.889E-12	622.018E-3	-30.1747E-3	162.203E-12	647.253E-3	-41.7334E-3
4.06953E-3	158.987E-12	636.516E-3	-29.2671E-3	160.914E-12	631.037E-3	-28.1881E-3
4.06453E-3	158.244E-12	636.680E-3	6.62988E-3	158.974E-12	624.276E-3	-32.9097E-3
4.05953E-3	158.199E-12	607.671E-3	14.3146E-3	157.799E-12	611.080E-3	-42.1605E-3
4.05453E-3	157.728E-12	581.909E-3	-21.0219E-3	156.740E-12	603.680E-3	-41.6601E-3
4.04952E-3	158.340E-12	581.455E-3	-39.8288E-3	156.021E-12	602.088E-3	-30.2036E-3
4.04452E-3	158.510E-12	600.388E-3	-31.8178E-3	155.466E-12	616.073E-3	-22.5023E-3
4.03952E-3	158.700E-12	636.112E-3	-15.9420E-3	155.248E-12	624.070E-3	-18.1131E-3
4.03452E-3	157.756E-12	645.517E-3	4.49395E-3	154.812E-12	605.699E-3	-7.70364E-3
4.02951E-3	158.776E-12	627.186E-3	410.200E-6	156.121E-12	589.619E-3	736.346E-6
4.02451E-3	158.567E-12	635.058E-3	-27.6797E-3	156.687E-12	602.076E-3	14.9309E-3
4.01951E-3	158.446E-12	652.668E-3	-37.4026E-3	156.409E-12	643.671E-3	22.4270E-3
4.01451E-3	157.919E-12	648.744E-3	-22.9509E-3	157.253E-12	660.663E-3	16.1133E-3
4.00950E-3	157.823E-12	643.609E-3	-14.4981E-3	157.844E-12	640.927E-3	8.10645E-3
4.00450E-3	157.232E-12	651.280E-3	-26.5395E-3	158.394E-12	637.441E-3	-9.62313E-3
3.99950E-3	157.424E-12	660.385E-3	-35.9888E-3	158.558E-12	635.007E-3	-19.1422E-3
3.99450E-3	156.538E-12	653.499E-3	-30.5538E-3	158.457E-12	616.389E-3	-5.15262E-3
3.98949E-3	155.381E-12	632.665E-3	-22.1163E-3	157.917E-12	621.823E-3	-12.0498E-3
3.98449E-3	155.666E-12	614.416E-3	-19.2598E-3	157.453E-12	639.631E-3	-21.0673E-3
3.97949E-3	155.388E-12	622.648E-3	-18.4540E-3	156.296E-12	655.730E-3	-3.27637E-3
3.97449E-3	154.744E-12	646.395E-3	-14.7119E-3	154.970E-12	668.498E-3	-2.27750E-3
3.96948E-3	154.428E-12	639.659E-3	1.12242E-3	154.282E-12	651.619E-3	-11.1607E-3
3.96448E-3	154.893E-12	610.996E-3	10.2600E-3	153.164E-12	621.687E-3	-18.6176E-3
3.95948E-3	155.097E-12	603.581E-3	12.1041E-3	152.270E-12	608.717E-3	-14.5670E-3
3.95448E-3	155.450E-12	617.751E-3	4.69311E-3	150.598E-12	608.789E-3	4.30554E-3
3.94947E-3	155.722E-12	626.954E-3	-11.6524E-3	150.970E-12	608.452E-3	4.82715E-3
3.94447E-3	156.139E-12	632.502E-3	-21.9737E-3	150.679E-12	599.737E-3	-2.85473E-3
3.93947E-3	156.729E-12	622.887E-3	-38.6672E-3	150.496E-12	589.599E-3	-1.21156E-3
3.93447E-3	156.493E-12	617.704E-3	-36.9395E-3	150.234E-12	593.925E-3	-5.23990E-3
3.92946E-3	156.686E-12	637.074E-3	-10.7992E-3	149.717E-12	611.897E-3	-30.0688E-3
3.92446E-3	156.825E-12	643.994E-3	-10.9300E-3	150.256E-12	630.305E-3	-47.6148E-3
3.91946E-3	156.085E-12	641.167E-3	-24.9483E-3	150.660E-12	641.507E-3	-41.6642E-3
3.91446E-3	154.333E-12	648.769E-3	-10.1207E-3	150.791E-12	653.926E-3	-32.0266E-3
3.90945E-3	153.997E-12	656.480E-3	6.47664E-3	150.787E-12	668.346E-3	-13.3274E-3
3.90445E-3	153.794E-12	649.160E-3	13.0150E-3	151.139E-12	661.147E-3	5.88973E-3
3.89945E-3	152.239E-12	647.929E-3	-7.05287E-3	152.112E-12	643.273E-3	8.17193E-3
3.89445E-3	150.952E-12	656.356E-3	-36.3749E-3	152.436E-12	628.019E-3	-903.956E-6
3.88944E-3	150.583E-12	649.672E-3	-29.7200E-3	151.893E-12	629.856E-3	-4.57842E-3
3.88444E-3	149.624E-12	625.632E-3	-7.56206E-3	152.399E-12	652.501E-3	-6.99518E-3
3.87944E-3	148.466E-12	617.410E-3	17.1555E-3	153.184E-12	649.926E-3	-21.0837E-3
3.87444E-3	148.191E-12	630.536E-3	22.6864E-3	152.522E-12	613.627E-3	-14.9608E-3
3.86943E-3	147.933E-12	631.015E-3	-7.89954E-3	152.550E-12	588.921E-3	3.23351E-3
3.86443E-3	148.400E-12	610.950E-3	-34.7067E-3	152.339E-12	604.758E-3	-1.01472E-3
3.85943E-3	148.573E-12	595.514E-3	-34.5272E-3	151.861E-12	627.713E-3	3.32236E-3
3.85443E-3	149.433E-12	606.950E-3	-22.4286E-3	151.874E-12	634.552E-3	4.09718E-3
3.84942E-3	150.265E-12	613.064E-3	-4.51826E-3	151.586E-12	639.827E-3	-24.0173E-3
3.84442E-3	150.767E-12	610.582E-3	-6.61023E-3	150.563E-12	628.996E-3	-30.3311E-3
3.83942E-3	151.120E-12	629.601E-3	-26.5276E-3	149.597E-12	609.174E-3	-14.8633E-3
3.83442E-3	151.464E-12	638.651E-3	-26.1798E-3	149.393E-12	614.594E-3	-8.60924E-3
3.82941E-3	151.115E-12	630.090E-3	-13.1650E-3	148.773E-12	639.576E-3	-269.967E-6
3.82441E-3	150.476E-12	632.048E-3	301.270E-6	147.625E-12	660.543E-3	2.89781E-3
3.81941E-3	149.490E-12	636.159E-3	5.27988E-3	147.071E-12	657.487E-3	-10.3938E-3
3.81441E-3	148.623E-12	635.040E-3	-11.2957E-3	147.385E-12	650.368E-3	-17.7750E-3
3.80940E-3	147.467E-12	628.510E-3	-22.6995E-3	147.303E-12	652.857E-3	-9.39882E-3
3.80440E-3	146.651E-12	611.348E-3	-18.7142E-3	147.878E-12	653.149E-3	-1.86782E-3
3.79940E-3	145.750E-12	602.104E-3	-10.3266E-3	148.329E-12	654.605E-3	10.8199E-3
3.79440E-3	144.832E-12	636.969E-3	-9.40898E-3	148.422E-12	662.974E-3	19.7521E-3
3.78939E-3	143.652E-12	672.836E-3	-16.3316E-3	149.134E-12	672.969E-3	-2.22203E-3
3.78439E-3	143.524E-12	651.243E-3	-19.4617E-3	149.916E-12	667.158E-3	-25.1605E-3
3.77939E-3	143.748E-12	618.064E-3	-23.7270E-3	149.956E-12	662.539E-3	-32.8343E-3
3.77439E-3	143.602E-12	623.618E-3	-22.5135E-3	150.505E-12	661.220E-3	-48.8891E-3
3.76938E-3	144.008E-12	640.456E-3	-35.7681E-3	150.907E-12	649.749E-3	-51.9708E-3
3.76438E-3	144.454E-12	627.933E-3	-49.5834E-3	151.107E-12	652.677E-3	-28.4111E-3
3.75938E-3	145.096E-12	619.613E-3	-27.9289E-3	150.404E-12	660.304E-3	-1.86714E-3
3.75438E-3	145.384E-12	617.512E-3	1.56239E-3	149.559E-12	660.152E-3	18.4542E-3
3.74937E-3	145.922E-12	612.485E-3	10.5619E-3	148.665E-12	663.662E-3	17.6995E-3
3.74437E-3	146.668E-12	624.177E-3	-3.08895E-3	147.263E-12	640.052E-3	-7.39975E-3
3.73937E-3	146.969E-12	631.662E-3	-17.4099E-3	145.536E-12	600.166E-3	-12.4048E-3
3.73437E-3	146.444E-12	639.210E-3	-19.0146E-3	144.023E-12	586.345E-3	-58.8114E-6
3.72936E-3	146.125E-12	654.054E-3	-6.03378E-3	142.880E-12	588.986E-3	-11.6845E-3
3.72436E-3	146.398E-12	665.045E-3	10.8303E-3	141.047E-12	600.364E-3	-23.9169E-3
3.71936E-3	145.209E-12	663.835E-3	7.23147E-3	140.142E-12	621.438E-3	-29.9124E-3
3.71436E-3	144.811E-12	666.269E-3	-18.3723E-3	140.475E-12	635.936E-3	-32.0490E-3
3.70935E-3	144.564E-12	659.245E-3	-36.7284E-3	140.379E-12	633.827E-3	-12.9745E-3
3.70435E-3	144.606E-12	627.073E-3	-31.5815E-3	139.901E-12	628.439E-3	-13.8058E-3
3.69935E-3	143.379E-12	608.549E-3	-19.4824E-3	140.250E-12	633.937E-3	-34.5416E-3
3.69435E-3	143.018E-12	637.566E-3	-16.1360E-3	141.076E-12	622.306E-3	-34.7080E-3
3.68934E-3	143.339E-12	671.407E-3	-21.9352E-3	142.221E-12	606.838E-3	-43.2730E-3
3.68434E-3	142.721E-12	665.090E-3	-27.9649E-3	142.944E-12	632.523E-3	-53.4463E-3
3.67934E-3	142.629E-12	657.975E-3	-39.0678E-3	143.257E-12	665.969E-3	-32.1078E-3
3.67434E-3	143.048E-12	664.424E-3	-45.7906E-3	144.207E-12	675.957E-3	-14.4930E-3
3.66933E-3	143.122E-12	657.053E-3	-29.6935E-3	145.106E-12	674.179E-3	-28.7075E-3
3.66433E-3	143.047E-12	636.735E-3	-17.3136E-3	144.864E-12	673.826E-3	-35.5880E-3
3.65933E-3	142.572E-12	623.547E-3	-33.6235E-3	144.259E-12	669.658E-3	-5.89383E-3
3.65433E-3	142.387E-12	623.131E-3	-37.3566E-3	142.696E-12	645.981E-3	2.37721E-3
3.64932E-3	142.506E-12	632.330E-3	-20.9954E-3	142.393E-12	613.820E-3	-18.3022E-3
3.64432E-3	142.130E-12	641.186E-3	-11.2221E-3	141.738E-12	608.261E-3	-18.0111E-3
3.63932E-3	141.856E-12	650.160E-3	3.97527E-3	140.178E-12	621.919E-3	-10.7940E-3
3.63432E-3	141.430E-12	652.799E-3	-1.75046E-3	138.598E-12	617.093E-3	-3.55700E-3
3.62931E-3	140.375E-12	655.067E-3	-16.8155E-3	137.246E-12	608.980E-3	9.57940E-3
3.62431E-3	140.342E-12	660.703E-3	-6.68745E-3	137.530E-12	631.541E-3	-3.26612E-3
3.61931E-3	140.226E-12	651.601E-3	-11.2489E-3	137.020E-12	648.616E-3	-28.6989E-3
3.61431E-3	140.065E-12	639.845E-3	-35.5646E-3	136.234E-12	633.695E-3	-19.3778E-3
3.60930E-3	139.119E-12	644.778E-3	-37.9372E-3	135.977E-12	627.598E-3	2.85699E-3
3.60430E-3	138.791E-12	641.092E-3	-28.6466E-3	136.710E-12	646.852E-3	-4.30226E-3
3.59930E-3	138.836E-12	615.371E-3	-25.0842E-3	137.650E-12	651.247E-3	-27.8460E-3
3.59430E-3	138.977E-12	606.977E-3	-14.1208E-3	137.866E-12	638.625E-3	-46.7783E-3
3.58929E-3	138.629E-12	621.863E-3	1.78974E-3	138.649E-12	649.318E-3	-37.5981E-3
3.58429E-3	138.629E-12	636.944E-3	15.6545E-3	139.479E-12	673.188E-3	-1.66912E-3
3.57929E-3	138.682E-12	641.040E-3	27.7619E-3	140.598E-12	679.433E-3	5.28728E-3
3.57429E-3	138.227E-12	641.186E-3	24.2857E-3	141.566E-12	662.966E-3	-22.1705E-3
3.56928E-3	137.984E-12	641.704E-3	12.0302E-3	141.373E-12	656.650E-3	-30.7278E-3
3.56428E-3	137.533E-12	628.117E-3	2.31345E-3	141.437E-12	666.960E-3	-15.7374E-3
3.55928E-3	137.013E-12	630.116E-3	-6.24991E-3	141.682E-12	657.786E-3	-8.64427E-3
3.55428E-3	135.869E-12	650.011E-3	-6.71690E-3	141.158E-12	646.300E-3	-9.08883E-3
3.54927E-3	135.374E-12	649.133E-3	-1.01157E-3	140.041E-12	655.496E-3	-17.5188E-3
3.54427E-3	135.125E-12	629.726E-3	2.44237E-3	138.511E-12	647.692E-3	-39.6461E-3
3.53927E-3	134.335E-12	624.494E-3	-13.3729E-3	138.177E-12	627.037E-3	-53.0431E-3
3.53427E-3	133.445E-12	635.433E-3	-27.6696E-3	137.560E-12	629.211E-3	-38.4495E-3
3.52926E-3	133.414E-12	626.365E-3	-8.77097E-3	136.493E-12	634.426E-3	-24.0889E-3
3.52426E-3	133.661E-12	595.958E-3	8.85744E-3	135.309E-12	630.208E-3	-19.9597E-3
3.51926E-3	133.779E-12	588.859E-3	-1.77524E-3	134.842E-12	640.389E-3	-10.6893E-3
3.51426E-3	133.985E-12	615.838E-3	-22.5289E-3	134.015E-12	654.839E-3	-12.6787E-3
3.50925E-3	134.370E-12	650.404E-3	-32.0185E-3	134.389E-12	644.841E-3	-15.4635E-3
3.50425E-3	134.594E-12	655.473E-3	-40.8115E-3	133.993E-12	643.143E-3	-16.3511E-3
3.49925E-3	134.900E-12	629.135E-3	-45.0048E-3	133.711E-12	665.081E-3	-34.5359E-3
3.49425E-3	135.144E-12	612.716E-3	-26.1427E-3	133.293E-12	675.138E-3	-52.5077E-3
3.48924E-3	135.649E-12	627.986E-3	-5.92197E-3	134.505E-12	671.227E-3	-56.4431E-3
3.48424E-3	135.261E-12	649.574E-3	18.7634E-3	134.555E-12	661.261E-3	-50.3980E-3
3.47924E-3	135.279E-12	649.100E-3	22.1033E-3	134.576E-12	639.192E-3	-41.1502E-3
3.47424E-3	134.577E-12	650.656E-3	-20.6635E-3	134.458E-12	629.474E-3	-34.8444E-3
3.46923E-3	134.344E-12	647.835E-3	-43.8543E-3	134.682E-12	635.860E-3	-23.0803E-3
3.46423E-3	133.593E-12	640.490E-3	-32.7618E-3	135.029E-12	633.910E-3	-8.68151E-3
3.45923E-3	132.821E-12	657.728E-3	-22.3076E-3	134.562E-12	641.113E-3	-11.1688E-3
3.45423E-3	132.183E-12	668.472E-3	-10.0568E-3	134.430E-12	654.791E-3	-9.11442E-3
3.44922E-3	132.524E-12	658.117E-3	-11.7640E-3	134.432E-12	645.507E-3	1.00423E-3
3.44422E-3	131.951E-12	648.501E-3	-26.1976E-3	134.332E-12	635.089E-3	-11.7050E-3
3.43922E-3	132.001E-12	645.705E-3	-28.7663E-3	133.967E-12	643.111E-3	-17.7388E-3
3.43422E-3	132.012E-12	655.289E-3	-20.6453E-3	133.130E-12	641.380E-3	2.39737E-3
3.42921E-3	132.114E-12	677.648E-3	-20.9251E-3	132.636E-12	621.580E-3	13.5505E-3
3.42421E-3	131.990E-12	686.768E-3	-24.5784E-3	131.914E-12	612.999E-3	7.72476E-3
3.41921E-3	132.482E-12	670.753E-3	-11.3511E-3	131.610E-12	626.844E-3	-797.320E-6
3.41421E-3	132.184E-12	654.960E-3	-13.6581E-3	130.722E-12	646.085E-3	-18.2221E-3
3.40920E-3	132.303E-12	647.317E-3	-22.8999E-3	129.777E-12	649.027E-3	-38.3473E-3
3.40420E-3	132.279E-12	633.632E-3	-21.4891E-3	129.479E-12	626.565E-3	-29.2123E-3
3.39920E-3	132.941E-12	622.555E-3	-24.8034E-3	129.534E-12	615.224E-3	-2.42198E-3
3.39420E-3	132.174E-12	633.420E-3	-14.8288E-3	128.643E-12	634.339E-3	-5.59254E-3
3.38919E-3	131.482E-12	656.037E-3	-5.75976E-3	128.426E-12	654.095E-3	-26.7159E-3
3.38419E-3	131.347E-12	661.745E-3	-4.53464E-3	128.581E-12	668.096E-3	-30.1370E-3
3.37919E-3	131.434E-12	651.196E-3	-2.98842E-3	128.166E-12	667.201E-3	-31.3546E-3
3.37419E-3	130.432E-12	643.973E-3	1.33023E-3	128.021E-12	642.767E-3	-40.6393E-3
3.36918E-3	129.625E-12	648.139E-3	10.3214E-3	128.492E-12	634.631E-3	-40.1998E-3
3.36418E-3	129.513E-12	654.781E-3	1.81049E-3	128.682E-12	654.996E-3	-34.7337E-3
3.35918E-3	129.356E-12	652.705E-3	-24.9360E-3	128.414E-12	667.342E-3	-27.7479E-3
3.35418E-3	129.099E-12	663.270E-3	-56.2949E-3	129.232E-12	667.657E-3	-13.3501E-3
3.34917E-3	128.651E-12	676.536E-3	-62.4788E-3	129.911E-12	671.111E-3	-10.3468E-3
3.34417E-3	128.596E-12	657.352E-3	-41.9199E-3	130.123E-12	659.469E-3	-14.6198E-3
3.33917E-3	128.445E-12	636.099E-3	-30.3227E-3	129.994E-12	640.924E-3	-16.1307E-3
3.33417E-3	128.400E-12	651.605E-3	-27.2982E-3	130.124E-12	642.667E-3	-14.6657E-3
3.32916E-3	128.732E-12	669.886E-3	-24.5547E-3	129.699E-12	643.599E-3	-10.7387E-3
3.32416E-3	128.552E-12	668.492E-3	-26.8652E-3	129.402E-12	642.835E-3	-23.0058E-3
3.31916E-3	128.434E-12	664.407E-3	-36.0328E-3	128.655E-12	643.373E-3	-32.4124E-3
3.31416E-3	128.043E-12	648.723E-3	-28.3828E-3	127.398E-12	637.492E-3	-21.2011E-3
3.30915E-3	127.747E-12	643.991E-3	-8.05209E-3	127.066E-12	649.083E-3	-11.4138E-3
3.30415E-3	127.002E-12	654.291E-3	-6.86100E-3	126.204E-12	657.649E-3	-10.6603E-3
3.29915E-3	126.044E-12	640.009E-3	-20.0467E-3	125.396E-12	634.984E-3	-2.80112E-3
3.29415E-3	125.383E-12	621.360E-3	-37.6937E-3	123.942E-12	620.800E-3	3.90437E-3
3.28914E-3	124.941E-12	633.537E-3	-31.1161E-3	123.580E-12	639.634E-3	-8.29595E-3
3.28414E-3	124.128E-12	639.575E-3	-15.7735E-3	123.698E-12	656.880E-3	-28.8913E-3
3.27914E-3	123.189E-12	621.966E-3	-28.3856E-3	123.868E-12	668.799E-3	-35.0894E-3
3.27414E-3	122.939E-12	618.854E-3	-28.1625E-3	123.909E-12	674.161E-3	-28.6306E-3
3.26913E-3	123.015E-12	623.398E-3	-7.88512E-3	124.279E-12	656.459E-3	-34.5340E-3
3.26413E-3	122.915E-12	621.177E-3	-14.1339E-3	125.250E-12	650.041E-3	-32.7625E-3
3.25913E-3	122.825E-12	634.347E-3	-27.4875E-3	126.078E-12	661.946E-3	-11.0706E-3
3.25413E-3	123.315E-12	645.959E-3	-21.0302E-3	126.655E-12	661.104E-3	-10.4516E-3
3.24912E-3	123.361E-12	639.116E-3	-14.6120E-3	127.195E-12	664.357E-3	-26.8083E-3
3.24412E-3	123.718E-12	649.537E-3	-2.44897E-3	127.728E-12	674.691E-3	-33.2856E-3
3.23912E-3	123.898E-12	649.259E-3	11.7640E-3	128.013E-12	669.517E-3	-37.8241E-3
3.23412E-3	124.162E-12	639.573E-3	-3.20427E-3	127.766E-12	668.183E-3	-38.3184E-3
3.22911E-3	123.451E-12	644.228E-3	-27.6381E-3	127.172E-12	662.852E-3	-22.6240E-3
3.22411E-3	123.237E-12	638.033E-3	-25.8108E-3	126.373E-12	646.244E-3	-6.45374E-3
3.21911E-3	123.069E-12	632.866E-3	-22.5048E-3	125.002E-12	652.163E-3	-7.10384E-3
3.21411E-3	122.212E-12	636.464E-3	-42.8037E-3	124.117E-12	650.990E-3	-7.32887E-3
3.20910E-3	121.240E-12	634.119E-3	-47.7215E-3	122.924E-12	625.433E-3	-3.73662E-3
3.20410E-3	120.993E-12	623.422E-3	-17.5080E-3	121.371E-12	611.487E-3	-8.00135E-3
3.19910E-3	120.341E-12	629.450E-3	-1.33388E-3	120.019E-12	617.310E-3	-8.30753E-3
3.19410E-3	119.415E-12	633.655E-3	-1.22559E-3	119.928E-12	628.548E-3	-9.33428E-3
3.18909E-3	118.474E-12	610.581E-3	-14.7489E-3	119.644E-12	620.906E-3	-21.1317E-3
3.18409E-3	118.439E-12	610.922E-3	-34.2141E-3	119.028E-12	613.114E-3	-15.7193E-3
3.17909E-3	118.875E-12	636.762E-3	-27.4454E-3	118.903E-12	632.945E-3	-12.3052E-3
3.17409E-3	118.685E-12	637.749E-3	-28.1704E-3	119.419E-12	654.018E-3	-33.9550E-3
3.16908E-3	118.427E-12	640.150E-3	-38.1572E-3	120.196E-12	653.532E-3	-39.8186E-3
3.16408E-3	118.985E-12	651.875E-3	-16.8257E-3	120.352E-12	645.511E-3	-21.0944E-3
3.15908E-3	119.920E-12	643.516E-3	-1.89519E-3	120.398E-12	647.849E-3	-8.40832E-3
3.15408E-3	120.158E-12	631.445E-3	-5.03340E-3	121.010E-12	666.851E-3	-9.57180E-3
3.14907E-3	120.319E-12	631.423E-3	2.15496E-3	121.540E-12	671.757E-3	-8.69218E-3
3.14407E-3	120.663E-12	639.043E-3	-3.84065E-3	121.731E-12	654.434E-3	-10.4236E-3
3.13907E-3	121.120E-12	654.830E-3	-14.1268E-3	121.541E-12	644.802E-3	-9.84899E-3
3.13407E-3	121.136E-12	663.964E-3	-3.45360E-3	121.208E-12	640.597E-3	-9.06183E-3
3.12906E-3	120.852E-12	658.445E-3	8.80476E-3	120.666E-12	638.515E-3	-38.1373E-3
3.12406E-3	120.615E-12	655.519E-3	2.08723E-3	119.824E-12	637.733E-3	-58.1319E-3
3.11906E-3	120.366E-12	650.989E-3	-2.32859E-3	118.824E-12	624.855E-3	-38.3004E-3
3.11406E-3	120.177E-12	650.739E-3	5.05928E-3	117.803E-12	610.849E-3	-16.2677E-3
3.10905E-3	119.333E-12	661.010E-3	-1.70926E-3	116.274E-12	610.686E-3	-7.90839E-3
3.10405E-3	118.586E-12	663.221E-3	-7.54266E-3	115.689E-12	622.055E-3	-9.77514E-3
3.09905E-3	118.274E-12	661.875E-3	3.35840E-3	115.322E-12	645.055E-3	-7.17045E-3
3.09405E-3	118.420E-12	674.438E-3	-3.21899E-3	114.940E-12	655.797E-3	8.01732E-3
3.08904E-3	118.197E-12	688.236E-3	-23.9261E-3	114.367E-12	647.669E-3	11.5397E-3
3.08404E-3	117.236E-12	679.233E-3	-27.3788E-3	115.252E-12	642.368E-3	-2.65613E-3
3.07904E-3	117.168E-12	657.324E-3	-25.8522E-3	115.338E-12	649.998E-3	-25.4676E-3
3.07404E-3	117.164E-12	648.673E-3	-20.2659E-3	115.596E-12	663.672E-3	-33.6433E-3
3.06903E-3	117.392E-12	643.645E-3	-17.9618E-3	115.607E-12	669.222E-3	-18.6833E-3
3.06403E-3	117.183E-12	640.605E-3	-31.0699E-3	116.002E-12	663.963E-3	-7.61648E-3
3.05903E-3	116.864E-12	639.394E-3	-36.4205E-3	116.555E-12	657.693E-3	-12.9580E-3
3.05403E-3	116.864E-12	621.484E-3	-28.1058E-3	117.047E-12	659.393E-3	-20.4366E-3
3.04902E-3	116.939E-12	623.184E-3	-15.2464E-3	117.039E-12	677.036E-3	-19.9459E-3
3.04402E-3	116.583E-12	662.801E-3	-5.30252E-3	116.922E-12	697.559E-3	-20.7843E-3
3.03902E-3	116.230E-12	689.855E-3	-11.4145E-3	117.091E-12	679.120E-3	-15.5942E-3
3.03402E-3	116.255E-12	695.979E-3	-23.9401E-3	117.258E-12	656.153E-3	-16.7309E-3
3.02901E-3	116.302E-12	701.125E-3	-20.2902E-3	117.079E-12	668.248E-3	-39.8336E-3
3.02401E-3	116.025E-12	679.410E-3	-14.9367E-3	115.888E-12	673.915E-3	-51.9134E-3
3.01901E-3	116.002E-12	654.799E-3	-17.4898E-3	115.690E-12	657.626E-3	-29.6152E-3
3.01401E-3	115.400E-12	661.648E-3	-15.8207E-3	115.275E-12	639.050E-3	-25.0538E-3
3.00900E-3	115.060E-12	667.641E-3	-4.58248E-3	114.903E-12	635.716E-3	-47.4816E-3
3.00400E-3	114.859E-12	668.783E-3	2.26031E-3	114.474E-12	642.951E-3	-40.2437E-3
2.99900E-3	114.429E-12	670.724E-3	-11.1690E-3	114.310E-12	646.091E-3	-21.4648E-3
2.99400E-3	114.271E-12	666.269E-3	-48.0582E-3	114.331E-12	647.623E-3	-14.4508E-3
2.98899E-3	113.634E-12	673.071E-3	-78.9450E-3	114.077E-12	651.145E-3	-3.69999E-3
2.98399E-3	113.515E-12	705.321E-3	-51.9490E-3	113.488E-12	659.017E-3	-3.64727E-3
2.97899E-3	112.868E-12	713.175E-3	-9.13978E-3	113.033E-12	667.432E-3	-15.9111E-3
2.97399E-3	111.983E-12	677.064E-3	-14.8277E-3	112.580E-12	665.865E-3	-15.6079E-3
2.96898E-3	111.916E-12	655.028E-3	-31.7806E-3	112.446E-12	661.963E-3	-7.28111E-3
2.96398E-3	111.800E-12	650.853E-3	-19.5138E-3	112.158E-12	666.657E-3	-8.53537E-3
2.95898E-3	111.253E-12	643.122E-3	-6.92589E-3	111.914E-12	668.762E-3	-15.1459E-3
2.95398E-3	110.023E-12	645.507E-3	-8.78891E-3	111.318E-12	669.144E-3	-32.7456E-3
2.94897E-3	109.902E-12	645.412E-3	-16.5013E-3	111.410E-12	665.108E-3	-44.7060E-3
2.94397E-3	109.583E-12	633.366E-3	-27.8890E-3	111.939E-12	655.184E-3	-33.2603E-3
2.93897E-3	109.779E-12	637.474E-3	-22.5812E-3	112.055E-12	659.169E-3	-15.7906E-3
2.93397E-3	108.894E-12	645.070E-3	-403.059E-6	112.060E-12	664.404E-3	-1.70630E-3
2.92896E-3	108.831E-12	635.967E-3	-4.19838E-3	111.850E-12	662.485E-3	-471.410E-6
2.92396E-3	108.943E-12	631.334E-3	-28.4604E-3	112.059E-12	663.960E-3	-2.23821E-3
2.91896E-3	109.228E-12	641.718E-3	-26.7740E-3	112.169E-12	671.950E-3	11.5814E-3
2.91396E-3	109.283E-12	645.974E-3	-10.6302E-3	112.244E-12	681.348E-3	24.8602E-3
2.90895E-3	109.304E-12	655.623E-3	-181.100E-6	111.433E-12	665.021E-3	12.1354E-3
2.90395E-3	109.280E-12	684.324E-3	19.2723E-3	110.587E-12	634.871E-3	-71.0273E-6
2.89895E-3	108.967E-12	688.531E-3	35.7444E-3	110.089E-12	630.998E-3	-912.136E-6
2.89395E-3	108.566E-12	676.467E-3	4.77304E-3	109.570E-12	647.691E-3	-15.8768E-3
2.88894E-3	108.438E-12	664.686E-3	-33.2290E-3	107.977E-12	655.610E-3	-32.2876E-3
2.88394E-3	108.177E-12	645.362E-3	-31.5912E-3	106.882E-12	658.875E-3	-21.1232E-3
2.87894E-3	107.911E-12	650.822E-3	-27.6983E-3	106.099E-12	643.842E-3	-1.16140E-3
2.87394E-3	107.320E-12	674.026E-3	-33.0852E-3	105.396E-12	610.561E-3	2.89130E-3
2.86893E-3	106.974E-12	672.243E-3	-46.4108E-3	104.390E-12	603.959E-3	-128.715E-6
2.86393E-3	106.111E-12	666.016E-3	-45.3224E-3	103.474E-12	617.092E-3	-9.22385E-3
2.85893E-3	105.771E-12	662.085E-3	-21.0806E-3	103.377E-12	628.637E-3	-14.2501E-3
2.85393E-3	105.232E-12	637.663E-3	-225.543E-6	103.672E-12	649.363E-3	-6.01156E-3
2.84892E-3	104.954E-12	625.519E-3	15.7870E-3	103.477E-12	663.028E-3	223.677E-6
2.84392E-3	104.780E-12	622.946E-3	29.3465E-3	103.886E-12	651.773E-3	-3.15410E-3
2.83892E-3	104.806E-12	615.650E-3	18.7268E-3	104.717E-12	648.879E-3	-10.2359E-3
2.83392E-3	104.816E-12	638.306E-3	-15.5270E-3	105.522E-12	656.765E-3	-21.9317E-3
2.82891E-3	104.855E-12	667.328E-3	-16.5425E-3	105.459E-12	651.260E-3	-28.2176E-3
2.82391E-3	105.446E-12	654.711E-3	15.9480E-3	106.443E-12	658.830E-3	-27.0277E-3
2.81891E-3	105.465E-12	630.191E-3	18.1018E-3	106.962E-12	674.980E-3	-27.3514E-3
2.81391E-3	105.617E-12	623.904E-3	-6.94372E-3	107.115E-12	664.818E-3	-31.9466E-3
2.80890E-3	105.782E-12	629.414E-3	-15.9279E-3	106.737E-12	648.216E-3	-36.0905E-3
2.80390E-3	105.992E-12	646.318E-3	-12.4942E-3	106.275E-12	640.586E-3	-40.8270E-3
2.79890E-3	105.899E-12	666.418E-3	-10.2530E-3	105.610E-12	634.473E-3	-51.1184E-3
2.79390E-3	105.491E-12	672.555E-3	-3.75456E-3	104.656E-12	638.961E-3	-49.1798E-3
2.78889E-3	105.680E-12	662.259E-3	-11.5586E-3	103.772E-12	647.504E-3	-27.7623E-3
2.78389E-3	105.901E-12	660.428E-3	-30.3417E-3	102.679E-12	639.304E-3	-11.4789E-3
2.77889E-3	105.172E-12	661.212E-3	-30.7907E-3	101.952E-12	626.902E-3	-3.86322E-3
2.77389E-3	104.294E-12	662.650E-3	-32.3221E-3	101.345E-12	631.534E-3	5.34542E-3
2.76888E-3	104.302E-12	681.111E-3	-30.8679E-3	100.189E-12	643.215E-3	5.94618E-3
2.76388E-3	104.045E-12	680.487E-3	-19.8238E-3	99.8496E-12	646.310E-3	-1.97764E-3
2.75888E-3	103.292E-12	654.896E-3	-23.3169E-3	99.7184E-12	652.341E-3	-280.334E-6
2.75388E-3	102.928E-12	639.816E-3	-15.2640E-3	99.9736E-12	663.625E-3	2.25418E-3
2.74887E-3	102.398E-12	638.233E-3	1.46405E-3	99.9730E-12	668.353E-3	-11.1780E-3
2.74387E-3	102.331E-12	639.869E-3	-22.4093E-3	100.734E-12	669.003E-3	-27.3779E-3
2.73887E-3	101.905E-12	645.032E-3	-46.6292E-3	101.495E-12	677.556E-3	-27.9299E-3
2.73387E-3	101.503E-12	656.317E-3	-20.0037E-3	102.173E-12	684.192E-3	-13.1326E-3
2.72886E-3	101.728E-12	663.274E-3	-3.87606E-3	102.878E-12	681.684E-3	-15.3806E-3
2.72386E-3	101.739E-12	667.576E-3	-18.7908E-3	103.496E-12	680.166E-3	-26.7864E-3
2.71886E-3	101.045E-12	667.994E-3	-20.2298E-3	104.152E-12	683.259E-3	-21.4023E-3
2.71386E-3	101.239E-12	663.417E-3	-15.0395E-3	104.292E-12	694.656E-3	-21.2660E-3
2.70885E-3	101.058E-12	666.816E-3	-6.03835E-3	104.131E-12	703.788E-3	-31.0348E-3
2.70385E-3	100.627E-12	668.105E-3	12.1603E-3	103.827E-12	694.401E-3	-37.4775E-3
2.69885E-3	100.365E-12	669.147E-3	19.5569E-3	103.794E-12	685.093E-3	-40.6347E-3
2.69385E-3	100.097E-12	681.638E-3	12.1085E-3	103.049E-12	689.695E-3	-30.0102E-3
2.68884E-3	99.8367E-12	695.520E-3	-8.12585E-3	102.037E-12	679.672E-3	-13.5256E-3
2.68384E-3	99.6181E-12	692.966E-3	-30.9989E-3	101.078E-12	646.055E-3	1.50797E-3
2.67884E-3	99.0851E-12	682.243E-3	-25.1120E-3	100.430E-12	638.465E-3	-1.15178E-3
2.67384E-3	99.0578E-12	677.455E-3	-8.47042E-3	99.2841E-12	661.051E-3	-18.9648E-3
2.66883E-3	98.6936E-12	668.289E-3	-28.9694E-3	98.3703E-12	668.258E-3	-17.0917E-3
2.66383E-3	98.7796E-12	670.123E-3	-65.9480E-3	97.7480E-12	660.715E-3	-12.3082E-3
2.65883E-3	98.0854E-12	675.840E-3	-67.1728E-3	97.1507E-12	650.661E-3	-15.5351E-3
2.65383E-3	98.0721E-12	666.103E-3	-40.3702E-3	97.0060E-12	643.241E-3	-23.0846E-3
2.64882E-3	97.1699E-12	669.844E-3	-16.9250E-3	96.9483E-12	648.673E-3	-39.0336E-3
2.64382E-3	96.8316E-12	689.238E-3	-15.3538E-3	97.5334E-12	666.514E-3	-46.9518E-3
2.63882E-3	96.5268E-12	687.949E-3	-29.0113E-3	97.0646E-12	686.159E-3	-32.4881E-3
2.63382E-3	96.5005E-12	671.642E-3	-33.8740E-3	97.5417E-12	702.312E-3	-5.10378E-3
2.62881E-3	95.7339E-12	663.919E-3	-21.9374E-3	98.0129E-12	712.971E-3	1.68985E-3
2.62381E-3	95.7732E-12	667.184E-3	-12.8175E-3	98.3416E-12	702.926E-3	-10.9671E-3
2.61881E-3	95.6451E-12	678.271E-3	-22.5758E-3	98.2848E-12	682.120E-3	-26.4710E-3
2.61381E-3	95.3548E-12	686.037E-3	-21.9601E-3	98.1823E-12	682.531E-3	-36.6291E-3
2.60880E-3	94.8664E-12	675.388E-3	-16.3823E-3	98.0662E-12	687.701E-3	-28.7835E-3
2.60380E-3	94.7969E-12	662.139E-3	-29.3165E-3	98.0242E-12	684.366E-3	-9.94207E-3
2.59880E-3	95.1988E-12	676.029E-3	-31.0801E-3	97.4113E-12	683.547E-3	6.31026E-3
2.59380E-3	94.7358E-12	690.712E-3	-13.8429E-3	96.6643E-12	680.237E-3	-1.11514E-3
2.58879E-3	94.9434E-12	692.833E-3	-10.3998E-3	96.5323E-12	677.844E-3	-18.2781E-3
2.58379E-3	95.0430E-12	695.426E-3	-17.2304E-3	96.3369E-12	666.649E-3	-23.7079E-3
2.57879E-3	94.7241E-12	693.902E-3	-6.57265E-3	95.4656E-12	649.990E-3	-15.6335E-3
2.57379E-3	94.2192E-12	701.979E-3	873.675E-6	94.1896E-12	655.345E-3	-4.74016E-3
2.56878E-3	94.1130E-12	704.357E-3	-4.04333E-3	93.7547E-12	657.001E-3	-16.5926E-3
2.56378E-3	94.2366E-12	673.274E-3	-7.16156E-3	93.2926E-12	649.197E-3	-30.4807E-3
2.55878E-3	93.8782E-12	644.036E-3	-10.4743E-3	92.8053E-12	664.759E-3	-31.2461E-3
2.55378E-3	93.4108E-12	646.618E-3	-9.99050E-3	91.8302E-12	677.867E-3	-33.0887E-3
2.54877E-3	93.1912E-12	666.968E-3	-6.65861E-3	91.5727E-12	672.460E-3	-22.0250E-3
2.54377E-3	93.2555E-12	677.926E-3	-7.80438E-3	91.2299E-12	678.976E-3	-6.01175E-3
2.53877E-3	92.8315E-12	680.190E-3	-11.4136E-3	90.7326E-12	687.512E-3	-10.2320E-3
2.53377E-3	92.5848E-12	677.711E-3	-26.3782E-3	90.7568E-12	687.692E-3	-21.5369E-3
2.52876E-3	92.7727E-12	677.154E-3	-42.6569E-3	90.4711E-12	691.174E-3	-31.8286E-3
2.52376E-3	92.4862E-12	690.103E-3	-32.8086E-3	91.0806E-12	687.436E-3	-43.3896E-3
2.51876E-3	92.6261E-12	694.997E-3	-17.4534E-3	91.1500E-12	675.373E-3	-35.0307E-3
2.51376E-3	92.1808E-12	696.288E-3	-14.5169E-3	91.5769E-12	665.872E-3	-1.37878E-3
2.50875E-3	92.3035E-12	697.131E-3	-11.1401E-3	91.6667E-12	665.511E-3	29.7763E-3
2.50375E-3	91.7959E-12	681.633E-3	-13.7687E-3	92.2288E-12	679.435E-3	34.7827E-3
2.49875E-3	91.5887E-12	677.863E-3	-21.7377E-3	92.0336E-12	693.611E-3	18.4841E-3
2.49375E-3	91.2797E-12	684.100E-3	-14.7785E-3	92.1244E-12	699.867E-3	6.77286E-3
2.48874E-3	91.4731E-12	676.740E-3	-7.92780E-3	92.1484E-12	712.166E-3	2.87205E-3
2.48374E-3	90.7241E-12	669.875E-3	-21.8891E-3	91.6134E-12	717.004E-3	-10.2748E-3
2.47874E-3	90.9704E-12	665.027E-3	-37.4927E-3	91.1165E-12	700.718E-3	-20.5863E-3
2.47374E-3	90.5488E-12	664.329E-3	-37.5769E-3	90.9159E-12	681.207E-3	-19.4822E-3
2.46873E-3	90.2251E-12	683.120E-3	-37.0343E-3	90.5929E-12	675.581E-3	-8.17080E-3
2.46373E-3	89.9000E-12	702.973E-3	-38.3968E-3	89.4239E-12	673.594E-3	11.4238E-3
2.45873E-3	89.8929E-12	689.517E-3	-35.4086E-3	88.7417E-12	680.617E-3	4.10993E-3
2.45373E-3	89.6882E-12	661.995E-3	-44.0156E-3	87.8961E-12	695.386E-3	-29.3007E-3
2.44872E-3	88.8538E-12	658.952E-3	-56.0889E-3	86.8472E-12	692.045E-3	-40.3129E-3
2.44372E-3	88.9800E-12	668.800E-3	-46.1733E-3	86.4723E-12	679.098E-3	-36.0559E-3
2.43872E-3	88.8715E-12	680.161E-3	-26.1454E-3	85.9178E-12	676.290E-3	-39.5682E-3
2.43372E-3	88.5668E-12	694.495E-3	-20.8071E-3	85.7410E-12	674.277E-3	-41.6255E-3
2.42871E-3	88.1214E-12	692.107E-3	-12.6810E-3	85.4208E-12	667.532E-3	-26.5865E-3
2.42371E-3	88.3531E-12	682.071E-3	-8.62138E-3	85.8520E-12	676.845E-3	-3.25657E-3
2.41871E-3	87.9849E-12	693.024E-3	-14.2987E-3	85.9780E-12	699.012E-3	10.8232E-3
2.41371E-3	87.3065E-12	707.584E-3	-14.4679E-3	86.4867E-12	708.050E-3	12.4236E-3
2.40870E-3	87.1767E-12	700.485E-3	-28.3741E-3	87.2870E-12	708.600E-3	2.80324E-3
2.40370E-3	86.9357E-12	694.813E-3	-53.7730E-3	87.2313E-12	709.106E-3	-12.8495E-3
2.39870E-3	86.7373E-12	695.887E-3	-52.6955E-3	87.5773E-12	701.453E-3	-30.0475E-3
2.39370E-3	86.1407E-12	686.602E-3	-23.2742E-3	88.4864E-12	696.998E-3	-38.7387E-3
2.38869E-3	85.7330E-12	691.537E-3	-1.04275E-3	88.5147E-12	699.893E-3	-41.1590E-3
2.38369E-3	85.1368E-12	704.784E-3	4.12907E-3	88.1691E-12	701.802E-3	-45.5176E-3
2.37869E-3	85.1535E-12	702.134E-3	-9.12528E-3	88.2888E-12	687.794E-3	-42.5669E-3
2.37369E-3	84.3700E-12	707.500E-3	-25.6267E-3	88.0848E-12	676.160E-3	-33.4569E-3
2.36868E-3	84.5281E-12	714.917E-3	-28.4268E-3	87.0913E-12	692.366E-3	-30.6301E-3
2.36368E-3	83.7285E-12	703.204E-3	-30.4279E-3	86.2492E-12	708.067E-3	-26.5593E-3
2.35868E-3	83.4994E-12	697.409E-3	-32.0410E-3	85.5238E-12	701.081E-3	-25.7813E-3
2.35368E-3	83.1644E-12	688.461E-3	-26.3737E-3	84.5083E-12	687.845E-3	-27.4293E-3
2.34867E-3	83.2452E-12	668.545E-3	-20.6419E-3	83.7201E-12	700.367E-3	-26.9400E-3
2.34367E-3	83.3100E-12	670.095E-3	-19.8787E-3	82.4064E-12	719.355E-3	-20.0255E-3
2.33867E-3	82.8458E-12	683.320E-3	-10.8730E-3	81.8622E-12	722.774E-3	-11.2986E-3
2.33367E-3	82.6674E-12	679.892E-3	-6.76396E-3	81.5576E-12	717.996E-3	-8.91318E-3
2.32866E-3	82.8426E-12	667.677E-3	-13.5279E-3	81.5180E-12	706.952E-3	-2.33909E-3
2.32366E-3	82.8828E-12	660.789E-3	-5.69463E-3	80.8985E-12	697.687E-3	603.987E-6
2.31866E-3	82.7416E-12	669.106E-3	5.52243E-3	80.9349E-12	698.545E-3	-3.63687E-3
2.31366E-3	82.5700E-12	699.584E-3	9.59631E-3	81.5220E-12	716.413E-3	-20.7821E-3
2.30865E-3	82.4782E-12	723.731E-3	10.0060E-3	82.0207E-12	728.692E-3	-31.8711E-3
2.30365E-3	82.2128E-12	722.773E-3	-11.5824E-3	82.2707E-12	720.197E-3	-9.28126E-3
2.29865E-3	82.1574E-12	708.721E-3	-39.5773E-3	82.5572E-12	710.733E-3	12.5165E-3
2.29365E-3	81.6654E-12	697.836E-3	-35.5406E-3	83.2783E-12	716.139E-3	14.2777E-3
2.28864E-3	81.1696E-12	697.700E-3	-12.7732E-3	83.3798E-12	729.779E-3	5.16251E-3
2.28364E-3	81.0891E-12	713.101E-3	-12.3040E-3	83.1876E-12	730.358E-3	5.68724E-3
2.27864E-3	80.8314E-12	721.809E-3	-25.1742E-3	82.8585E-12	714.418E-3	10.9370E-3
2.27364E-3	80.4724E-12	704.286E-3	-21.6727E-3	82.3315E-12	708.908E-3	-4.13001E-3
2.26863E-3	80.1265E-12	697.775E-3	-9.82826E-3	81.6763E-12	715.855E-3	-17.3961E-3
2.26363E-3	80.1144E-12	714.234E-3	-10.7889E-3	80.7144E-12	712.390E-3	-10.4940E-3
2.25863E-3	79.6927E-12	721.909E-3	-22.4118E-3	79.9589E-12	700.247E-3	-1.24989E-3
2.25363E-3	79.4555E-12	714.545E-3	-24.8517E-3	78.8340E-12	693.643E-3	-9.83165E-3
2.24862E-3	78.8179E-12	707.175E-3	-20.9403E-3	78.5327E-12	695.762E-3	-23.6191E-3
2.24362E-3	78.9055E-12	705.210E-3	-15.2966E-3	77.3245E-12	695.698E-3	-15.3433E-3
2.23862E-3	78.5450E-12	699.816E-3	-16.4570E-3	76.7586E-12	693.942E-3	1.13972E-3
2.23362E-3	78.0783E-12	686.290E-3	-28.4391E-3	76.3147E-12	701.644E-3	10.1651E-3
2.22861E-3	77.4173E-12	685.616E-3	-41.7539E-3	76.0429E-12	708.930E-3	5.31360E-3
2.22361E-3	77.4364E-12	697.146E-3	-44.5126E-3	75.9578E-12	707.348E-3	-2.14690E-3
2.21861E-3	77.3145E-12	699.896E-3	-23.8965E-3	76.2666E-12	701.890E-3	1.83171E-3
2.21361E-3	76.9121E-12	700.975E-3	-12.8083E-3	76.2492E-12	701.395E-3	-2.81437E-3
2.20860E-3	76.7059E-12	714.157E-3	-17.1343E-3	76.3058E-12	712.840E-3	-14.9758E-3
2.20360E-3	76.8640E-12	719.313E-3	-12.7933E-3	76.8239E-12	729.440E-3	-17.9607E-3
2.19860E-3	76.7789E-12	708.776E-3	-14.0590E-3	77.0251E-12	736.515E-3	-11.2010E-3
2.19360E-3	76.4530E-12	709.342E-3	-23.9321E-3	77.4894E-12	735.694E-3	-2.59241E-3
2.18859E-3	76.1392E-12	719.170E-3	-20.7302E-3	77.6816E-12	737.613E-3	-3.58353E-3
2.18359E-3	76.5307E-12	724.649E-3	-9.82497E-3	77.4185E-12	733.227E-3	-13.6626E-3
2.17859E-3	76.0270E-12	729.587E-3	-11.9236E-3	77.6217E-12	729.910E-3	-23.8529E-3
2.17359E-3	75.7664E-12	729.241E-3	-12.4126E-3	77.3764E-12	725.866E-3	-22.3788E-3
2.16858E-3	75.3846E-12	731.555E-3	-16.0846E-3	77.0959E-12	711.576E-3	-14.7906E-3
2.16358E-3	75.2026E-12	737.845E-3	-31.9502E-3	76.5990E-12	720.239E-3	-12.9491E-3
2.15858E-3	74.7571E-12	733.133E-3	-28.6090E-3	76.4055E-12	744.439E-3	-14.7824E-3
2.15358E-3	74.2923E-12	719.014E-3	-17.6535E-3	75.6466E-12	748.810E-3	-19.3960E-3
2.14857E-3	73.8483E-12	701.886E-3	-15.5776E-3	75.1674E-12	741.735E-3	-23.8820E-3
2.14357E-3	73.4866E-12	689.717E-3	-8.89629E-3	74.6888E-12	740.234E-3	-28.6566E-3
2.13857E-3	73.1666E-12	684.882E-3	-7.91820E-3	74.2688E-12	743.128E-3	-38.0376E-3
2.13357E-3	72.8788E-12	688.245E-3	-9.59331E-3	73.6220E-12	751.594E-3	-43.6074E-3
2.12856E-3	72.5027E-12	701.936E-3	-8.41108E-3	73.4489E-12	755.279E-3	-36.5238E-3
2.12356E-3	72.7141E-12	709.418E-3	-22.6370E-3	73.4343E-12	737.972E-3	-22.5334E-3
2.11856E-3	72.4877E-12	713.269E-3	-42.3321E-3	73.0919E-12	720.281E-3	-15.6843E-3
2.11356E-3	72.6532E-12	726.341E-3	-37.4214E-3	72.7879E-12	722.341E-3	-21.9536E-3
2.10855E-3	72.4011E-12	734.587E-3	-13.9643E-3	72.6459E-12	730.567E-3	-38.2454E-3
2.10355E-3	72.4102E-12	735.898E-3	-4.68579E-3	72.8216E-12	742.791E-3	-43.3024E-3
2.09855E-3	72.2081E-12	741.973E-3	-7.94199E-3	72.6813E-12	753.142E-3	-24.1343E-3
2.09355E-3	72.4369E-12	734.475E-3	-10.1365E-3	72.5768E-12	752.460E-3	-2.00192E-3
2.08854E-3	71.9991E-12	716.527E-3	-17.9038E-3	72.3257E-12	746.824E-3	7.04770E-3
2.08354E-3	71.9420E-12	717.052E-3	-22.7094E-3	72.2429E-12	739.682E-3	-3.82691E-3
2.07854E-3	71.7856E-12	722.720E-3	-17.8704E-3	71.9353E-12	731.193E-3	-20.4772E-3
2.07354E-3	71.6180E-12	729.700E-3	-20.0615E-3	71.7513E-12	726.451E-3	-21.1181E-3
2.06853E-3	71.2995E-12	740.102E-3	-30.5634E-3	71.4956E-12	737.907E-3	-24.1622E-3
2.06353E-3	70.8344E-12	742.069E-3	-20.2017E-3	71.0334E-12	754.427E-3	-31.5450E-3
2.05853E-3	70.8247E-12	751.728E-3	2.71014E-3	70.8469E-12	758.594E-3	-29.8769E-3
2.05353E-3	70.2533E-12	767.401E-3	-2.56412E-3	70.2465E-12	763.953E-3	-28.4516E-3
2.04852E-3	69.9378E-12	773.150E-3	-15.3433E-3	69.7804E-12	763.994E-3	-15.8761E-3
2.04352E-3	69.3707E-12	776.359E-3	-13.5751E-3	69.1783E-12	745.864E-3	5.91729E-3
2.03852E-3	69.1655E-12	772.616E-3	-10.0473E-3	68.7151E-12	733.501E-3	1.41536E-3
2.03352E-3	68.6914E-12	758.024E-3	1.89706E-3	68.1624E-12	731.415E-3	-16.9464E-3
2.02851E-3	68.3946E-12	745.397E-3	948.626E-6	67.7317E-12	742.952E-3	-19.3410E-3
2.02351E-3	68.4060E-12	744.567E-3	-14.0898E-3	67.2236E-12	755.509E-3	-17.3632E-3
2.01851E-3	68.1958E-12	745.224E-3	-16.7220E-3	66.5063E-12	748.878E-3	-11.6976E-3
2.01351E-3	68.2292E-12	744.403E-3	-19.9425E-3	66.5579E-12	746.753E-3	675.589E-6
2.00850E-3	68.0828E-12	749.835E-3	-28.8235E-3	66.4056E-12	758.253E-3	-1.24324E-3
2.00350E-3	68.0524E-12	751.681E-3	-18.4375E-3	66.2158E-12	763.778E-3	-16.8699E-3
1.99850E-3	67.7182E-12	749.016E-3	-3.13629E-3	65.8706E-12	759.641E-3	-26.1239E-3
1.99350E-3	67.4227E-12	747.085E-3	-10.4006E-3	66.1881E-12	761.717E-3	-20.3211E-3
1.98849E-3	67.4541E-12	746.505E-3	-20.1465E-3	66.1551E-12	768.519E-3	-11.4181E-3
1.98349E-3	67.3586E-12	751.161E-3	-25.0377E-3	66.0277E-12	775.419E-3	-1.55344E-3
1.97849E-3	67.1937E-12	758.913E-3	-23.9329E-3	65.9141E-12	775.685E-3	2.28844E-3
1.97349E-3	66.8566E-12	763.574E-3	-18.3097E-3	65.8473E-12	758.777E-3	-11.5669E-3
1.96848E-3	66.8469E-12	769.199E-3	-24.6796E-3	66.0217E-12	747.100E-3	-5.52981E-3
1.96348E-3	66.5004E-12	779.068E-3	-31.2295E-3	65.9245E-12	756.522E-3	8.37743E-3
1.95848E-3	65.9485E-12	775.466E-3	-27.1333E-3	65.8108E-12	770.715E-3	4.73619E-3
1.95348E-3	65.3777E-12	765.043E-3	-34.1666E-3	65.5703E-12	773.888E-3	8.32055E-3
1.94847E-3	64.9817E-12	765.645E-3	-41.2733E-3	65.3149E-12	764.337E-3	-506.086E-6
1.94347E-3	64.6482E-12	767.362E-3	-24.9971E-3	64.9752E-12	759.158E-3	-21.6654E-3
1.93847E-3	64.0971E-12	773.981E-3	-6.95504E-3	64.4813E-12	767.186E-3	-22.0223E-3
1.93347E-3	63.8604E-12	794.548E-3	6.32252E-3	63.9979E-12	772.376E-3	-16.3718E-3
1.92846E-3	63.4856E-12	804.880E-3	700.989E-6	63.6312E-12	770.444E-3	-20.6081E-3
1.92346E-3	63.0219E-12	793.621E-3	-26.2221E-3	63.2325E-12	778.725E-3	-23.4963E-3
1.91846E-3	62.6491E-12	783.271E-3	-32.2557E-3	62.8525E-12	790.326E-3	-27.2857E-3
1.91346E-3	62.3383E-12	781.454E-3	-20.7716E-3	62.5350E-12	785.704E-3	-28.6379E-3
1.90845E-3	62.0229E-12	780.884E-3	-22.5174E-3	62.2983E-12	777.482E-3	-26.6051E-3
1.90345E-3	61.6716E-12	776.313E-3	-31.9161E-3	62.0352E-12	777.603E-3	-35.9235E-3
1.89845E-3	61.2833E-12	762.598E-3	-32.0922E-3	62.1190E-12	784.492E-3	-43.3298E-3
1.89345E-3	61.1940E-12	754.855E-3	-27.2623E-3	61.8921E-12	785.691E-3	-38.9870E-3
1.88844E-3	61.1617E-12	767.586E-3	-27.5830E-3	61.6606E-12	788.177E-3	-42.4832E-3
1.88344E-3	60.8341E-12	780.012E-3	-25.8435E-3	61.3886E-12	800.749E-3	-37.3433E-3
1.87844E-3	60.8248E-12	785.428E-3	-20.5494E-3	61.3827E-12	807.899E-3	-13.7342E-3
1.87344E-3	60.8337E-12	800.112E-3	-11.6451E-3	61.2116E-12	814.023E-3	-8.59093E-3
1.86843E-3	60.6478E-12	810.910E-3	7.84419E-3	61.3106E-12	814.467E-3	-14.9797E-3
1.86343E-3	60.2891E-12	796.736E-3	14.0915E-3	61.0018E-12	807.334E-3	-14.0459E-3
1.85843E-3	60.5652E-12	787.057E-3	4.67690E-3	60.8973E-12	811.409E-3	-23.6544E-3
1.85343E-3	60.0978E-12	801.543E-3	7.49195E-3	60.6917E-12	813.321E-3	-37.8334E-3
1.84842E-3	59.7228E-12	808.490E-3	6.94889E-3	60.4594E-12	802.057E-3	-32.9321E-3
1.84342E-3	59.3596E-12	804.020E-3	-9.37396E-3	59.9521E-12	798.159E-3	-11.2498E-3
1.83842E-3	59.2888E-12	807.193E-3	-23.3065E-3	59.2895E-12	798.790E-3	-825.736E-6
1.83342E-3	58.9235E-12	822.368E-3	-30.2565E-3	58.9983E-12	799.649E-3	-10.0816E-3
1.82841E-3	58.3461E-12	833.718E-3	-29.2786E-3	58.6650E-12	804.104E-3	-19.1952E-3
1.82341E-3	58.0237E-12	822.943E-3	-27.3168E-3	57.8374E-12	804.429E-3	-26.8953E-3
1.81841E-3	57.4931E-12	801.174E-3	-16.8537E-3	57.2549E-12	799.812E-3	-31.7211E-3
1.81341E-3	57.1102E-12	787.696E-3	-2.20442E-3	56.7389E-12	800.828E-3	-30.6214E-3
1.80840E-3	56.5201E-12	785.990E-3	-11.2477E-3	56.5858E-12	806.758E-3	-24.6829E-3
1.80340E-3	56.0559E-12	792.946E-3	-23.5096E-3	56.1657E-12	812.659E-3	-15.6120E-3
1.79840E-3	55.8321E-12	800.587E-3	-22.0361E-3	56.0256E-12	824.651E-3	-5.88733E-3
1.79340E-3	55.3467E-12	813.974E-3	-19.6475E-3	55.9759E-12	837.758E-3	-1.74976E-3
1.78839E-3	55.1812E-12	823.711E-3	-26.7579E-3	56.0183E-12	843.530E-3	-9.36581E-3
1.78339E-3	54.9099E-12	813.952E-3	-36.6733E-3	55.9137E-12	856.009E-3	-19.7669E-3
1.77839E-3	54.6926E-12	810.202E-3	-34.2106E-3	55.7378E-12	866.778E-3	-27.5264E-3
1.77339E-3	54.6166E-12	813.676E-3	-18.5338E-3	55.8572E-12	859.181E-3	-25.1241E-3
1.76838E-3	54.6320E-12	809.662E-3	-7.43682E-3	55.7821E-12	853.796E-3	-4.02082E-3
1.76338E-3	54.2864E-12	810.741E-3	-10.1512E-3	55.7336E-12	863.636E-3	2.68253E-3
1.75838E-3	54.0822E-12	822.996E-3	-9.75765E-3	55.6459E-12	870.904E-3	-18.0822E-3
1.75338E-3	53.9150E-12	841.244E-3	-8.12790E-3	55.3772E-12	861.538E-3	-36.5677E-3
1.74837E-3	53.8311E-12	852.611E-3	-7.32085E-3	54.9815E-12	855.174E-3	-46.7650E-3
1.74337E-3	53.7777E-12	852.781E-3	-2.20199E-3	54.5045E-12	857.346E-3	-47.2246E-3
1.73837E-3	53.4917E-12	856.600E-3	-3.84299E-3	53.9690E-12	844.795E-3	-29.9388E-3
1.73337E-3	53.3087E-12	857.276E-3	-15.3858E-3	53.4397E-12	831.572E-3	-14.6013E-3
1.72836E-3	53.2136E-12	852.746E-3	-27.9031E-3	52.6374E-12	848.775E-3	-22.4111E-3
1.72336E-3	52.8365E-12	862.508E-3	-35.3128E-3	51.8092E-12	870.428E-3	-34.4629E-3
1.71836E-3	52.6140E-12	873.056E-3	-34.7393E-3	51.3825E-12	871.247E-3	-31.1409E-3
1.71336E-3	52.1864E-12	863.726E-3	-22.8340E-3	50.8296E-12	871.020E-3	-28.4635E-3
1.70835E-3	52.0803E-12	856.395E-3	-11.3547E-3	50.4259E-12	881.143E-3	-31.3876E-3
1.70335E-3	51.4474E-12	867.396E-3	-10.6224E-3	49.7972E-12	884.753E-3	-23.7998E-3
1.69835E-3	51.1268E-12	871.632E-3	-11.1323E-3	49.8687E-12	875.803E-3	-14.3791E-3
1.69335E-3	50.7810E-12	873.272E-3	-16.7757E-3	49.5531E-12	874.844E-3	-11.3997E-3
1.68834E-3	50.2117E-12	889.750E-3	-15.7073E-3	49.4046E-12	888.804E-3	-10.4709E-3
1.68334E-3	49.9444E-12	895.867E-3	2.28335E-3	49.2126E-12	900.780E-3	-20.4790E-3
1.67834E-3	49.7686E-12	884.342E-3	6.51902E-3	49.2764E-12	906.923E-3	-31.2592E-3
1.67334E-3	49.4806E-12	889.436E-3	-6.13957E-3	49.4942E-12	913.180E-3	-30.2348E-3
1.66833E-3	49.0851E-12	901.326E-3	-9.72056E-3	49.2264E-12	917.522E-3	-31.8737E-3
1.66333E-3	48.7302E-12	892.593E-3	-16.1640E-3	49.0578E-12	923.686E-3	-27.7510E-3
1.65833E-3	48.6542E-12	888.463E-3	-24.1109E-3	48.9075E-12	935.296E-3	-13.5095E-3
1.65333E-3	48.2551E-12	902.766E-3	-16.9274E-3	48.7853E-12	941.491E-3	-9.46858E-3
1.64832E-3	47.8533E-12	913.353E-3	-17.5425E-3	48.4284E-12	932.328E-3	-21.5490E-3
1.64332E-3	47.5761E-12	908.328E-3	-29.1002E-3	48.0380E-12	925.152E-3	-37.7690E-3
1.63832E-3	47.4794E-12	904.903E-3	-23.3526E-3	47.5974E-12	934.299E-3	-41.6086E-3
1.63332E-3	47.1818E-12	909.954E-3	-8.45735E-3	47.0591E-12	947.319E-3	-29.5311E-3
1.62831E-3	46.8266E-12	924.141E-3	-6.18215E-3	46.6398E-12	941.933E-3	-18.4641E-3
1.62331E-3	46.5926E-12	947.900E-3	-1.58353E-3	46.0301E-12	925.437E-3	-15.3637E-3
1.61831E-3	46.0895E-12	958.268E-3	-2.70731E-3	45.7225E-12	923.986E-3	-15.5447E-3
1.61331E-3	45.6518E-12	946.889E-3	-16.6400E-3	45.2305E-12	936.480E-3	-17.9551E-3
1.60830E-3	45.1803E-12	931.932E-3	-11.8932E-3	45.1172E-12	951.092E-3	-21.8276E-3
1.60330E-3	44.9931E-12	928.011E-3	2.98853E-3	44.5093E-12	960.893E-3	-29.1481E-3
1.59830E-3	44.4317E-12	941.830E-3	-4.51923E-3	44.3687E-12	955.802E-3	-35.1632E-3
1.59330E-3	43.9785E-12	953.986E-3	-24.1423E-3	43.8947E-12	955.383E-3	-31.3460E-3
1.58829E-3	43.6396E-12	947.912E-3	-43.8603E-3	43.5060E-12	970.127E-3	-13.9274E-3
1.58329E-3	43.3645E-12	945.125E-3	-56.6165E-3	43.4358E-12	970.256E-3	14.2490E-3
1.57829E-3	43.1272E-12	948.899E-3	-37.2132E-3	43.2281E-12	961.747E-3	24.4925E-3
1.57329E-3	42.5506E-12	958.889E-3	-18.3542E-3	42.9855E-12	972.055E-3	-2.02674E-3
1.56828E-3	42.3269E-12	976.447E-3	-27.9322E-3	42.7178E-12	1.00271E+0	-32.0603E-3
1.56328E-3	42.1616E-12	977.703E-3	-23.7904E-3	42.7727E-12	1.03472E+0	-37.9493E-3
1.55828E-3	41.9384E-12	970.987E-3	-11.2805E-3	42.6134E-12	1.03249E+0	-33.0321E-3
1.55328E-3	41.5122E-12	971.615E-3	-12.1415E-3	42.3710E-12	1.01645E+0	-28.0479E-3
1.54827E-3	41.1948E-12	971.192E-3	-12.7237E-3	42.0957E-12	1.02192E+0	-27.2323E-3
1.54327E-3	40.9457E-12	970.152E-3	-12.4448E-3	41.9507E-12	1.02681E+0	-28.1070E-3
1.53827E-3	40.6796E-12	978.199E-3	-16.0945E-3	41.7991E-12	1.02677E+0	-18.2201E-3
1.53327E-3	40.4634E-12	984.278E-3	-11.5445E-3	41.4627E-12	1.03499E+0	-5.43800E-3
1.52826E-3	39.8225E-12	972.491E-3	3.98979E-3	41.2413E-12	1.03723E+0	-4.43347E-3
1.52326E-3	39.6023E-12	962.664E-3	-1.48762E-3	40.7075E-12	1.03224E+0	-17.9739E-3
1.51826E-3	39.2077E-12	969.722E-3	-18.4752E-3	40.2888E-12	1.04019E+0	-31.2216E-3
1.51326E-3	39.0054E-12	978.820E-3	-11.4973E-3	39.7925E-12	1.04027E+0	-29.8626E-3
1.50825E-3	38.5409E-12	980.913E-3	6.68826E-3	39.3980E-12	1.01605E+0	-25.0172E-3
1.50325E-3	38.2193E-12	982.873E-3	15.2901E-3	38.9247E-12	1.00096E+0	-18.4947E-3
1.49825E-3	37.9777E-12	985.201E-3	5.58463E-3	38.4401E-12	993.265E-3	-5.03598E-3
1.49325E-3	37.7472E-12	985.590E-3	-17.9606E-3	37.8155E-12	988.096E-3	-4.04748E-3
1.48824E-3	37.4605E-12	988.902E-3	-33.2922E-3	37.2819E-12	998.206E-3	-7.62126E-3
1.48324E-3	37.2400E-12	987.822E-3	-33.3876E-3	36.9596E-12	1.00227E+0	7.42266E-3
1.47824E-3	37.1270E-12	987.175E-3	-25.2394E-3	36.5703E-12	1.00010E+0	18.4343E-3
1.47324E-3	36.7480E-12	997.445E-3	-17.1658E-3	36.2366E-12	993.842E-3	10.9559E-3
1.46823E-3	36.4897E-12	1.00890E+0	-18.7885E-3	35.7532E-12	995.694E-3	-10.0457E-3
1.46323E-3	36.2906E-12	1.01694E+0	-29.0156E-3	35.6457E-12	1.01444E+0	-26.9639E-3
1.45823E-3	35.9161E-12	1.02480E+0	-31.1449E-3	35.3536E-12	1.02326E+0	-20.9771E-3
1.45323E-3	35.3648E-12	1.02423E+0	-20.8739E-3	35.0027E-12	1.02235E+0	-12.7563E-3
1.44822E-3	35.0908E-12	1.01626E+0	-17.2072E-3	34.5639E-12	1.02146E+0	-17.9569E-3
1.44322E-3	34.7778E-12	1.01950E+0	-24.2785E-3	34.4717E-12	1.02149E+0	-20.3805E-3
1.43822E-3	34.4271E-12	1.01815E+0	-20.0825E-3	34.2896E-12	1.02173E+0	-16.6432E-3
1.43322E-3	34.1418E-12	1.00362E+0	-16.2875E-3	33.9735E-12	1.01692E+0	-13.6934E-3
1.42821E-3	33.7421E-12	1.00405E+0	-21.0985E-3	33.4971E-12	1.01093E+0	-10.8178E-3
1.42321E-3	33.4841E-12	1.01660E+0	-18.0039E-3	33.2033E-12	1.00610E+0	-10.7882E-3
1.41821E-3	33.0828E-12	1.01421E+0	-21.2290E-3	32.7287E-12	1.00106E+0	-13.3278E-3
1.41321E-3	32.5173E-12	1.00886E+0	-29.8218E-3	32.1969E-12	990.751E-3	-24.2041E-3
1.40820E-3	32.2903E-12	1.01253E+0	-23.7017E-3	31.6514E-12	971.872E-3	-36.9035E-3
1.40320E-3	32.1272E-12	1.00855E+0	-12.2475E-3	31.2269E-12	957.509E-3	-33.3343E-3
1.39820E-3	31.6285E-12	998.329E-3	-6.94932E-3	30.8443E-12	949.956E-3	-20.8613E-3
1.39320E-3	31.2637E-12	994.955E-3	-4.19550E-3	30.2435E-12	944.653E-3	-12.5090E-3
1.38819E-3	31.0223E-12	999.731E-3	-15.2391E-3	29.9742E-12	946.922E-3	-5.35996E-3
1.38319E-3	30.7508E-12	1.00090E+0	-34.9298E-3	29.5763E-12	947.176E-3	-3.11433E-3
1.37819E-3	30.3270E-12	987.005E-3	-32.9030E-3	29.4785E-12	937.727E-3	-9.44962E-3
1.37319E-3	29.8593E-12	967.946E-3	-20.3632E-3	29.0914E-12	929.392E-3	-18.7039E-3
1.36818E-3	29.7092E-12	967.340E-3	-18.1740E-3	28.9433E-12	925.532E-3	-21.3668E-3
1.36318E-3	29.3034E-12	970.593E-3	-24.0909E-3	28.7874E-12	926.184E-3	-22.9642E-3
1.35818E-3	28.8717E-12	960.283E-3	-32.1952E-3	28.7159E-12	928.036E-3	-27.6288E-3
1.35318E-3	28.4849E-12	953.254E-3	-25.5469E-3	28.5357E-12	922.084E-3	-22.3918E-3
1.34817E-3	28.2636E-12	944.071E-3	-3.33922E-3	28.4125E-12	907.779E-3	-20.2948E-3
1.34317E-3	27.8296E-12	925.031E-3	-3.07963E-3	28.4506E-12	906.914E-3	-22.5113E-3
1.33817E-3	27.5285E-12	916.189E-3	-26.8830E-3	28.1879E-12	927.356E-3	-13.6802E-3
1.33317E-3	27.0255E-12	913.661E-3	-36.0341E-3	28.0375E-12	929.277E-3	-5.28442E-3
1.32816E-3	26.8494E-12	899.122E-3	-35.4679E-3	27.8423E-12	903.791E-3	-5.99036E-3
1.32316E-3	26.4098E-12	877.083E-3	-34.0149E-3	27.6396E-12	876.927E-3	-10.6589E-3
1.31816E-3	25.9536E-12	860.568E-3	-25.0476E-3	27.0601E-12	860.884E-3	-10.5935E-3
1.31316E-3	25.7905E-12	854.676E-3	-24.2872E-3	26.7518E-12	855.830E-3	-2.77649E-3
1.30815E-3	25.5213E-12	855.012E-3	-27.4572E-3	26.3759E-12	842.755E-3	-4.10753E-3
1.30315E-3	25.2382E-12	846.136E-3	-19.2937E-3	26.0209E-12	815.244E-3	-20.5059E-3
1.29815E-3	24.8693E-12	832.562E-3	-13.9129E-3	25.6043E-12	778.762E-3	-26.0066E-3
1.29315E-3	24.7171E-12	828.891E-3	-9.67858E-3	25.2424E-12	746.727E-3	-15.6877E-3
1.28814E-3	24.5171E-12	816.352E-3	-6.25257E-3	24.8643E-12	736.490E-3	-19.3166E-3
1.28314E-3	24.2819E-12	787.948E-3	-20.9094E-3	24.4589E-12	738.696E-3	-31.7198E-3
1.27814E-3	24.0982E-12	778.904E-3	-34.1776E-3	24.0433E-12	732.551E-3	-23.2713E-3
1.27314E-3	23.7729E-12	788.911E-3	-27.6298E-3	23.7598E-12	724.494E-3	-8.76423E-3
1.26813E-3	23.7498E-12	779.943E-3	-16.5282E-3	23.5705E-12	715.819E-3	-14.3268E-3
1.26313E-3	23.4840E-12	762.123E-3	-18.3504E-3	23.3954E-12	704.976E-3	-27.8390E-3
1.25813E-3	23.2591E-12	756.205E-3	-21.0059E-3	23.1538E-12	703.260E-3	-26.0289E-3
1.25313E-3	23.0676E-12	738.145E-3	-12.4174E-3	23.1438E-12	699.333E-3	-10.5454E-3
1.24812E-3	22.8625E-12	706.850E-3	-5.37029E-3	22.9944E-12	685.385E-3	-9.21532E-3
1.24312E-3	22.6824E-12	692.948E-3	345.520E-6	22.9789E-12	662.365E-3	-24.9588E-3
1.23812E-3	22.4353E-12	695.416E-3	-4.08140E-3	22.7557E-12	646.051E-3	-27.3622E-3
1.23312E-3	22.2479E-12	693.224E-3	-11.7867E-3	22.6363E-12	634.565E-3	-17.7379E-3
1.22811E-3	21.9890E-12	673.374E-3	-791.756E-6	22.3832E-12	618.637E-3	-11.9381E-3
1.22311E-3	21.7113E-12	645.308E-3	5.06293E-3	22.1404E-12	604.649E-3	-3.20765E-3
1.21811E-3	21.4052E-12	634.527E-3	-6.23684E-3	21.9516E-12	586.077E-3	-2.90393E-3
1.21311E-3	21.2221E-12	632.590E-3	-10.9495E-3	21.6620E-12	570.604E-3	-14.9907E-3
1.20810E-3	21.0791E-12	613.781E-3	-10.6959E-3	21.4142E-12	560.005E-3	-21.1875E-3
1.20310E-3	20.7401E-12	587.216E-3	-9.23744E-3	21.0961E-12	553.813E-3	-22.8744E-3
1.19810E-3	20.6074E-12	580.296E-3	-5.63911E-3	20.8233E-12	551.569E-3	-28.6246E-3
1.19310E-3	20.4216E-12	582.102E-3	-12.0225E-3	20.5693E-12	537.885E-3	-34.3940E-3
1.18809E-3	20.2423E-12	567.950E-3	-22.9093E-3	20.3241E-12	512.946E-3	-37.2242E-3
1.18309E-3	19.9919E-12	554.013E-3	-21.8300E-3	19.9265E-12	489.168E-3	-27.5605E-3
1.17809E-3	19.9438E-12	540.715E-3	-14.2397E-3	19.6481E-12	470.647E-3	-15.5781E-3
1.17309E-3	20.0014E-12	516.637E-3	-12.7350E-3	19.4954E-12	454.567E-3	-14.0849E-3
1.16808E-3	19.9184E-12	501.299E-3	-14.1914E-3	19.3284E-12	443.041E-3	-11.4174E-3
1.16308E-3	19.7430E-12	503.169E-3	-19.0116E-3	19.1811E-12	432.894E-3	-16.0657E-3
1.15808E-3	19.5377E-12	500.456E-3	-25.9544E-3	19.0334E-12	411.251E-3	-22.2432E-3
1.15308E-3	19.6679E-12	483.001E-3	-21.2527E-3	19.0354E-12	389.498E-3	-19.8691E-3
1.14807E-3	19.5194E-12	464.367E-3	-8.59712E-3	18.9123E-12	386.946E-3	-21.5462E-3
1.14307E-3	19.2702E-12	448.687E-3	-5.14126E-3	18.7597E-12	390.338E-3	-26.3723E-3
1.13807E-3	19.1333E-12	435.457E-3	-11.3109E-3	18.6000E-12	388.193E-3	-23.7652E-3
1.13307E-3	19.1606E-12	424.978E-3	-27.4033E-3	18.6135E-12	375.347E-3	-23.0913E-3
1.12806E-3	18.9995E-12	424.244E-3	-36.9372E-3	18.4827E-12	351.547E-3	-25.6727E-3
1.12306E-3	18.6802E-12	426.135E-3	-21.6925E-3	18.3549E-12	338.423E-3	-20.0566E-3
1.11806E-3	18.5302E-12	413.718E-3	-8.05118E-3	18.1172E-12	333.738E-3	-21.3613E-3
1.11306E-3	18.4463E-12	388.705E-3	-13.3327E-3	18.0560E-12	324.107E-3	-24.5933E-3
1.10805E-3	18.1655E-12	364.635E-3	-10.4023E-3	17.9343E-12	313.350E-3	-19.4440E-3
1.10305E-3	17.9404E-12	350.630E-3	-2.65927E-3	17.8086E-12	308.324E-3	-20.4800E-3
1.09805E-3	17.7913E-12	341.499E-3	-6.34106E-3	17.6505E-12	311.258E-3	-22.3503E-3
1.09305E-3	17.6131E-12	335.166E-3	-6.71418E-3	17.4659E-12	309.648E-3	-8.74028E-3
1.08804E-3	17.3899E-12	325.435E-3	-8.66433E-3	17.3308E-12	290.706E-3	-3.78040E-3
1.08304E-3	17.2822E-12	312.500E-3	-13.6686E-3	17.2123E-12	267.986E-3	-25.3287E-3
1.07804E-3	17.2448E-12	304.948E-3	-10.2880E-3	17.0393E-12	257.764E-3	-32.7356E-3
1.07304E-3	17.1469E-12	298.297E-3	-7.98988E-3	16.9332E-12	256.066E-3	-18.1478E-3
1.06803E-3	17.0327E-12	290.275E-3	-15.5568E-3	16.9020E-12	254.518E-3	-9.74445E-3
1.06303E-3	17.0139E-12	287.746E-3	-18.7209E-3	16.7884E-12	253.269E-3	-619.123E-6
1.05803E-3	17.0033E-12	281.036E-3	-15.7710E-3	16.8334E-12	250.467E-3	2.95635E-3
1.05303E-3	16.8911E-12	270.650E-3	-22.5214E-3	16.6618E-12	235.791E-3	-14.8432E-3
1.04802E-3	16.8203E-12	269.418E-3	-28.1071E-3	16.6993E-12	220.010E-3	-20.3481E-3
1.04302E-3	16.9154E-12	262.340E-3	-20.6261E-3	16.6905E-12	220.842E-3	-1.48363E-3
1.03802E-3	16.9397E-12	253.513E-3	-11.9485E-3	16.5771E-12	222.743E-3	-1.13058E-3
1.03302E-3	16.7401E-12	257.395E-3	-12.5056E-3	16.4679E-12	210.871E-3	-21.4461E-3
1.02801E-3	16.6390E-12	255.903E-3	-13.3786E-3	16.3183E-12	205.799E-3	-30.1654E-3
1.02301E-3	16.3976E-12	244.229E-3	-11.7085E-3	16.0867E-12	206.244E-3	-25.3623E-3
1.01801E-3	16.3896E-12	222.410E-3	-4.55359E-3	16.0134E-12	198.401E-3	-22.8231E-3
1.01301E-3	16.1766E-12	203.519E-3	-1.46430E-3	16.1142E-12	194.324E-3	-26.4097E-3
1.00800E-3	16.0863E-12	212.662E-3	-15.4168E-3	16.0061E-12	198.565E-3	-21.8763E-3
1.00300E-3	15.8842E-12	225.751E-3	-23.2803E-3	15.8805E-12	199.901E-3	-9.68148E-3
997.999E-6	15.7345E-12	206.371E-3	-7.20422E-3	15.7978E-12	195.514E-3	-6.38536E-3
992.997E-6	15.5992E-12	184.803E-3	3.21416E-3	15.6701E-12	187.666E-3	-15.3658E-3
987.994E-6	15.4572E-12	191.357E-3	-9.61687E-3	15.5234E-12	182.639E-3	-24.0418E-3
982.991E-6	15.4629E-12	193.444E-3	-13.3837E-3	15.3677E-12	180.735E-3	-22.6673E-3
977.989E-6	15.2427E-12	185.741E-3	-12.4590E-3	15.2578E-12	179.660E-3	-19.6031E-3
972.986E-6	15.2777E-12	186.994E-3	-14.1094E-3	15.1981E-12	186.340E-3	-12.3808E-3
967.984E-6	15.1275E-12	184.975E-3	-4.79987E-3	15.1237E-12	189.467E-3	-6.33769E-3
962.981E-6	15.1164E-12	178.078E-3	-3.71926E-3	15.1215E-12	178.901E-3	-15.9810E-3
957.979E-6	15.0322E-12	177.846E-3	-18.7304E-3	15.0137E-12	167.512E-3	-24.7733E-3
952.976E-6	14.9850E-12	181.816E-3	-34.1694E-3	15.0007E-12	171.722E-3	-25.1656E-3
947.974E-6	15.0247E-12	181.235E-3	-36.5243E-3	14.9722E-12	187.561E-3	-27.2333E-3
942.971E-6	15.0461E-12	184.460E-3	-27.8361E-3	14.9859E-12	196.075E-3	-27.0537E-3
937.969E-6	14.9900E-12	193.064E-3	-19.9600E-3	15.0357E-12	202.251E-3	-16.4972E-3
932.966E-6	14.9498E-12	201.832E-3	-20.0220E-3	15.0364E-12	214.474E-3	-9.82198E-3
927.964E-6	14.9045E-12	210.055E-3	-26.9235E-3	15.0962E-12	219.280E-3	-17.3633E-3
922.961E-6	14.9413E-12	203.627E-3	-22.8380E-3	15.0576E-12	213.387E-3	-17.1101E-3
917.959E-6	14.9126E-12	193.818E-3	-13.7571E-3	15.1286E-12	209.970E-3	-3.73389E-3
912.956E-6	14.7872E-12	191.147E-3	-13.0425E-3	15.1242E-12	211.693E-3	2.08505E-3
907.954E-6	14.6614E-12	187.963E-3	-17.9294E-3	15.0845E-12	216.588E-3	-4.70164E-3
902.951E-6	14.6885E-12	184.004E-3	-27.7280E-3	15.0868E-12	222.456E-3	-19.4816E-3
897.949E-6	14.5817E-12	187.805E-3	-24.1324E-3	14.9948E-12	225.889E-3	-28.5217E-3
892.946E-6	14.4335E-12	209.253E-3	-6.84855E-3	14.9288E-12	230.030E-3	-19.5879E-3
887.944E-6	14.1968E-12	234.088E-3	1.83255E-3	14.6840E-12	237.840E-3	-12.9147E-3
882.941E-6	14.1711E-12	243.239E-3	-6.19683E-3	14.5454E-12	244.646E-3	-9.91187E-3
877.939E-6	14.0881E-12	235.973E-3	-16.9600E-3	14.3017E-12	256.773E-3	6.33416E-3
872.936E-6	13.8741E-12	224.624E-3	-18.3209E-3	14.1678E-12	271.350E-3	12.2616E-3
867.934E-6	13.8093E-12	223.737E-3	-26.2264E-3	13.8852E-12	263.915E-3	3.25215E-3
862.931E-6	13.7870E-12	227.821E-3	-29.5622E-3	13.8499E-12	243.771E-3	6.82649E-3
857.929E-6	13.8089E-12	227.594E-3	-16.9197E-3	13.7352E-12	238.408E-3	3.68235E-3
852.926E-6	13.6788E-12	234.949E-3	-16.3423E-3	13.6696E-12	247.745E-3	-12.2364E-3
847.924E-6	13.6344E-12	244.001E-3	-19.3647E-3	13.4076E-12	261.136E-3	-11.6953E-3
842.921E-6	13.6232E-12	246.201E-3	-15.1287E-3	13.4482E-12	274.271E-3	-4.70030E-3
837.919E-6	13.5574E-12	252.628E-3	-8.73910E-3	13.3556E-12	287.277E-3	-10.3291E-3
832.916E-6	13.4679E-12	255.031E-3	-1.16392E-3	13.2943E-12	293.424E-3	-27.0032E-3
827.914E-6	13.4735E-12	246.625E-3	-4.51857E-3	13.3242E-12	290.055E-3	-38.6637E-3
822.911E-6	13.4184E-12	253.462E-3	-11.9119E-3	13.1622E-12	286.402E-3	-36.4780E-3
817.909E-6	13.3061E-12	275.731E-3	-5.94394E-3	13.1589E-12	287.873E-3	-26.6709E-3
812.906E-6	13.2763E-12	277.752E-3	-4.64467E-3	13.0049E-12	299.528E-3	-16.1458E-3
807.904E-6	13.2081E-12	275.056E-3	-16.2480E-3	12.9353E-12	311.192E-3	-18.2849E-3
802.901E-6	13.0885E-12	295.372E-3	-19.6418E-3	12.8836E-12	312.543E-3	-26.5243E-3
797.899E-6	12.8740E-12	306.657E-3	-20.6045E-3	12.7663E-12	314.508E-3	-21.3371E-3
792.896E-6	12.6795E-12	308.797E-3	-28.2620E-3	12.5559E-12	316.583E-3	-12.1587E-3
787.894E-6	12.7740E-12	317.494E-3	-22.1561E-3	12.4982E-12	318.562E-3	-16.9741E-3
782.891E-6	12.5221E-12	317.493E-3	-13.7499E-3	12.3286E-12	326.737E-3	-28.2292E-3
777.889E-6	12.2578E-12	323.412E-3	-24.5219E-3	12.2273E-12	328.437E-3	-20.9517E-3
772.886E-6	12.0787E-12	333.909E-3	-26.2869E-3	12.0232E-12	330.608E-3	-7.49462E-3
767.884E-6	12.1064E-12	326.801E-3	-13.8053E-3	11.8608E-12	340.840E-3	-11.8319E-3
762.881E-6	11.8698E-12	317.340E-3	-14.1797E-3	11.8401E-12	335.097E-3	-22.5672E-3
757.879E-6	11.6613E-12	321.518E-3	-15.0252E-3	11.6306E-12	327.487E-3	-26.5354E-3
752.876E-6	11.5525E-12	320.700E-3	-16.6880E-3	11.4467E-12	340.323E-3	-31.3872E-3
747.874E-6	11.5290E-12	318.129E-3	-33.3681E-3	11.4282E-12	357.361E-3	-40.6770E-3
742.871E-6	11.4178E-12	331.977E-3	-33.2139E-3	11.3881E-12	376.139E-3	-42.6451E-3
737.869E-6	11.3246E-12	341.221E-3	-14.0979E-3	11.2732E-12	397.613E-3	-33.6238E-3
732.866E-6	11.3030E-12	338.356E-3	-7.91263E-3	11.1520E-12	400.321E-3	-27.6761E-3
727.864E-6	11.1296E-12	353.725E-3	-12.8590E-3	11.0338E-12	389.365E-3	-24.4209E-3
722.861E-6	11.0794E-12	369.589E-3	-14.8321E-3	11.0415E-12	383.751E-3	-18.1750E-3
717.859E-6	10.8848E-12	364.834E-3	-19.5759E-3	11.0355E-12	388.723E-3	-12.5575E-3
712.856E-6	10.8530E-12	370.420E-3	-18.2445E-3	10.8620E-12	402.082E-3	-997.297E-6
707.854E-6	10.6654E-12	384.034E-3	-9.02831E-3	10.8029E-12	405.663E-3	10.0616E-3
702.851E-6	10.4403E-12	387.650E-3	-20.3371E-3	10.7197E-12	406.353E-3	8.49096E-3
697.849E-6	10.3905E-12	389.549E-3	-38.3419E-3	10.5724E-12	413.066E-3	-7.35487E-3
692.846E-6	10.2122E-12	384.847E-3	-33.1821E-3	10.4683E-12	420.846E-3	-17.6839E-3
687.844E-6	10.0654E-12	382.820E-3	-27.1214E-3	10.3334E-12	427.394E-3	-1.72057E-3
682.841E-6	9.90668E-12	402.155E-3	-30.6193E-3	10.2021E-12	421.023E-3	17.7818E-3
677.839E-6	9.77486E-12	426.354E-3	-19.9473E-3	10.0525E-12	410.601E-3	9.04263E-3
672.836E-6	9.60609E-12	430.607E-3	-17.3245E-3	9.87668E-12	413.153E-3	-9.36918E-3
667.834E-6	9.45864E-12	418.844E-3	-27.3841E-3	9.67616E-12	419.193E-3	-18.2096E-3
662.831E-6	9.20961E-12	405.763E-3	-13.2845E-3	9.49715E-12	412.700E-3	-33.6612E-3
657.829E-6	9.11623E-12	398.647E-3	-5.99459E-3	9.30746E-12	411.217E-3	-40.1700E-3
652.826E-6	9.07891E-12	401.108E-3	-24.6742E-3	9.08226E-12	425.997E-3	-27.2564E-3
647.824E-6	9.00639E-12	394.101E-3	-24.8844E-3	9.00226E-12	430.441E-3	-18.2358E-3
642.821E-6	8.82416E-12	380.523E-3	-22.8710E-3	8.86957E-12	425.525E-3	-12.5616E-3
637.819E-6	8.70695E-12	392.018E-3	-32.1160E-3	8.69506E-12	425.375E-3	-4.90070E-3
632.816E-6	8.67347E-12	413.878E-3	-16.8734E-3	8.58640E-12	426.634E-3	-2.39322E-3
627.814E-6	8.54445E-12	417.334E-3	-1.20643E-3	8.50820E-12	431.248E-3	1.14653E-3
622.811E-6	8.37042E-12	418.885E-3	-9.52625E-3	8.35765E-12	434.617E-3	-3.32142E-3
617.809E-6	8.18596E-12	428.910E-3	-4.04640E-3	8.17424E-12	431.487E-3	-21.1508E-3
612.806E-6	8.17106E-12	430.071E-3	4.36857E-3	8.05150E-12	423.418E-3	-24.1734E-3
607.804E-6	8.09354E-12	437.506E-3	-6.86976E-3	8.03359E-12	413.442E-3	-11.5521E-3
602.801E-6	7.90667E-12	458.460E-3	-12.9061E-3	7.92912E-12	419.514E-3	-8.26262E-3
597.799E-6	7.68417E-12	456.787E-3	-23.0731E-3	7.67391E-12	440.984E-3	-15.7895E-3
592.796E-6	7.60871E-12	440.309E-3	-37.8869E-3	7.51975E-12	451.573E-3	-18.9286E-3
587.794E-6	7.53897E-12	436.398E-3	-26.6214E-3	7.41262E-12	449.068E-3	-17.6137E-3
582.791E-6	7.36773E-12	442.345E-3	-6.19481E-3	7.23737E-12	438.411E-3	-16.3029E-3
577.789E-6	7.15008E-12	455.533E-3	-12.3740E-3	7.02616E-12	420.436E-3	-18.8612E-3
572.786E-6	7.06394E-12	449.961E-3	-29.0498E-3	6.92771E-12	408.608E-3	-29.6053E-3
567.784E-6	6.81967E-12	422.048E-3	-42.3321E-3	6.70655E-12	410.712E-3	-28.8630E-3
562.781E-6	6.69943E-12	419.683E-3	-43.9050E-3	6.51144E-12	421.988E-3	-8.51331E-3
557.779E-6	6.51036E-12	443.178E-3	-18.5584E-3	6.26608E-12	425.589E-3	6.96846E-3
552.776E-6	6.38415E-12	455.460E-3	-3.76351E-3	6.14597E-12	413.481E-3	7.97995E-3
547.774E-6	6.13668E-12	452.026E-3	-11.8613E-3	5.96968E-12	403.084E-3	6.03910E-3
542.771E-6	5.96405E-12	434.218E-3	-11.4862E-3	5.78358E-12	406.692E-3	-4.31755E-3
537.769E-6	5.94040E-12	409.283E-3	-9.72667E-3	5.69586E-12	412.007E-3	-12.1842E-3
532.766E-6	5.78206E-12	402.809E-3	-19.0304E-3	5.57095E-12	407.128E-3	-2.47967E-3
527.764E-6	5.58400E-12	412.068E-3	-26.0689E-3	5.46727E-12	399.585E-3	7.57222E-3
522.761E-6	5.37767E-12	406.447E-3	-36.0782E-3	5.32370E-12	392.907E-3	-1.48624E-3
517.759E-6	5.40885E-12	392.984E-3	-50.9990E-3	5.16823E-12	394.125E-3	-20.2816E-3
512.756E-6	5.20919E-12	394.870E-3	-33.1949E-3	5.15021E-12	402.289E-3	-30.7973E-3
507.754E-6	5.02602E-12	401.250E-3	-2.44464E-3	5.10773E-12	399.099E-3	-34.8953E-3
502.751E-6	4.83087E-12	401.232E-3	-4.53363E-3	4.91984E-12	397.985E-3	-33.1460E-3
497.749E-6	4.78920E-12	405.607E-3	-7.81931E-3	4.83244E-12	407.373E-3	-33.2542E-3
492.746E-6	4.71045E-12	399.918E-3	-4.64360E-3	4.80325E-12	399.432E-3	-38.5742E-3
487.744E-6	4.50963E-12	374.162E-3	-16.7271E-3	4.65546E-12	383.160E-3	-26.7152E-3
482.741E-6	4.37560E-12	366.719E-3	-11.5112E-3	4.55086E-12	380.330E-3	-8.72240E-3
477.739E-6	4.31747E-12	379.884E-3	1.86732E-3	4.30058E-12	369.510E-3	-12.8980E-3
472.736E-6	4.26758E-12	380.633E-3	-16.9476E-3	4.28227E-12	346.398E-3	-17.7546E-3
467.734E-6	4.06688E-12	372.289E-3	-42.3582E-3	4.17432E-12	336.316E-3	-15.1870E-3
462.731E-6	3.89672E-12	364.922E-3	-42.3557E-3	3.98594E-12	332.702E-3	-14.1072E-3
457.729E-6	3.83503E-12	367.554E-3	-28.8697E-3	3.79691E-12	320.770E-3	-10.7311E-3
452.726E-6	3.72217E-12	381.082E-3	-9.96999E-3	3.72818E-12	313.656E-3	-8.13265E-3
447.724E-6	3.58106E-12	375.147E-3	2.14008E-3	3.58327E-12	314.737E-3	-16.4374E-3
442.721E-6	3.48243E-12	346.637E-3	-14.1659E-3	3.45056E-12	313.219E-3	-31.0714E-3
437.719E-6	3.40395E-12	331.030E-3	-26.3780E-3	3.38436E-12	312.013E-3	-23.0280E-3
432.716E-6	3.25540E-12	329.799E-3	-14.5613E-3	3.22304E-12	305.087E-3	-14.5285E-3
427.714E-6	3.12300E-12	326.314E-3	-11.6134E-3	3.14846E-12	286.479E-3	-19.6002E-3
422.711E-6	3.08060E-12	322.698E-3	-12.5859E-3	2.96060E-12	272.820E-3	-11.7883E-3
417.709E-6	2.96073E-12	315.591E-3	-5.25457E-3	2.91849E-12	273.519E-3	-7.87323E-3
412.706E-6	2.76090E-12	307.529E-3	-12.1089E-3	2.78470E-12	278.606E-3	-7.65973E-3
407.704E-6	2.71291E-12	304.631E-3	-20.0355E-3	2.66675E-12	275.551E-3	4.14180E-3
402.701E-6	2.69586E-12	297.928E-3	-16.9750E-3	2.64608E-12	271.512E-3	5.88646E-3
397.699E-6	2.57973E-12	295.114E-3	-23.2359E-3	2.57091E-12	269.922E-3	-14.4395E-3
392.696E-6	2.38158E-12	300.070E-3	-32.5196E-3	2.48580E-12	260.502E-3	-36.0069E-3
387.694E-6	2.28949E-12	294.191E-3	-25.0123E-3	2.38839E-12	246.172E-3	-34.9817E-3
382.691E-6	2.33414E-12	276.434E-3	-16.8236E-3	2.22844E-12	232.490E-3	-15.6861E-3
377.689E-6	2.22313E-12	269.066E-3	-15.1199E-3	2.24138E-12	229.369E-3	524.318E-6
372.686E-6	2.04513E-12	273.849E-3	-7.84447E-3	2.16917E-12	234.647E-3	-4.63427E-3
367.684E-6	1.92059E-12	267.335E-3	-16.5099E-3	2.00745E-12	232.497E-3	-23.5950E-3
362.681E-6	1.94506E-12	252.848E-3	-37.7553E-3	1.94841E-12	228.852E-3	-27.8909E-3
357.679E-6	1.89020E-12	243.720E-3	-33.2125E-3	1.85197E-12	220.846E-3	-17.5199E-3
352.676E-6	1.78808E-12	236.714E-3	-9.16738E-3	1.82365E-12	207.041E-3	-13.2795E-3
347.674E-6	1.67078E-12	231.671E-3	5.04995E-3	1.73088E-12	200.652E-3	-13.5094E-3
342.671E-6	1.63545E-12	222.716E-3	11.1928E-3	1.56038E-12	198.836E-3	-9.93815E-3
337.669E-6	1.59777E-12	207.587E-3	5.07363E-3	1.51624E-12	189.578E-3	-3.29465E-3
332.666E-6	1.52995E-12	197.137E-3	-12.6871E-3	1.52293E-12	181.669E-3	163.836E-6
327.664E-6	1.43454E-12	184.980E-3	-13.3979E-3	1.42081E-12	178.927E-3	-3.26498E-3
322.661E-6	1.38866E-12	174.733E-3	-7.53769E-3	1.32495E-12	164.813E-3	-4.61777E-3
317.659E-6	1.31136E-12	184.063E-3	-11.9833E-3	1.30073E-12	154.996E-3	-4.90091E-3
312.656E-6	1.29571E-12	188.598E-3	-9.19183E-3	1.24311E-12	153.784E-3	-11.2790E-3
307.654E-6	1.24405E-12	165.837E-3	-6.13189E-3	1.17957E-12	150.029E-3	-17.6764E-3
302.651E-6	1.13643E-12	149.945E-3	-8.30261E-3	1.11720E-12	152.326E-3	-12.9394E-3
297.649E-6	1.05253E-12	159.361E-3	-1.77397E-3	1.07745E-12	147.369E-3	-2.76269E-3
292.646E-6	1.07005E-12	154.180E-3	2.50866E-3	1.02551E-12	130.748E-3	-4.04808E-3
287.644E-6	1.07360E-12	145.683E-3	-5.56438E-3	977.598E-15	128.179E-3	-3.39444E-3
282.641E-6	960.412E-15	152.038E-3	-12.2616E-3	950.655E-15	134.757E-3	6.56650E-3
277.639E-6	852.458E-15	142.994E-3	-8.17686E-3	902.455E-15	123.451E-3	-2.26637E-3
272.636E-6	811.626E-15	134.553E-3	-3.98594E-3	843.251E-15	106.190E-3	-21.8109E-3
267.634E-6	855.031E-15	137.095E-3	601.162E-6	743.328E-15	102.376E-3	-22.6067E-3
262.631E-6	789.592E-15	133.044E-3	4.07148E-3	806.778E-15	99.8467E-3	-9.29662E-3
257.629E-6	661.907E-15	129.852E-3	-6.21778E-3	755.587E-15	98.1900E-3	843.811E-6
252.626E-6	636.420E-15	123.738E-3	-12.9752E-3	653.092E-15	102.730E-3	-2.66408E-3
247.624E-6	675.587E-15	100.348E-3	-8.84345E-3	586.371E-15	100.524E-3	-17.8110E-3
242.621E-6	649.150E-15	87.7304E-3	-20.2051E-3	620.516E-15	86.6763E-3	-19.6616E-3
237.619E-6	568.453E-15	98.3549E-3	-38.0053E-3	604.848E-15	70.1868E-3	-5.40960E-3
232.616E-6	495.612E-15	91.9810E-3	-42.7672E-3	575.551E-15	62.3296E-3	-9.76472E-3
227.614E-6	477.572E-15	76.2078E-3	-36.4925E-3	428.351E-15	68.6977E-3	-24.4111E-3
222.611E-6	483.152E-15	85.1916E-3	-18.1512E-3	471.808E-15	86.3069E-3	-20.9316E-3
217.609E-6	487.207E-15	89.7600E-3	-4.00817E-3	449.042E-15	88.9719E-3	-5.90022E-3
212.606E-6	400.484E-15	77.2749E-3	-7.67713E-3	448.005E-15	66.2173E-3	5.64245E-3
207.604E-6	397.511E-15	70.4623E-3	-18.2885E-3	355.589E-15	51.2669E-3	5.62468E-3
202.601E-6	351.613E-15	69.4836E-3	-17.5423E-3	333.145E-15	50.5534E-3	-9.87508E-3
197.599E-6	373.821E-15	73.5247E-3	-3.54934E-3	403.676E-15	51.6282E-3	-13.1930E-3
192.596E-6	380.674E-15	76.5729E-3	5.28562E-3	371.571E-15	52.9726E-3	589.739E-6
187.594E-6	278.048E-15	70.5091E-3	-2.35435E-3	296.951E-15	41.7912E-3	-9.98842E-3
182.591E-6	250.861E-15	68.0954E-3	-16.2396E-3	267.855E-15	40.7560E-3	-26.0598E-3
177.589E-6	290.473E-15	74.6941E-3	-16.4831E-3	255.814E-15	63.2632E-3	-27.8135E-3
172.586E-6	293.621E-15	63.8658E-3	-6.25010E-3	231.025E-15	63.8737E-3	-35.2055E-3
167.584E-6	197.804E-15	46.4958E-3	-12.3575E-3	245.935E-15	46.8334E-3	-36.5369E-3
162.581E-6	173.687E-15	48.2480E-3	-26.4397E-3	228.104E-15	45.9474E-3	-30.6055E-3
157.579E-6	204.248E-15	51.2419E-3	-26.2530E-3	170.574E-15	38.3978E-3	-27.4468E-3
152.576E-6	229.229E-15	45.7261E-3	-32.5460E-3	226.970E-15	24.7934E-3	-20.9430E-3
147.574E-6	180.583E-15	45.1080E-3	-34.8892E-3	140.135E-15	29.0841E-3	-14.8600E-3
142.571E-6	104.673E-15	47.6407E-3	-10.1575E-3	150.450E-15	35.7204E-3	-16.1834E-3
137.569E-6	78.1926E-15	44.8602E-3	3.36682E-3	112.704E-15	33.3492E-3	-14.4405E-3
132.566E-6	141.416E-15	52.9519E-3	-11.0986E-3	104.717E-15	37.4513E-3	-17.5266E-3
127.564E-6	130.988E-15	60.8948E-3	-17.3623E-3	109.329E-15	43.7623E-3	-29.8165E-3
122.561E-6	21.8746E-15	48.9890E-3	-8.58751E-3	137.807E-15	34.6124E-3	-25.2103E-3
117.559E-6	16.4774E-15	39.0487E-3	-2.64907E-3	21.0114E-15	28.6863E-3	-14.8347E-3
112.556E-6	95.1953E-15	38.6494E-3	-2.00317E-3	38.9558E-15	34.0550E-3	-23.2695E-3
107.554E-6	75.7600E-15	35.9906E-3	-8.75124E-3	27.6294E-15	33.3092E-3	-27.3190E-3
102.551E-6	55.6532E-15	33.1294E-3	-13.8202E-3	80.5120E-15	35.5479E-3	-16.1473E-3
97.5488E-6	-23.8407E-15	30.6718E-3	-7.70535E-3	43.5857E-15	41.9498E-3	-16.1528E-3
92.5463E-6	28.3356E-15	16.2993E-3	-5.01492E-3	-18.7661E-15	31.6848E-3	-22.2084E-3
87.5438E-6	18.4741E-15	2.97868E-3	-7.47825E-3	13.6611E-15	12.3734E-3	-22.9950E-3
82.5413E-6	8.93519E-15	14.6616E-3	-2.07056E-3	45.2511E-15	11.7417E-3	-26.0168E-3
77.5388E-6	-4.92851E-15	31.4481E-3	1.74762E-3	-13.2206E-15	28.7543E-3	-27.2672E-3
72.5363E-6	-28.4358E-15	35.5180E-3	-4.73440E-3	-53.4340E-15	31.9717E-3	-17.4340E-3
67.5338E-6	-42.7442E-15	33.6953E-3	-5.57662E-3	-53.6694E-15	13.3416E-3	-10.9852E-3
62.5313E-6	-37.6259E-15	33.4260E-3	-4.04789E-3	-62.4847E-15	-2.99508E-3	-15.5022E-3
57.5288E-6	-11.5203E-15	39.1972E-3	-15.1601E-3	-36.8848E-15	409.720E-6	-15.4764E-3
52.5263E-6	-41.9768E-15	47.4040E-3	-26.0745E-3	-66.3473E-15	22.7044E-3	-16.9490E-3
47.5238E-6	-129.937E-15	44.6277E-3	-27.6433E-3	-77.6214E-15	32.9448E-3	-10.3276E-3
42.5213E-6	-69.5560E-15	35.1979E-3	-25.7431E-3	-113.179E-15	21.2965E-3	6.73667E-3
37.5188E-6	-32.9436E-15	31.7882E-3	-19.7847E-3	-70.5762E-15	15.0418E-3	4.26594E-3
32.5163E-6	-115.951E-15	21.6115E-3	-16.0179E-3	-70.8378E-15	10.5431E-3	-11.1325E-3
27.5138E-6	-162.713E-15	7.33747E-3	-17.7247E-3	-129.301E-15	7.92192E-3	-13.1557E-3
22.5113E-6	-174.005E-15	3.10962E-3	-9.94479E-3	-126.144E-15	14.1046E-3	-13.5719E-3
17.5088E-6	-90.9096E-15	5.16399E-3	-1.44584E-3	-142.746E-15	12.0032E-3	-16.6404E-3
12.5063E-6	-100.858E-15	15.8182E-3	-8.79488E-3	-117.992E-15	8.37270E-3	-8.28610E-3
7.50375E-6	-188.391E-15	29.1494E-3	-14.3514E-3	-166.436E-15	14.9880E-3	-4.16540E-3
2.50125E-6	-206.048E-15	24.1092E-3	-20.8188E-3	-227.236E-15	16.1353E-3	-7.47219E-3
-2.50125E-6	-133.442E-15	12.6204E-3	-38.4777E-3	-230.558E-15	19.7079E-3	-17.1322E-3
-7.50375E-6	-135.988E-15	20.2848E-3	-40.2042E-3	-158.842E-15	38.4211E-3	-30.9157E-3
-12.5063E-6	-234.926E-15	34.7742E-3	-23.5961E-3	-176.036E-15	41.8151E-3	-32.6117E-3
-17.5088E-6	-247.613E-15	44.9682E-3	-13.6525E-3	-216.267E-15	29.8978E-3	-31.0277E-3
-22.5113E-6	-240.803E-15	44.7517E-3	-6.43691E-3	-224.106E-15	31.7992E-3	-34.1056E-3
-27.5138E-6	-215.273E-15	28.8239E-3	3.84138E-3	-201.531E-15	37.0790E-3	-34.4098E-3
-32.5163E-6	-240.646E-15	20.0060E-3	2.71740E-3	-204.435E-15	37.9945E-3	-24.2758E-3
-37.5188E-6	-297.418E-15	28.1658E-3	-6.03055E-3	-249.078E-15	38.9489E-3	-13.0555E-3
-42.5213E-6	-268.382E-15	34.2577E-3	-16.6001E-3	-314.194E-15	35.2020E-3	-8.50576E-3
-47.5238E-6	-310.688E-15	37.5984E-3	-34.1368E-3	-275.715E-15	39.0462E-3	-10.1219E-3
-52.5263E-6	-278.009E-15	38.0730E-3	-29.7948E-3	-274.599E-15	49.0469E-3	-19.1962E-3
-57.5288E-6	-270.196E-15	30.4097E-3	-6.35383E-3	-285.167E-15	40.5163E-3	-20.2780E-3
-62.5313E-6	-301.333E-15	29.8161E-3	-7.00818E-3	-276.317E-15	25.1111E-3	-8.27868E-3
-67.5338E-6	-394.594E-15	33.2733E-3	-18.4451E-3	-336.733E-15	31.8118E-3	-5.76667E-3
-72.5363E-6	-294.654E-15	30.3206E-3	-13.4139E-3	-355.026E-15	46.6324E-3	-19.2194E-3
-77.5388E-6	-329.548E-15	29.1861E-3	-8.84303E-3	-353.230E-15	54.2765E-3	-26.0456E-3
-82.5413E-6	-433.160E-15	32.8338E-3	-9.77083E-3	-348.914E-15	58.0941E-3	-12.4790E-3
-87.5438E-6	-486.313E-15	37.4629E-3	-4.01812E-3	-359.238E-15	47.2365E-3	-3.96771E-3
-92.5463E-6	-406.767E-15	40.2105E-3	-8.41826E-3	-457.565E-15	35.0900E-3	-5.83790E-3
-97.5488E-6	-317.612E-15	44.4096E-3	-25.0533E-3	-435.505E-15	44.2000E-3	-6.76586E-3
-102.551E-6	-383.843E-15	52.4583E-3	-29.1101E-3	-410.289E-15	56.6537E-3	-28.0952E-3
-107.554E-6	-498.127E-15	54.5933E-3	-21.4106E-3	-484.142E-15	54.1694E-3	-47.7137E-3
-112.556E-6	-502.731E-15	48.3238E-3	-8.33173E-3	-504.336E-15	59.8933E-3	-40.3550E-3
-117.559E-6	-478.274E-15	44.9473E-3	-6.93900E-3	-544.924E-15	75.3549E-3	-34.3347E-3
-122.561E-6	-496.663E-15	45.3657E-3	-23.8394E-3	-470.130E-15	83.1440E-3	-35.5887E-3
-127.564E-6	-625.403E-15	50.9020E-3	-22.9363E-3	-498.084E-15	93.1224E-3	-27.9501E-3
-132.566E-6	-597.188E-15	62.6066E-3	-4.95303E-3	-576.270E-15	91.2533E-3	-22.2101E-3
-137.569E-6	-524.355E-15	66.1811E-3	-1.24820E-3	-647.847E-15	72.8774E-3	-22.4356E-3
-142.571E-6	-594.179E-15	62.2280E-3	-14.5580E-3	-633.974E-15	68.2441E-3	-19.9545E-3
-147.574E-6	-644.952E-15	58.2753E-3	-27.1410E-3	-636.233E-15	75.1510E-3	-19.3203E-3
-152.576E-6	-675.269E-15	55.3006E-3	-21.5545E-3	-671.589E-15	75.4783E-3	-21.9965E-3
-157.579E-6	-674.074E-15	58.6945E-3	-3.29765E-3	-701.976E-15	80.3764E-3	-19.4303E-3
-162.581E-6	-708.019E-15	67.7231E-3	5.70857E-3	-766.447E-15	92.5029E-3	-14.1445E-3
-167.584E-6	-715.822E-15	74.4455E-3	2.67273E-3	-738.815E-15	98.4355E-3	-9.17084E-3
-172.586E-6	-752.086E-15	72.1558E-3	-7.80124E-3	-798.115E-15	107.012E-3	-1.84856E-3
-177.589E-6	-788.323E-15	73.0858E-3	-25.3696E-3	-866.065E-15	110.341E-3	992.519E-6
-182.591E-6	-877.147E-15	79.2714E-3	-34.9027E-3	-879.841E-15	99.0700E-3	-1.56662E-3
-187.594E-6	-866.004E-15	81.0182E-3	-24.3138E-3	-888.683E-15	107.906E-3	-10.7129E-3
-192.596E-6	-887.671E-15	85.0367E-3	-7.30279E-3	-910.176E-15	133.988E-3	-19.7863E-3
-197.599E-6	-985.589E-15	86.9855E-3	-8.05123E-3	-950.468E-15	138.779E-3	-17.5255E-3
-202.601E-6	-1.02688E-12	89.9109E-3	-19.9006E-3	-1.00752E-12	133.446E-3	-23.2696E-3
-207.604E-6	-1.00423E-12	95.3645E-3	-23.0606E-3	-1.07452E-12	136.346E-3	-37.1246E-3
-212.606E-6	-1.02929E-12	101.412E-3	-27.2615E-3	-1.13533E-12	142.589E-3	-35.0170E-3
-217.609E-6	-1.15656E-12	117.414E-3	-32.3300E-3	-1.13036E-12	152.727E-3	-22.0528E-3
-222.611E-6	-1.26257E-12	127.859E-3	-20.9338E-3	-1.17358E-12	166.079E-3	-15.5844E-3
-227.614E-6	-1.30520E-12	126.331E-3	-1.23053E-3	-1.29863E-12	172.455E-3	-16.5610E-3
-232.616E-6	-1.23559E-12	129.147E-3	3.67858E-3	-1.31494E-12	174.717E-3	-20.7165E-3
-237.619E-6	-1.38832E-12	138.040E-3	-5.08933E-3	-1.34444E-12	185.397E-3	-32.2918E-3
-242.621E-6	-1.43334E-12	145.945E-3	-16.7794E-3	-1.40277E-12	190.991E-3	-39.9480E-3
-247.624E-6	-1.54615E-12	161.810E-3	-20.4053E-3	-1.53751E-12	194.799E-3	-22.5345E-3
-252.626E-6	-1.48202E-12	181.529E-3	-8.48515E-3	-1.59728E-12	211.557E-3	-14.1866E-3
-257.629E-6	-1.60884E-12	183.377E-3	1.74660E-3	-1.59613E-12	230.621E-3	-28.2907E-3
-262.631E-6	-1.74637E-12	181.661E-3	2.05377E-3	-1.65299E-12	242.635E-3	-21.3724E-3
-267.634E-6	-1.79989E-12	191.336E-3	-5.19468E-3	-1.76209E-12	255.650E-3	-11.1370E-3
-272.636E-6	-1.82278E-12	200.319E-3	-23.6771E-3	-1.87792E-12	260.184E-3	-24.9094E-3
-277.639E-6	-1.86990E-12	211.558E-3	-35.8303E-3	-1.92935E-12	254.473E-3	-28.9716E-3
-282.641E-6	-1.99105E-12	221.406E-3	-27.7271E-3	-1.98686E-12	262.128E-3	-19.5994E-3
-287.644E-6	-2.13090E-12	227.600E-3	-19.5729E-3	-2.03870E-12	277.506E-3	-25.0995E-3
-292.646E-6	-2.19330E-12	236.477E-3	-17.8878E-3	-2.18743E-12	286.492E-3	-28.8810E-3
-297.649E-6	-2.27459E-12	245.588E-3	-11.1017E-3	-2.26531E-12	297.870E-3	-25.7131E-3
-302.651E-6	-2.35222E-12	262.472E-3	-15.1219E-3	-2.30499E-12	311.500E-3	-26.9271E-3
-307.654E-6	-2.47060E-12	277.129E-3	-27.2704E-3	-2.41243E-12	315.880E-3	-21.5121E-3
-312.656E-6	-2.59432E-12	278.114E-3	-17.5043E-3	-2.51652E-12	321.529E-3	-14.4986E-3
-317.659E-6	-2.68288E-12	281.128E-3	-8.35026E-3	-2.69708E-12	338.597E-3	-18.9440E-3
-322.661E-6	-2.78052E-12	292.569E-3	-20.9508E-3	-2.78750E-12	356.967E-3	-27.8570E-3
-327.664E-6	-2.90764E-12	310.645E-3	-28.7530E-3	-2.85828E-12	377.566E-3	-32.0480E-3
-332.666E-6	-3.03911E-12	328.578E-3	-28.7362E-3	-2.99817E-12	390.524E-3	-32.8363E-3
-337.669E-6	-3.23111E-12	336.324E-3	-35.8563E-3	-3.20546E-12	394.420E-3	-30.0953E-3
-342.671E-6	-3.28702E-12	347.053E-3	-38.8755E-3	-3.28848E-12	416.320E-3	-23.2569E-3
-347.674E-6	-3.31895E-12	357.552E-3	-35.3109E-3	-3.43377E-12	442.667E-3	-18.9171E-3
-352.676E-6	-3.50540E-12	360.519E-3	-33.0822E-3	-3.47420E-12	448.973E-3	-15.3768E-3
-357.679E-6	-3.66450E-12	371.383E-3	-28.5379E-3	-3.66981E-12	455.142E-3	-16.1038E-3
-362.681E-6	-3.77954E-12	387.847E-3	-18.9776E-3	-3.85953E-12	471.702E-3	-26.7363E-3
-367.684E-6	-3.87832E-12	418.014E-3	-8.65868E-3	-4.03535E-12	488.974E-3	-26.5282E-3
-372.686E-6	-4.06624E-12	455.295E-3	-15.5138E-3	-4.12254E-12	503.347E-3	-14.1193E-3
-377.689E-6	-4.29649E-12	469.576E-3	-27.6483E-3	-4.30240E-12	508.058E-3	-14.8173E-3
-382.691E-6	-4.43778E-12	476.698E-3	-24.1782E-3	-4.47577E-12	508.469E-3	-18.1512E-3
-387.694E-6	-4.50382E-12	493.791E-3	-19.8961E-3	-4.62688E-12	522.174E-3	-9.49158E-3
-392.696E-6	-4.71982E-12	505.923E-3	-16.2019E-3	-4.83088E-12	556.141E-3	-5.99139E-3
-397.699E-6	-4.93314E-12	517.888E-3	-8.33594E-3	-4.92923E-12	593.725E-3	-5.85649E-3
-402.701E-6	-5.14527E-12	530.677E-3	-436.960E-6	-5.10915E-12	617.470E-3	-10.0179E-3
-407.704E-6	-5.27875E-12	535.112E-3	3.50589E-3	-5.32958E-12	633.069E-3	-24.6226E-3
-412.706E-6	-5.50606E-12	544.645E-3	-6.60898E-3	-5.56421E-12	633.716E-3	-32.4260E-3
-417.709E-6	-5.73017E-12	564.100E-3	-20.7862E-3	-5.71254E-12	631.442E-3	-35.2315E-3
-422.711E-6	-5.98173E-12	582.580E-3	-13.7174E-3	-5.93863E-12	652.789E-3	-37.6157E-3
-427.714E-6	-6.22641E-12	598.211E-3	-3.34982E-3	-6.14715E-12	677.977E-3	-25.6102E-3
-432.716E-6	-6.42802E-12	614.119E-3	-13.3828E-3	-6.44485E-12	697.581E-3	-3.72906E-3
-437.719E-6	-6.56575E-12	625.612E-3	-26.9596E-3	-6.66009E-12	723.094E-3	1.84280E-3
-442.721E-6	-6.76667E-12	641.396E-3	-31.8198E-3	-6.90240E-12	751.087E-3	-14.8863E-3
-447.724E-6	-7.14127E-12	668.012E-3	-25.2200E-3	-7.17170E-12	768.405E-3	-25.4244E-3
-452.726E-6	-7.35599E-12	692.949E-3	-15.8752E-3	-7.51603E-12	786.525E-3	-19.8861E-3
-457.729E-6	-7.45462E-12	709.651E-3	-21.8462E-3	-7.70075E-12	812.673E-3	-10.5936E-3
-462.731E-6	-7.71290E-12	724.127E-3	-22.3244E-3	-7.91873E-12	817.753E-3	-3.52018E-3
-467.734E-6	-8.06364E-12	738.545E-3	-6.44472E-3	-8.22023E-12	812.242E-3	-10.2677E-3
-472.736E-6	-8.31211E-12	745.904E-3	1.13070E-3	-8.53878E-12	816.468E-3	-28.5311E-3
-477.739E-6	-8.45921E-12	754.375E-3	-2.51799E-3	-8.78637E-12	825.842E-3	-29.7835E-3
-482.741E-6	-8.69018E-12	763.265E-3	-13.2199E-3	-9.00201E-12	838.832E-3	-22.7872E-3
-487.744E-6	-9.08166E-12	764.896E-3	-22.7610E-3	-9.25164E-12	850.559E-3	-21.8326E-3
-492.746E-6	-9.37218E-12	779.870E-3	-18.7654E-3	-9.47808E-12	858.041E-3	-5.45276E-3
-497.749E-6	-9.64669E-12	801.401E-3	-18.0519E-3	-9.78027E-12	855.882E-3	-2.09780E-3
-502.751E-6	-9.83263E-12	805.016E-3	-33.3150E-3	-10.0102E-12	853.705E-3	-25.7224E-3
-507.754E-6	-10.2252E-12	809.671E-3	-38.5041E-3	-10.1949E-12	866.599E-3	-35.2399E-3
-512.756E-6	-10.5653E-12	828.421E-3	-28.3392E-3	-10.5282E-12	892.085E-3	-25.0741E-3
-517.759E-6	-10.9051E-12	855.187E-3	-29.7376E-3	-10.8198E-12	912.355E-3	-9.58124E-3
-522.761E-6	-11.1118E-12	887.304E-3	-32.8636E-3	-11.1392E-12	927.026E-3	-8.73485E-3
-527.764E-6	-11.5062E-12	900.938E-3	-17.3816E-3	-11.4560E-12	941.452E-3	-22.8336E-3
-532.766E-6	-11.8083E-12	901.225E-3	-7.19806E-3	-11.7364E-12	948.085E-3	-33.7494E-3
-537.769E-6	-12.1511E-12	913.500E-3	-9.52443E-3	-12.0380E-12	952.869E-3	-31.3501E-3
-542.771E-6	-12.4201E-12	931.066E-3	-10.3184E-3	-12.4114E-12	960.524E-3	-11.7828E-3
-547.774E-6	-12.7411E-12	940.240E-3	-8.05439E-3	-12.8418E-12	966.655E-3	1.12998E-3
-552.776E-6	-12.9179E-12	948.116E-3	-4.69984E-3	-12.9762E-12	971.658E-3	-4.88323E-3
-557.779E-6	-13.1817E-12	945.728E-3	-3.42768E-3	-13.2543E-12	976.219E-3	-9.41664E-3
-562.781E-6	-13.5642E-12	932.919E-3	-3.27122E-3	-13.7369E-12	978.989E-3	-5.94913E-3
-567.784E-6	-14.0070E-12	936.122E-3	-7.51105E-3	-14.2402E-12	980.694E-3	-5.49891E-3
-572.786E-6	-14.3576E-12	952.818E-3	-14.5159E-3	-14.5879E-12	973.838E-3	-11.6310E-3
-577.789E-6	-14.6516E-12	969.128E-3	-21.8926E-3	-14.8027E-12	962.378E-3	-19.3865E-3
-582.791E-6	-14.9816E-12	979.187E-3	-26.1328E-3	-15.0619E-12	970.300E-3	-22.4965E-3
-587.794E-6	-15.2962E-12	975.071E-3	-20.9321E-3	-15.4084E-12	983.881E-3	-17.7623E-3
-592.796E-6	-15.5195E-12	961.788E-3	-17.8192E-3	-15.6736E-12	977.418E-3	-13.4706E-3
-597.799E-6	-15.8227E-12	961.764E-3	-28.4189E-3	-15.7726E-12	960.095E-3	-19.9186E-3
-602.801E-6	-16.2426E-12	969.883E-3	-44.7582E-3	-15.9304E-12	942.595E-3	-23.9165E-3
-607.804E-6	-16.5563E-12	967.986E-3	-46.2626E-3	-16.3330E-12	935.341E-3	-19.8217E-3
-612.806E-6	-16.7979E-12	970.025E-3	-28.3195E-3	-16.5364E-12	944.563E-3	-24.0768E-3
-617.809E-6	-16.9977E-12	979.423E-3	-9.32560E-3	-16.7415E-12	953.256E-3	-31.7746E-3
-622.811E-6	-17.5014E-12	981.863E-3	-4.31274E-3	-16.9212E-12	943.193E-3	-25.3090E-3
-627.814E-6	-17.8635E-12	976.238E-3	-8.73154E-3	-17.4123E-12	929.739E-3	-14.7299E-3
-632.816E-6	-18.1659E-12	973.141E-3	-15.3440E-3	-17.7433E-12	927.526E-3	-13.9138E-3
-637.819E-6	-18.3102E-12	965.726E-3	-24.7632E-3	-18.0342E-12	935.371E-3	-12.6633E-3
-642.821E-6	-18.6893E-12	951.698E-3	-28.5548E-3	-18.3956E-12	953.820E-3	-9.07356E-3
-647.824E-6	-19.2067E-12	955.866E-3	-26.5003E-3	-18.8578E-12	966.199E-3	-19.0441E-3
-652.826E-6	-19.2936E-12	976.744E-3	-29.6543E-3	-19.2180E-12	959.476E-3	-32.3597E-3
-657.829E-6	-19.5500E-12	985.327E-3	-30.3506E-3	-19.6250E-12	952.527E-3	-22.4271E-3
-662.831E-6	-19.9056E-12	975.311E-3	-24.1008E-3	-20.1130E-12	953.338E-3	-1.19801E-3
-667.834E-6	-20.1711E-12	960.364E-3	-25.5193E-3	-20.5272E-12	944.086E-3	39.9867E-6
-672.836E-6	-20.5295E-12	952.214E-3	-19.8347E-3	-20.8410E-12	932.545E-3	-8.80571E-3
-677.839E-6	-20.7812E-12	947.783E-3	2.99052E-3	-21.1914E-12	925.081E-3	-10.9320E-3
-682.841E-6	-21.0345E-12	936.693E-3	8.75500E-3	-21.6858E-12	911.862E-3	-13.8958E-3
-687.844E-6	-21.3769E-12	922.435E-3	-17.7086E-3	-21.9412E-12	910.318E-3	-20.8474E-3
-692.846E-6	-21.7640E-12	904.775E-3	-32.4358E-3	-22.1342E-12	914.926E-3	-21.8003E-3
-697.849E-6	-22.1225E-12	895.929E-3	-22.8278E-3	-22.2986E-12	894.779E-3	-14.8796E-3
-702.851E-6	-22.4208E-12	907.139E-3	-17.1331E-3	-22.7125E-12	866.536E-3	-11.7300E-3
-707.854E-6	-22.5629E-12	915.390E-3	-6.62013E-3	-22.9503E-12	850.720E-3	-15.8814E-3
-712.856E-6	-23.0047E-12	906.938E-3	5.87939E-3	-23.0708E-12	843.677E-3	-24.6781E-3
-717.859E-6	-23.4535E-12	893.402E-3	10.6241E-3	-23.3142E-12	836.649E-3	-36.5130E-3
-722.861E-6	-23.9064E-12	889.526E-3	12.0216E-3	-23.6964E-12	829.466E-3	-40.4612E-3
-727.864E-6	-24.1127E-12	883.177E-3	5.31388E-3	-24.0651E-12	831.340E-3	-32.0707E-3
-732.866E-6	-24.3945E-12	873.727E-3	-12.1425E-3	-24.2126E-12	830.889E-3	-18.3110E-3
-737.869E-6	-24.8675E-12	869.263E-3	-28.2885E-3	-24.5861E-12	827.744E-3	-15.1614E-3
-742.871E-6	-25.3425E-12	847.175E-3	-21.4223E-3	-24.9560E-12	823.819E-3	-26.5284E-3
-747.874E-6	-25.4382E-12	831.535E-3	-2.49408E-3	-25.2710E-12	807.720E-3	-27.2207E-3
-752.876E-6	-25.6036E-12	832.196E-3	5.49465E-3	-25.6428E-12	783.839E-3	-17.4556E-3
-757.879E-6	-26.0100E-12	817.898E-3	428.231E-6	-25.9257E-12	770.212E-3	-13.0672E-3
-762.881E-6	-26.1625E-12	803.970E-3	-10.3068E-3	-26.3224E-12	765.232E-3	-17.5878E-3
-767.884E-6	-26.3942E-12	805.868E-3	-13.3726E-3	-26.7296E-12	756.944E-3	-24.3829E-3
-772.886E-6	-26.4978E-12	804.327E-3	-11.9370E-3	-27.1187E-12	749.473E-3	-18.5240E-3
-777.889E-6	-26.8387E-12	787.027E-3	-18.7161E-3	-27.4218E-12	735.062E-3	-7.49277E-3
-782.891E-6	-26.8622E-12	768.921E-3	-23.3980E-3	-27.5817E-12	713.408E-3	-8.35784E-3
-787.894E-6	-27.0078E-12	754.395E-3	-20.8053E-3	-27.8013E-12	701.994E-3	-15.3843E-3
-792.896E-6	-27.2118E-12	741.619E-3	-17.7986E-3	-28.0194E-12	701.613E-3	-15.2573E-3
-797.899E-6	-27.4837E-12	731.358E-3	-15.9049E-3	-28.2003E-12	689.463E-3	-14.0138E-3
-802.901E-6	-27.9027E-12	713.710E-3	-13.4880E-3	-28.2992E-12	663.696E-3	-20.1682E-3
-807.904E-6	-28.0949E-12	700.416E-3	-6.73293E-3	-28.3652E-12	639.836E-3	-19.1649E-3
-812.906E-6	-28.4039E-12	694.675E-3	4.83465E-3	-28.3999E-12	619.888E-3	-22.8519E-3
-817.909E-6	-28.7060E-12	690.055E-3	13.6305E-3	-28.6014E-12	604.003E-3	-32.6512E-3
-822.911E-6	-29.2820E-12	686.408E-3	12.2456E-3	-28.6151E-12	589.525E-3	-20.0983E-3
-827.914E-6	-29.4771E-12	680.292E-3	-2.73365E-3	-28.6147E-12	575.853E-3	-9.27513E-3
-832.916E-6	-29.8736E-12	673.718E-3	-22.4127E-3	-28.7426E-12	565.527E-3	-15.3085E-3
-837.919E-6	-30.2513E-12	658.374E-3	-26.8451E-3	-28.8809E-12	558.131E-3	-18.6206E-3
-842.921E-6	-30.4717E-12	630.144E-3	-16.8643E-3	-29.1149E-12	552.723E-3	-25.1416E-3
-847.924E-6	-30.8397E-12	616.104E-3	-1.31083E-3	-29.2284E-12	550.697E-3	-33.3635E-3
-852.926E-6	-30.9393E-12	624.006E-3	5.18511E-3	-29.4851E-12	541.933E-3	-28.9716E-3
-857.929E-6	-31.3513E-12	625.833E-3	-4.34784E-3	-29.5693E-12	525.288E-3	-20.6876E-3
-862.931E-6	-31.2984E-12	610.824E-3	-12.4834E-3	-30.1591E-12	511.043E-3	-27.5875E-3
-867.934E-6	-31.4680E-12	589.314E-3	-16.7297E-3	-30.3788E-12	500.932E-3	-37.1740E-3
-872.936E-6	-31.4881E-12	575.097E-3	-16.0877E-3	-30.5257E-12	496.379E-3	-29.4525E-3
-877.939E-6	-31.6347E-12	568.648E-3	-16.4577E-3	-30.7006E-12	490.186E-3	-19.1669E-3
-882.941E-6	-31.7088E-12	553.434E-3	-21.8285E-3	-30.9840E-12	479.978E-3	-19.9350E-3
-887.944E-6	-31.5299E-12	528.786E-3	-12.9296E-3	-31.1494E-12	466.218E-3	-25.1867E-3
-892.946E-6	-31.6988E-12	509.348E-3	5.72394E-3	-31.1602E-12	454.086E-3	-25.3549E-3
-897.949E-6	-31.7523E-12	494.100E-3	6.98998E-3	-31.1050E-12	447.172E-3	-25.0500E-3
-902.951E-6	-32.0718E-12	482.072E-3	-9.62855E-3	-31.4393E-12	438.300E-3	-17.2981E-3
-907.954E-6	-31.8010E-12	468.579E-3	-18.4126E-3	-31.6502E-12	424.917E-3	-1.15958E-3
-912.956E-6	-32.3587E-12	449.244E-3	-18.0365E-3	-31.8100E-12	412.445E-3	-2.49479E-3
-917.959E-6	-32.4578E-12	438.997E-3	-23.6833E-3	-31.7150E-12	409.254E-3	-15.9161E-3
-922.961E-6	-32.7129E-12	436.103E-3	-27.0815E-3	-32.0007E-12	398.295E-3	-25.0435E-3
-927.964E-6	-32.6166E-12	426.264E-3	-17.3921E-3	-31.8871E-12	376.488E-3	-25.9855E-3
-932.966E-6	-32.9616E-12	419.918E-3	-8.35563E-3	-31.9024E-12	368.739E-3	-21.6064E-3
-937.969E-6	-32.9162E-12	416.531E-3	-5.00146E-3	-32.1374E-12	374.421E-3	-20.4317E-3
-942.971E-6	-32.8368E-12	402.683E-3	5.56582E-3	-32.3139E-12	369.045E-3	-21.5338E-3
-947.974E-6	-32.9060E-12	386.291E-3	6.08297E-3	-32.4320E-12	351.363E-3	-20.4738E-3
-952.976E-6	-32.9494E-12	377.409E-3	-9.39870E-3	-32.7296E-12	349.727E-3	-14.7103E-3
-957.979E-6	-33.0076E-12	366.403E-3	-16.4675E-3	-33.0549E-12	348.579E-3	-8.07128E-3
-962.981E-6	-32.8711E-12	352.664E-3	-20.0842E-3	-33.2233E-12	340.773E-3	-6.54789E-3
-967.984E-6	-33.1093E-12	347.046E-3	-24.4582E-3	-33.4315E-12	351.634E-3	-16.3613E-3
-972.986E-6	-33.1725E-12	349.581E-3	-23.4226E-3	-33.6013E-12	350.950E-3	-32.4300E-3
-977.989E-6	-33.1246E-12	340.820E-3	-18.1121E-3	-33.9403E-12	328.719E-3	-35.3707E-3
-982.991E-6	-33.1663E-12	321.402E-3	-3.98246E-3	-34.2718E-12	318.276E-3	-27.0309E-3
-987.994E-6	-33.2870E-12	315.996E-3	6.77315E-3	-34.3724E-12	317.062E-3	-21.1375E-3
-992.997E-6	-33.5435E-12	318.079E-3	899.222E-6	-34.8224E-12	310.223E-3	-12.8105E-3
-997.999E-6	-33.6052E-12	314.109E-3	-920.375E-6	-35.0089E-12	299.658E-3	-6.10335E-3
-1.00300E-3	-33.6986E-12	306.016E-3	12.6774E-3	-35.0773E-12	287.614E-3	-8.08215E-3
-1.00800E-3	-33.7123E-12	299.939E-3	11.8612E-3	-34.9725E-12	280.981E-3	-7.40950E-3
-1.01301E-3	-33.8483E-12	294.997E-3	-6.51722E-3	-35.1300E-12	283.950E-3	-4.34508E-3
-1.01801E-3	-33.9931E-12	294.804E-3	-8.91752E-3	-35.0819E-12	290.289E-3	-12.4987E-3
-1.02301E-3	-34.2441E-12	289.904E-3	2.88762E-3	-34.9403E-12	293.793E-3	-12.0954E-3
-1.02801E-3	-34.5147E-12	277.577E-3	2.96189E-3	-34.8580E-12	293.832E-3	330.645E-6
-1.03302E-3	-34.7014E-12	274.781E-3	-11.7083E-3	-34.9478E-12	290.453E-3	6.39281E-3
-1.03802E-3	-34.9254E-12	282.193E-3	-22.6533E-3	-34.9155E-12	287.728E-3	5.22979E-3
-1.04302E-3	-35.2381E-12	289.083E-3	-24.1195E-3	-35.1545E-12	291.261E-3	-12.7334E-3
-1.04802E-3	-35.3237E-12	286.312E-3	-24.0090E-3	-35.0336E-12	292.726E-3	-33.4270E-3
-1.05303E-3	-35.5159E-12	287.398E-3	-15.2520E-3	-35.2775E-12	299.571E-3	-35.8546E-3
-1.05803E-3	-35.6784E-12	296.411E-3	-9.71546E-3	-35.2406E-12	313.549E-3	-30.0845E-3
-1.06303E-3	-35.8493E-12	301.402E-3	-12.1558E-3	-35.4919E-12	314.481E-3	-17.5098E-3
-1.06803E-3	-36.1190E-12	305.800E-3	-12.2252E-3	-35.5933E-12	310.464E-3	7.23004E-3
-1.07304E-3	-35.9729E-12	307.664E-3	-19.3914E-3	-35.6921E-12	314.392E-3	12.7063E-3
-1.07804E-3	-36.2450E-12	311.818E-3	-28.7100E-3	-35.9753E-12	318.736E-3	-8.83520E-3
-1.08304E-3	-36.0580E-12	313.535E-3	-31.3495E-3	-36.0591E-12	326.786E-3	-19.5985E-3
-1.08804E-3	-36.3726E-12	302.670E-3	-31.2928E-3	-36.2079E-12	337.884E-3	-21.5873E-3
-1.09305E-3	-36.0941E-12	301.221E-3	-24.0171E-3	-36.4142E-12	331.746E-3	-21.5252E-3
-1.09805E-3	-36.3433E-12	310.271E-3	-16.2318E-3	-36.6218E-12	314.236E-3	-13.8371E-3
-1.10305E-3	-36.5271E-12	308.839E-3	-19.0606E-3	-36.6296E-12	313.994E-3	-13.8340E-3
-1.10805E-3	-36.5230E-12	303.706E-3	-21.4829E-3	-36.6363E-12	331.041E-3	-13.1261E-3
-1.11306E-3	-36.8006E-12	308.608E-3	-18.4321E-3	-36.5830E-12	343.969E-3	-4.19919E-3
-1.11806E-3	-36.8148E-12	321.256E-3	-16.5856E-3	-36.4236E-12	351.395E-3	-9.18169E-3
-1.12306E-3	-37.1594E-12	334.003E-3	-15.3174E-3	-36.3787E-12	354.260E-3	-24.0279E-3
-1.12806E-3	-37.2144E-12	337.481E-3	-15.2536E-3	-36.3549E-12	353.101E-3	-25.6956E-3
-1.13307E-3	-37.9211E-12	344.353E-3	-16.1245E-3	-36.4908E-12	373.422E-3	-18.6349E-3
-1.13807E-3	-37.9618E-12	365.768E-3	-17.9652E-3	-36.5090E-12	398.567E-3	-11.1305E-3
-1.14307E-3	-38.4075E-12	381.389E-3	-21.9092E-3	-36.7074E-12	401.278E-3	-3.97928E-3
-1.14807E-3	-38.3767E-12	380.432E-3	-19.5626E-3	-36.7666E-12	398.918E-3	-5.56330E-3
-1.15308E-3	-38.7121E-12	383.040E-3	-17.1915E-3	-36.9310E-12	394.380E-3	-14.6025E-3
-1.15808E-3	-38.6095E-12	397.394E-3	-28.7244E-3	-37.1046E-12	396.710E-3	-13.7067E-3
-1.16308E-3	-38.8714E-12	405.925E-3	-34.6642E-3	-37.1731E-12	426.913E-3	-8.68572E-3
-1.16808E-3	-39.0445E-12	407.871E-3	-24.2199E-3	-37.6290E-12	460.563E-3	-15.8781E-3
-1.17309E-3	-39.0699E-12	411.727E-3	-16.4484E-3	-37.6876E-12	469.434E-3	-25.1275E-3
-1.17809E-3	-38.9224E-12	427.028E-3	-23.9660E-3	-38.1547E-12	478.800E-3	-33.9260E-3
-1.18309E-3	-38.9189E-12	443.177E-3	-36.6100E-3	-38.1511E-12	509.125E-3	-48.5265E-3
-1.18809E-3	-39.0443E-12	450.125E-3	-27.7186E-3	-38.6739E-12	537.988E-3	-45.9252E-3
-1.19310E-3	-38.8199E-12	456.167E-3	-9.77382E-3	-38.8016E-12	546.534E-3	-29.6943E-3
-1.19810E-3	-38.6453E-12	468.939E-3	-9.58634E-3	-39.0521E-12	548.661E-3	-25.6898E-3
-1.20310E-3	-38.6920E-12	495.406E-3	-13.3475E-3	-39.1702E-12	548.874E-3	-32.2091E-3
-1.20810E-3	-38.5150E-12	521.245E-3	-15.0693E-3	-39.3678E-12	555.506E-3	-35.6245E-3
-1.21311E-3	-38.4312E-12	529.326E-3	-16.7791E-3	-39.5886E-12	578.716E-3	-26.6186E-3
-1.21811E-3	-38.6386E-12	525.900E-3	-14.9134E-3	-39.5196E-12	591.270E-3	-19.3044E-3
-1.22311E-3	-38.9236E-12	535.321E-3	-9.65581E-3	-39.7409E-12	596.688E-3	-22.9123E-3
-1.22811E-3	-39.2112E-12	547.335E-3	-12.3370E-3	-39.7887E-12	609.448E-3	-34.6085E-3
-1.23312E-3	-39.2344E-12	552.267E-3	-23.7650E-3	-39.8174E-12	616.695E-3	-43.8200E-3
-1.23812E-3	-39.7556E-12	571.929E-3	-25.2539E-3	-39.8336E-12	627.937E-3	-50.4577E-3
-1.24312E-3	-40.2040E-12	599.330E-3	-22.2354E-3	-40.0538E-12	655.057E-3	-52.2229E-3
-1.24812E-3	-40.4811E-12	607.981E-3	-20.1029E-3	-40.2406E-12	678.762E-3	-35.1713E-3
-1.25313E-3	-40.6100E-12	609.201E-3	-12.9365E-3	-40.4395E-12	698.006E-3	-14.1169E-3
-1.25813E-3	-41.0983E-12	629.988E-3	-1.19924E-3	-40.5461E-12	716.509E-3	-4.03514E-3
-1.26313E-3	-41.4963E-12	655.274E-3	4.65836E-3	-41.0765E-12	720.603E-3	-8.15016E-3
-1.26813E-3	-41.7335E-12	671.156E-3	-3.62667E-3	-41.4853E-12	729.098E-3	-19.8002E-3
-1.27314E-3	-41.8275E-12	678.469E-3	-11.1561E-3	-41.7101E-12	755.484E-3	-22.5325E-3
-1.27814E-3	-42.2682E-12	688.481E-3	-4.10545E-3	-42.2090E-12	773.926E-3	-16.5184E-3
-1.28314E-3	-42.5190E-12	705.344E-3	5.55110E-3	-42.7464E-12	785.556E-3	-3.95003E-3
-1.28814E-3	-42.6305E-12	712.224E-3	-7.95778E-3	-43.1912E-12	803.856E-3	-4.64675E-3
-1.29315E-3	-42.7053E-12	722.005E-3	-28.3759E-3	-43.6173E-12	808.940E-3	-18.4193E-3
-1.29815E-3	-42.9549E-12	744.348E-3	-26.5813E-3	-43.9927E-12	816.128E-3	-13.2589E-3
-1.30315E-3	-43.2316E-12	769.109E-3	-22.0792E-3	-44.5751E-12	848.001E-3	-2.53905E-3
-1.30815E-3	-43.2869E-12	788.447E-3	-22.0943E-3	-44.9710E-12	865.493E-3	-12.1957E-3
-1.31316E-3	-43.5619E-12	811.536E-3	-20.3831E-3	-45.1610E-12	870.931E-3	-24.2597E-3
-1.31816E-3	-44.1870E-12	824.659E-3	-28.1489E-3	-45.4286E-12	895.979E-3	-20.4300E-3
-1.32316E-3	-44.6483E-12	815.412E-3	-33.1351E-3	-45.5009E-12	903.835E-3	-10.1658E-3
-1.32816E-3	-45.1334E-12	827.514E-3	-23.9238E-3	-45.6685E-12	881.047E-3	-4.10055E-3
-1.33317E-3	-45.4490E-12	856.032E-3	-24.7244E-3	-45.4494E-12	873.614E-3	-2.60379E-3
-1.33817E-3	-46.0640E-12	872.791E-3	-37.1467E-3	-45.6114E-12	885.457E-3	-6.27931E-3
-1.34317E-3	-46.4577E-12	891.337E-3	-33.0424E-3	-45.5384E-12	903.940E-3	-14.6091E-3
-1.34817E-3	-46.6666E-12	911.380E-3	-17.9072E-3	-45.7718E-12	924.230E-3	-19.3276E-3
-1.35318E-3	-47.1231E-12	929.721E-3	-11.3425E-3	-45.7182E-12	937.264E-3	-24.4515E-3
-1.35818E-3	-47.6668E-12	946.819E-3	-12.0788E-3	-46.1459E-12	948.911E-3	-23.6221E-3
-1.36318E-3	-48.1125E-12	950.107E-3	-8.97639E-3	-46.6731E-12	970.779E-3	-19.8536E-3
-1.36818E-3	-48.4378E-12	957.779E-3	-2.78993E-3	-46.8361E-12	988.071E-3	-21.6942E-3
-1.37319E-3	-48.6401E-12	973.688E-3	-6.15024E-3	-47.1487E-12	986.597E-3	-11.2819E-3
-1.37819E-3	-49.0862E-12	975.386E-3	-7.97948E-3	-47.6597E-12	993.596E-3	-7.23020E-3
-1.38319E-3	-49.3798E-12	974.551E-3	-4.73987E-3	-48.5844E-12	1.00904E+0	-24.0584E-3
-1.38819E-3	-49.4718E-12	984.443E-3	-3.84680E-3	-48.9194E-12	1.01977E+0	-38.7475E-3
-1.39320E-3	-49.7491E-12	992.302E-3	-4.69189E-3	-49.4472E-12	1.04342E+0	-43.0926E-3
-1.39820E-3	-50.0478E-12	1.00316E+0	-15.7503E-3	-49.8355E-12	1.06712E+0	-39.3122E-3
-1.40320E-3	-50.2721E-12	1.02175E+0	-16.2780E-3	-50.6053E-12	1.07356E+0	-24.3588E-3
-1.40820E-3	-50.3947E-12	1.03116E+0	-5.13268E-3	-50.9179E-12	1.07716E+0	-3.65453E-3
-1.41321E-3	-50.4639E-12	1.03076E+0	-9.86280E-3	-51.0470E-12	1.08073E+0	-5.71845E-3
-1.41821E-3	-50.9460E-12	1.02986E+0	-17.6325E-3	-51.1887E-12	1.06998E+0	-22.9673E-3
-1.42321E-3	-51.1765E-12	1.02919E+0	-15.4760E-3	-51.3394E-12	1.05688E+0	-21.9672E-3
-1.42821E-3	-51.6855E-12	1.03220E+0	-6.25607E-3	-51.5543E-12	1.05185E+0	-10.6466E-3
-1.43322E-3	-51.8191E-12	1.04799E+0	-2.87890E-3	-51.2281E-12	1.04718E+0	-9.87156E-3
-1.43822E-3	-52.4804E-12	1.06716E+0	-12.1613E-3	-51.4751E-12	1.05578E+0	-12.0782E-3
-1.44322E-3	-52.9456E-12	1.08138E+0	-14.7947E-3	-51.6284E-12	1.06495E+0	-8.32536E-3
-1.44822E-3	-53.2517E-12	1.08204E+0	-13.9888E-3	-51.9194E-12	1.06171E+0	-7.12388E-3
-1.45323E-3	-53.5178E-12	1.06802E+0	-15.6146E-3	-51.8129E-12	1.06711E+0	-5.69278E-3
-1.45823E-3	-53.9950E-12	1.07002E+0	-20.0089E-3	-52.2004E-12	1.08088E+0	-6.03322E-3
-1.46323E-3	-54.4550E-12	1.09532E+0	-27.2657E-3	-52.6487E-12	1.08063E+0	-11.1221E-3
-1.46823E-3	-54.6156E-12	1.10396E+0	-24.0670E-3	-52.6695E-12	1.07702E+0	-13.5999E-3
-1.47324E-3	-55.1117E-12	1.09783E+0	-18.0649E-3	-52.8954E-12	1.08401E+0	-11.6912E-3
-1.47824E-3	-55.3406E-12	1.10548E+0	-20.8210E-3	-53.4541E-12	1.08494E+0	-13.7358E-3
-1.48324E-3	-55.5263E-12	1.11119E+0	-26.0162E-3	-54.2060E-12	1.08635E+0	-17.5276E-3
-1.48824E-3	-55.5674E-12	1.10436E+0	-31.1183E-3	-54.7614E-12	1.10458E+0	-17.9638E-3
-1.49325E-3	-56.0791E-12	1.09515E+0	-41.3947E-3	-55.3241E-12	1.12257E+0	-17.7684E-3
-1.49825E-3	-56.2574E-12	1.09358E+0	-41.8938E-3	-55.9426E-12	1.12055E+0	2.92779E-3
-1.50325E-3	-56.1081E-12	1.10377E+0	-31.9183E-3	-57.0014E-12	1.11606E+0	16.3182E-3
-1.50825E-3	-56.3744E-12	1.11773E+0	-36.3967E-3	-57.4870E-12	1.12121E+0	2.00990E-3
-1.51326E-3	-56.7815E-12	1.11753E+0	-46.6358E-3	-57.8097E-12	1.12574E+0	-6.34861E-3
-1.51826E-3	-57.2401E-12	1.09767E+0	-42.4697E-3	-58.4600E-12	1.11967E+0	-13.1618E-3
-1.52326E-3	-56.9478E-12	1.08757E+0	-32.6740E-3	-58.8273E-12	1.09540E+0	-21.9262E-3
-1.52826E-3	-57.1866E-12	1.08779E+0	-15.4046E-3	-58.8412E-12	1.07616E+0	-17.7938E-3
-1.53327E-3	-57.5880E-12	1.07936E+0	4.97645E-3	-59.1826E-12	1.07180E+0	-21.3967E-3
-1.53827E-3	-57.7827E-12	1.07165E+0	-1.52899E-3	-59.7464E-12	1.06473E+0	-40.5302E-3
-1.54327E-3	-57.8421E-12	1.06517E+0	-18.5920E-3	-59.6947E-12	1.05492E+0	-48.0319E-3
-1.54827E-3	-58.5469E-12	1.05105E+0	-21.8096E-3	-59.8253E-12	1.05759E+0	-41.1854E-3
-1.55328E-3	-59.2242E-12	1.04047E+0	-19.7277E-3	-59.8657E-12	1.07061E+0	-30.4088E-3
-1.55828E-3	-59.8962E-12	1.05097E+0	-11.6946E-3	-60.5221E-12	1.07342E+0	-17.1340E-3
-1.56328E-3	-60.4787E-12	1.06282E+0	-5.47821E-3	-60.6230E-12	1.07320E+0	-12.7184E-3
-1.56828E-3	-61.3202E-12	1.06507E+0	-18.6652E-3	-61.0324E-12	1.07113E+0	-8.88003E-3
-1.57329E-3	-61.9262E-12	1.07425E+0	-28.5883E-3	-61.3336E-12	1.05768E+0	1.13348E-3
-1.57829E-3	-62.3240E-12	1.07976E+0	-11.0076E-3	-61.9899E-12	1.04841E+0	-2.53354E-3
-1.58329E-3	-62.9769E-12	1.08071E+0	6.37591E-3	-62.2539E-12	1.04620E+0	-16.1468E-3
-1.58829E-3	-63.6033E-12	1.08806E+0	1.86389E-3	-62.7385E-12	1.04471E+0	-23.3026E-3
-1.59330E-3	-63.9494E-12	1.08561E+0	-16.6345E-3	-63.4962E-12	1.04343E+0	-26.2328E-3
-1.59830E-3	-63.8303E-12	1.07257E+0	-27.2100E-3	-64.0931E-12	1.04301E+0	-33.3920E-3
-1.60330E-3	-64.0882E-12	1.06347E+0	-22.3780E-3	-64.8610E-12	1.04444E+0	-33.5096E-3
-1.60830E-3	-64.4145E-12	1.05529E+0	-16.0855E-3	-65.4635E-12	1.04835E+0	-18.6949E-3
-1.61331E-3	-64.5241E-12	1.05295E+0	-17.5632E-3	-66.2805E-12	1.05485E+0	-7.88332E-3
-1.61831E-3	-64.4537E-12	1.05698E+0	-20.9814E-3	-66.6881E-12	1.05353E+0	-15.1739E-3
-1.62331E-3	-64.6707E-12	1.04615E+0	-18.8338E-3	-67.1066E-12	1.04739E+0	-26.0052E-3
-1.62831E-3	-65.2383E-12	1.01373E+0	-13.3305E-3	-67.1741E-12	1.03991E+0	-33.9539E-3
-1.63332E-3	-65.3622E-12	998.030E-3	-10.3315E-3	-67.3423E-12	1.02273E+0	-36.3785E-3
-1.63832E-3	-65.6644E-12	1.01533E+0	-12.3563E-3	-68.0688E-12	1.02582E+0	-25.0638E-3
-1.64332E-3	-66.1569E-12	1.01753E+0	-20.5691E-3	-67.6618E-12	1.03472E+0	-19.1024E-3
-1.64832E-3	-66.8190E-12	1.00586E+0	-27.8038E-3	-67.7766E-12	999.353E-3	-26.7483E-3
-1.65333E-3	-67.5681E-12	1.01229E+0	-19.6259E-3	-67.4914E-12	964.999E-3	-26.7464E-3
-1.65833E-3	-67.9897E-12	1.01583E+0	-11.7873E-3	-67.4054E-12	964.368E-3	-17.7724E-3
-1.66333E-3	-68.6294E-12	1.00545E+0	-12.3295E-3	-67.4152E-12	964.195E-3	-6.91092E-3
-1.66833E-3	-69.2510E-12	994.182E-3	-21.1140E-3	-67.3430E-12	954.284E-3	3.12329E-3
-1.67334E-3	-70.0051E-12	992.303E-3	-25.5785E-3	-67.5221E-12	951.871E-3	-7.93325E-3
-1.67834E-3	-70.4205E-12	1.00349E+0	-8.87875E-3	-67.2320E-12	958.988E-3	-38.2203E-3
-1.68334E-3	-71.0858E-12	998.264E-3	-3.40072E-3	-67.7980E-12	953.767E-3	-42.0778E-3
-1.68834E-3	-71.2137E-12	982.579E-3	-18.2225E-3	-68.0044E-12	947.165E-3	-22.9031E-3
-1.69335E-3	-71.7074E-12	991.803E-3	-18.6030E-3	-68.7286E-12	953.315E-3	-22.6969E-3
-1.69835E-3	-71.7812E-12	1.00097E+0	-9.82786E-3	-68.9504E-12	958.454E-3	-30.3811E-3
-1.70335E-3	-72.0553E-12	991.711E-3	-16.6010E-3	-69.9427E-12	964.100E-3	-24.4454E-3
-1.70835E-3	-72.1027E-12	980.313E-3	-18.5456E-3	-70.7253E-12	961.538E-3	-8.45101E-3
-1.71336E-3	-72.6026E-12	972.152E-3	-3.59012E-3	-71.6252E-12	945.722E-3	-1.37767E-3
-1.71836E-3	-72.4187E-12	967.194E-3	461.156E-6	-72.0685E-12	937.319E-3	-9.70207E-3
-1.72336E-3	-72.8888E-12	970.661E-3	-3.58157E-3	-72.8254E-12	937.704E-3	-18.2337E-3
-1.72836E-3	-72.9309E-12	975.956E-3	1.48038E-3	-73.4859E-12	932.727E-3	-14.1725E-3
-1.73337E-3	-73.5278E-12	968.363E-3	3.40932E-3	-73.8446E-12	927.127E-3	-7.67891E-3
-1.73837E-3	-73.7263E-12	949.249E-3	-6.60922E-3	-73.9610E-12	923.947E-3	-11.1160E-3
-1.74337E-3	-73.9727E-12	936.903E-3	-24.5148E-3	-73.6422E-12	908.493E-3	-14.0441E-3
-1.74837E-3	-74.4661E-12	943.418E-3	-31.3549E-3	-74.0212E-12	894.253E-3	-15.2354E-3
-1.75338E-3	-74.8924E-12	945.339E-3	-21.2261E-3	-74.0863E-12	892.709E-3	-14.6462E-3
-1.75838E-3	-75.1617E-12	924.433E-3	-10.1249E-3	-74.2986E-12	891.696E-3	-9.19008E-3
-1.76338E-3	-75.7641E-12	916.293E-3	-10.8656E-3	-73.9008E-12	891.276E-3	-8.33209E-3
-1.76838E-3	-76.3121E-12	932.039E-3	-13.9282E-3	-73.8951E-12	886.224E-3	-7.48838E-3
-1.77339E-3	-76.5161E-12	933.861E-3	-9.68697E-3	-74.0639E-12	881.774E-3	6.50855E-3
-1.77839E-3	-76.7916E-12	924.009E-3	-25.7181E-3	-73.8695E-12	885.371E-3	15.9128E-3
-1.78339E-3	-76.9152E-12	923.135E-3	-38.2054E-3	-73.9993E-12	889.979E-3	7.74023E-3
-1.78839E-3	-77.1519E-12	915.734E-3	-12.6385E-3	-74.3548E-12	888.815E-3	5.52536E-3
-1.79340E-3	-76.8006E-12	903.541E-3	5.76481E-3	-74.9589E-12	884.261E-3	-494.777E-6
-1.79840E-3	-76.6384E-12	902.825E-3	-5.37561E-3	-75.1969E-12	888.899E-3	-24.3727E-3
-1.80340E-3	-77.0188E-12	901.812E-3	-20.4326E-3	-75.9986E-12	884.100E-3	-35.7998E-3
-1.80840E-3	-76.9885E-12	897.659E-3	-26.0173E-3	-76.8026E-12	876.185E-3	-28.6987E-3
-1.81341E-3	-76.9047E-12	890.404E-3	-38.3069E-3	-77.7655E-12	895.853E-3	-16.6129E-3
-1.81841E-3	-77.1286E-12	883.278E-3	-56.2062E-3	-78.1404E-12	911.670E-3	-16.3666E-3
-1.82341E-3	-77.4694E-12	882.172E-3	-45.6665E-3	-79.0169E-12	903.930E-3	-24.6829E-3
-1.82841E-3	-77.6385E-12	878.588E-3	-23.3568E-3	-79.6494E-12	896.124E-3	-23.7998E-3
-1.83342E-3	-77.6640E-12	870.470E-3	-14.4306E-3	-80.3468E-12	874.284E-3	-27.1259E-3
-1.83842E-3	-77.7954E-12	860.538E-3	-7.08928E-3	-80.7837E-12	844.788E-3	-39.6022E-3
-1.84342E-3	-78.3214E-12	865.599E-3	-1.87882E-3	-80.9144E-12	844.362E-3	-37.4487E-3
-1.84842E-3	-78.3837E-12	876.745E-3	4.69840E-3	-81.2130E-12	861.611E-3	-17.2070E-3
-1.85343E-3	-78.3148E-12	855.133E-3	8.48021E-3	-80.9654E-12	869.641E-3	-14.5473E-3
-1.85843E-3	-78.8901E-12	834.217E-3	2.92696E-3	-80.7109E-12	858.970E-3	-35.2795E-3
-1.86343E-3	-78.9847E-12	837.166E-3	109.706E-6	-80.3569E-12	830.803E-3	-42.6700E-3
-1.86843E-3	-79.1852E-12	833.476E-3	11.4259E-3	-80.1973E-12	804.395E-3	-30.3693E-3
-1.87344E-3	-79.3404E-12	843.340E-3	16.2413E-3	-79.8871E-12	795.754E-3	-23.1906E-3
-1.87844E-3	-79.8546E-12	861.586E-3	-5.06772E-3	-79.6291E-12	802.828E-3	-29.2108E-3
-1.88344E-3	-80.0223E-12	857.554E-3	-27.1642E-3	-80.0192E-12	814.185E-3	-38.1269E-3
-1.88844E-3	-80.6785E-12	850.008E-3	-38.0170E-3	-80.1012E-12	819.478E-3	-36.2749E-3
-1.89345E-3	-81.0311E-12	841.736E-3	-38.2986E-3	-80.3428E-12	825.590E-3	-28.9290E-3
-1.89845E-3	-81.7368E-12	828.245E-3	-26.6323E-3	-80.5010E-12	828.055E-3	-22.1242E-3
-1.90345E-3	-81.9401E-12	820.935E-3	-21.1493E-3	-81.5611E-12	818.068E-3	-11.3736E-3
-1.90845E-3	-82.4842E-12	827.924E-3	-20.2562E-3	-82.0602E-12	816.375E-3	-9.11230E-3
-1.91346E-3	-83.0306E-12	838.551E-3	-19.9626E-3	-82.5536E-12	817.998E-3	-22.4856E-3
-1.91846E-3	-83.6960E-12	828.762E-3	-20.5980E-3	-82.9738E-12	815.375E-3	-37.6073E-3
-1.92346E-3	-84.0318E-12	822.384E-3	-17.5957E-3	-83.6607E-12	814.927E-3	-41.8470E-3
-1.92846E-3	-84.1867E-12	830.002E-3	-16.8581E-3	-84.5332E-12	808.442E-3	-34.7602E-3
-1.93347E-3	-84.8314E-12	824.548E-3	-10.7325E-3	-85.0939E-12	817.291E-3	-21.1295E-3
-1.93847E-3	-84.7987E-12	816.855E-3	-4.56431E-3	-85.4551E-12	835.231E-3	-22.8726E-3
-1.94347E-3	-85.1048E-12	823.644E-3	-10.8568E-3	-85.6381E-12	817.216E-3	-30.0802E-3
-1.94847E-3	-84.8236E-12	838.100E-3	-13.5666E-3	-86.2071E-12	790.200E-3	-19.8222E-3
-1.95348E-3	-85.1830E-12	842.295E-3	-6.79851E-3	-86.4420E-12	795.417E-3	-15.9921E-3
-1.95848E-3	-85.0972E-12	839.753E-3	-6.56504E-3	-86.6267E-12	800.776E-3	-18.0422E-3
-1.96348E-3	-85.4615E-12	848.684E-3	-8.42460E-3	-86.1119E-12	800.599E-3	-6.23016E-3
-1.96848E-3	-85.4616E-12	842.690E-3	-7.52524E-3	-86.0157E-12	806.004E-3	-6.41646E-3
-1.97349E-3	-85.7987E-12	810.223E-3	-10.9783E-3	-85.7187E-12	798.473E-3	-18.8337E-3
-1.97849E-3	-86.1406E-12	785.797E-3	-19.6229E-3	-85.8298E-12	793.957E-3	-24.4514E-3
-1.98349E-3	-86.8296E-12	773.160E-3	-18.4426E-3	-85.6850E-12	804.213E-3	-25.7405E-3
-1.98849E-3	-87.4064E-12	772.264E-3	-7.04384E-3	-86.0255E-12	798.219E-3	-14.4360E-3
-1.99350E-3	-87.8579E-12	793.326E-3	-10.9699E-3	-86.1929E-12	782.309E-3	-8.59147E-3
-1.99850E-3	-88.5902E-12	818.201E-3	-20.1596E-3	-86.5562E-12	784.540E-3	-11.4762E-3
-2.00350E-3	-89.3401E-12	820.183E-3	-7.98804E-3	-86.9377E-12	796.139E-3	-2.90991E-3
-2.00850E-3	-89.8974E-12	810.888E-3	-2.46447E-3	-86.9242E-12	806.841E-3	7.18375E-3
-2.01351E-3	-90.2132E-12	804.975E-3	-10.3970E-3	-87.5637E-12	811.380E-3	6.94761E-3
-2.01851E-3	-90.5423E-12	791.383E-3	-7.60850E-3	-88.0831E-12	797.644E-3	8.30940E-3
-2.02351E-3	-90.7953E-12	781.857E-3	-5.98533E-3	-88.8121E-12	781.166E-3	9.28549E-3
-2.02851E-3	-90.4670E-12	795.334E-3	-1.56069E-3	-89.0407E-12	785.256E-3	-7.04186E-3
-2.03352E-3	-90.2847E-12	798.785E-3	11.5868E-3	-89.6133E-12	792.454E-3	-10.5331E-3
-2.03852E-3	-90.2086E-12	782.771E-3	16.2524E-3	-90.4306E-12	790.918E-3	-2.74344E-3
-2.04352E-3	-89.6997E-12	790.506E-3	13.4931E-3	-91.2924E-12	792.824E-3	-24.8422E-3
-2.04852E-3	-89.2925E-12	801.605E-3	7.65875E-3	-91.3582E-12	786.310E-3	-47.3107E-3
-2.05353E-3	-89.8344E-12	782.287E-3	-3.89848E-3	-91.3543E-12	771.377E-3	-33.3481E-3
-2.05853E-3	-89.7924E-12	767.495E-3	-7.52865E-3	-91.8371E-12	771.364E-3	-21.0287E-3
-2.06353E-3	-89.9226E-12	768.988E-3	943.307E-6	-91.9030E-12	772.839E-3	-26.8867E-3
-2.06853E-3	-90.1614E-12	767.435E-3	6.45088E-3	-91.7217E-12	763.862E-3	-18.7627E-3
-2.07354E-3	-90.8414E-12	769.831E-3	7.91301E-3	-91.3031E-12	763.107E-3	-6.45234E-3
-2.07854E-3	-91.2865E-12	774.829E-3	11.0677E-3	-91.5584E-12	765.278E-3	-15.2240E-3
-2.08354E-3	-92.2719E-12	777.892E-3	13.2307E-3	-91.6161E-12	752.583E-3	-28.7462E-3
-2.08854E-3	-92.5410E-12	785.032E-3	6.97367E-3	-91.6493E-12	760.255E-3	-19.9832E-3
-2.09355E-3	-93.0114E-12	790.422E-3	451.887E-6	-91.0886E-12	786.359E-3	-12.4438E-3
-2.09855E-3	-93.5991E-12	780.024E-3	-4.18917E-3	-91.3286E-12	773.700E-3	-20.1513E-3
-2.10355E-3	-93.9417E-12	771.647E-3	-10.9332E-3	-91.1682E-12	751.013E-3	-14.4185E-3
-2.10855E-3	-94.4185E-12	777.294E-3	-19.4653E-3	-91.4323E-12	744.995E-3	-6.73381E-3
-2.11356E-3	-94.3146E-12	777.436E-3	-35.1854E-3	-91.8205E-12	738.858E-3	-8.83514E-3
-2.11856E-3	-94.7815E-12	774.251E-3	-28.9888E-3	-92.4428E-12	749.703E-3	-8.71072E-3
-2.12356E-3	-94.6316E-12	782.394E-3	384.312E-6	-92.8114E-12	772.282E-3	-25.4789E-3
-2.12856E-3	-94.5293E-12	794.165E-3	2.38422E-3	-93.5157E-12	785.599E-3	-39.6128E-3
-2.13357E-3	-94.4859E-12	782.713E-3	-25.8278E-3	-94.3705E-12	786.156E-3	-19.1750E-3
-2.13857E-3	-94.1968E-12	755.831E-3	-42.0581E-3	-94.9310E-12	770.559E-3	-12.3216E-3
-2.14357E-3	-93.9944E-12	745.032E-3	-33.9854E-3	-94.9650E-12	756.998E-3	-26.1247E-3
-2.14857E-3	-94.6127E-12	768.444E-3	-16.2475E-3	-95.6811E-12	764.771E-3	-26.8260E-3
-2.15358E-3	-94.6155E-12	792.547E-3	-6.55106E-3	-96.5902E-12	771.018E-3	-35.6712E-3
-2.15858E-3	-95.2729E-12	765.920E-3	-3.18185E-3	-97.3474E-12	764.884E-3	-46.1273E-3
-2.16358E-3	-95.8327E-12	732.857E-3	-1.78809E-3	-97.4327E-12	764.255E-3	-35.1861E-3
-2.16858E-3	-96.9316E-12	740.520E-3	-8.70654E-3	-97.4065E-12	766.630E-3	-20.5138E-3
-2.17359E-3	-97.4241E-12	749.559E-3	-15.5294E-3	-97.9487E-12	758.706E-3	-20.5269E-3
-2.17859E-3	-97.7852E-12	740.881E-3	-12.6972E-3	-98.2243E-12	757.233E-3	-18.8972E-3
-2.18359E-3	-98.8905E-12	753.149E-3	-9.24813E-3	-97.8457E-12	763.250E-3	-8.89355E-3
-2.18859E-3	-99.7472E-12	781.925E-3	-10.6574E-3	-97.4146E-12	759.754E-3	-5.33326E-3
-2.19360E-3	-100.017E-12	786.190E-3	-5.78258E-3	-97.2641E-12	746.012E-3	-6.16703E-3
-2.19860E-3	-99.8789E-12	768.956E-3	-554.783E-6	-97.4061E-12	744.247E-3	-9.60260E-3
-2.20360E-3	-100.167E-12	754.903E-3	-5.90840E-3	-97.1469E-12	758.874E-3	-26.1345E-3
-2.20860E-3	-100.468E-12	754.365E-3	-27.6131E-3	-97.5640E-12	759.202E-3	-51.9049E-3
-2.21361E-3	-100.237E-12	763.368E-3	-51.0874E-3	-97.2435E-12	749.641E-3	-68.0225E-3
-2.21861E-3	-100.179E-12	756.729E-3	-46.0085E-3	-98.0187E-12	738.481E-3	-60.8824E-3
-2.22361E-3	-100.305E-12	741.241E-3	-28.7808E-3	-98.4770E-12	727.682E-3	-27.4090E-3
-2.22861E-3	-100.370E-12	740.544E-3	-27.9596E-3	-98.6615E-12	741.146E-3	-3.00532E-3
-2.23362E-3	-100.047E-12	739.347E-3	-33.3796E-3	-98.8555E-12	768.800E-3	-21.5345E-3
-2.23862E-3	-100.393E-12	736.254E-3	-29.0331E-3	-99.6321E-12	776.095E-3	-37.3718E-3
-2.24362E-3	-100.813E-12	737.513E-3	-13.0689E-3	-100.805E-12	756.931E-3	-31.0342E-3
-2.24862E-3	-101.149E-12	744.857E-3	-11.0105E-3	-101.219E-12	740.796E-3	-36.6011E-3
-2.25363E-3	-101.805E-12	764.648E-3	-20.9032E-3	-101.391E-12	743.893E-3	-34.0604E-3
-2.25863E-3	-101.805E-12	766.139E-3	-30.6325E-3	-101.547E-12	755.466E-3	-10.8706E-3
-2.26363E-3	-102.312E-12	750.050E-3	-45.3390E-3	-102.536E-12	761.777E-3	-978.193E-6
-2.26863E-3	-102.421E-12	745.208E-3	-44.8320E-3	-102.314E-12	745.976E-3	-11.5519E-3
-2.27364E-3	-102.940E-12	755.307E-3	-28.1115E-3	-102.236E-12	723.206E-3	-25.9744E-3
-2.27864E-3	-103.085E-12	772.209E-3	-11.9634E-3	-101.789E-12	714.780E-3	-32.6436E-3
-2.28364E-3	-103.234E-12	789.608E-3	-4.78259E-3	-101.978E-12	715.886E-3	-24.0577E-3
-2.28864E-3	-103.854E-12	793.899E-3	-5.61491E-3	-101.673E-12	716.592E-3	-17.0533E-3
-2.29365E-3	-103.631E-12	777.206E-3	-16.3967E-3	-101.117E-12	715.342E-3	-25.5888E-3
-2.29865E-3	-103.901E-12	759.941E-3	-24.5564E-3	-100.935E-12	714.223E-3	-30.1913E-3
-2.30365E-3	-103.693E-12	752.110E-3	-8.88579E-3	-100.672E-12	714.395E-3	-24.3032E-3
-2.30865E-3	-103.904E-12	749.309E-3	1.54747E-3	-101.527E-12	726.161E-3	-25.0085E-3
-2.31366E-3	-103.635E-12	752.399E-3	-8.34909E-3	-101.902E-12	759.178E-3	-31.3579E-3
-2.31866E-3	-104.069E-12	761.691E-3	-2.94039E-3	-102.538E-12	775.468E-3	-26.5219E-3
-2.32366E-3	-104.740E-12	763.252E-3	10.2251E-3	-102.525E-12	763.643E-3	-10.0171E-3
-2.32866E-3	-105.324E-12	753.971E-3	6.08547E-3	-103.766E-12	746.506E-3	-1.02045E-3
-2.33367E-3	-105.911E-12	749.490E-3	-5.26507E-3	-104.516E-12	731.629E-3	-7.40077E-3
-2.33867E-3	-106.097E-12	734.575E-3	-13.0243E-3	-104.953E-12	726.429E-3	-8.63454E-3
-2.34367E-3	-106.574E-12	727.073E-3	-10.7888E-3	-105.558E-12	726.807E-3	-4.15011E-3
-2.34867E-3	-106.441E-12	752.911E-3	-9.60624E-3	-106.257E-12	734.816E-3	-17.8743E-3
-2.35368E-3	-106.751E-12	769.706E-3	-5.95401E-3	-107.464E-12	740.054E-3	-44.2429E-3
-2.35868E-3	-106.665E-12	763.807E-3	-6.64832E-3	-107.709E-12	736.494E-3	-34.8244E-3
-2.36368E-3	-106.568E-12	762.406E-3	-24.5609E-3	-108.002E-12	740.050E-3	5.27344E-3
-2.36868E-3	-106.745E-12	769.978E-3	-38.6738E-3	-107.959E-12	740.369E-3	18.2445E-3
-2.37369E-3	-106.526E-12	749.721E-3	-41.5647E-3	-108.179E-12	724.806E-3	-3.51606E-3
-2.37869E-3	-106.267E-12	716.205E-3	-25.3790E-3	-107.970E-12	719.377E-3	-30.0836E-3
-2.38369E-3	-106.338E-12	714.895E-3	-5.90795E-3	-107.473E-12	727.756E-3	-44.9708E-3
-2.38869E-3	-106.135E-12	734.164E-3	-11.2693E-3	-107.436E-12	729.716E-3	-55.1164E-3
-2.39370E-3	-106.060E-12	747.796E-3	-8.27286E-3	-107.284E-12	727.009E-3	-41.6612E-3
-2.39870E-3	-106.178E-12	748.250E-3	8.44059E-3	-107.528E-12	726.843E-3	-13.0854E-3
-2.40370E-3	-106.583E-12	736.311E-3	2.75781E-3	-107.387E-12	731.424E-3	-11.7659E-3
-2.40870E-3	-106.871E-12	721.239E-3	-15.3766E-3	-107.736E-12	729.221E-3	-25.1422E-3
-2.41371E-3	-107.674E-12	709.778E-3	-25.1169E-3	-107.660E-12	722.564E-3	-21.0756E-3
-2.41871E-3	-108.453E-12	710.746E-3	-31.2832E-3	-108.190E-12	730.359E-3	-10.4826E-3
-2.42371E-3	-109.045E-12	732.735E-3	-35.9761E-3	-108.994E-12	736.374E-3	-12.2214E-3
-2.42871E-3	-109.805E-12	741.375E-3	-35.2522E-3	-109.491E-12	737.422E-3	-18.6491E-3
-2.43372E-3	-110.216E-12	729.086E-3	-35.7033E-3	-110.084E-12	745.464E-3	-26.0964E-3
-2.43872E-3	-110.601E-12	717.209E-3	-36.9304E-3	-110.470E-12	738.124E-3	-21.9473E-3
-2.44372E-3	-110.684E-12	714.347E-3	-19.9832E-3	-111.511E-12	720.622E-3	-554.818E-6
-2.44872E-3	-110.399E-12	717.903E-3	-3.07077E-3	-112.057E-12	710.713E-3	9.07056E-3
-2.45373E-3	-110.420E-12	725.179E-3	-17.9027E-3	-112.440E-12	709.285E-3	1.91805E-3
-2.45873E-3	-110.849E-12	732.133E-3	-23.0677E-3	-112.585E-12	728.065E-3	2.45837E-3
-2.46373E-3	-110.777E-12	720.066E-3	5.37047E-3	-113.229E-12	741.332E-3	6.58783E-3
-2.46873E-3	-110.571E-12	708.396E-3	23.6970E-3	-113.045E-12	731.257E-3	12.1034E-3
-2.47374E-3	-110.898E-12	708.962E-3	15.8005E-3	-112.964E-12	739.709E-3	23.4908E-3
-2.47874E-3	-110.719E-12	711.685E-3	-16.4641E-3	-113.034E-12	751.668E-3	15.6123E-3
-2.48374E-3	-111.009E-12	725.765E-3	-50.0156E-3	-112.719E-12	732.813E-3	2.30220E-3
-2.48874E-3	-111.008E-12	747.887E-3	-29.2453E-3	-112.800E-12	704.457E-3	-3.75123E-3
-2.49375E-3	-111.524E-12	754.372E-3	14.0294E-3	-112.070E-12	688.502E-3	-18.7760E-3
-2.49875E-3	-111.978E-12	743.451E-3	7.85161E-3	-111.798E-12	699.650E-3	-15.5566E-3
-2.50375E-3	-113.028E-12	726.826E-3	-8.64209E-3	-111.540E-12	717.377E-3	-600.080E-6
-2.50875E-3	-113.786E-12	727.188E-3	297.851E-6	-111.834E-12	719.928E-3	-3.97837E-3
-2.51376E-3	-114.677E-12	742.505E-3	-1.63040E-3	-111.581E-12	707.714E-3	-12.3183E-3
-2.51876E-3	-115.481E-12	738.581E-3	-18.3687E-3	-111.651E-12	701.978E-3	-9.77363E-3
-2.52376E-3	-116.310E-12	732.395E-3	-23.9043E-3	-112.045E-12	705.595E-3	2.37626E-3
-2.52876E-3	-117.245E-12	738.410E-3	-15.0786E-3	-112.543E-12	712.542E-3	14.7373E-3
-2.53377E-3	-117.466E-12	747.398E-3	-7.07306E-3	-113.074E-12	725.697E-3	17.1074E-3
-2.53877E-3	-117.541E-12	760.478E-3	-5.30037E-3	-113.098E-12	725.448E-3	5.56608E-3
-2.54377E-3	-117.460E-12	746.809E-3	-16.7418E-3	-113.858E-12	725.059E-3	-8.54737E-3
-2.54877E-3	-117.581E-12	725.368E-3	-19.4350E-3	-114.159E-12	735.550E-3	-6.98452E-3
-2.55378E-3	-117.586E-12	737.132E-3	-4.28861E-3	-115.201E-12	734.993E-3	-610.919E-6
-2.55878E-3	-117.173E-12	751.293E-3	-14.5551E-3	-115.377E-12	713.048E-3	-827.436E-6
-2.56378E-3	-116.811E-12	748.848E-3	-29.7702E-3	-115.484E-12	701.693E-3	-18.9112E-3
-2.56878E-3	-117.046E-12	730.031E-3	-11.7331E-3	-116.151E-12	712.872E-3	-39.5208E-3
-2.57379E-3	-116.466E-12	712.741E-3	1.40728E-3	-116.559E-12	717.617E-3	-27.6793E-3
-2.57879E-3	-116.494E-12	720.686E-3	-15.4392E-3	-117.089E-12	727.076E-3	-8.21663E-3
-2.58379E-3	-116.902E-12	730.040E-3	-34.2381E-3	-117.146E-12	735.194E-3	-7.17065E-3
-2.58879E-3	-116.739E-12	733.595E-3	-43.2538E-3	-117.425E-12	714.467E-3	-9.46014E-3
-2.59380E-3	-117.360E-12	739.212E-3	-42.5474E-3	-117.594E-12	703.033E-3	-12.9234E-3
-2.59880E-3	-117.919E-12	730.754E-3	-26.8918E-3	-117.413E-12	718.117E-3	-11.2144E-3
-2.60380E-3	-118.299E-12	707.830E-3	-6.22108E-3	-117.746E-12	716.255E-3	4.59134E-3
-2.60880E-3	-118.893E-12	701.255E-3	-3.35130E-3	-117.739E-12	696.320E-3	19.2108E-3
-2.61381E-3	-119.343E-12	708.974E-3	-11.1671E-3	-117.360E-12	688.804E-3	27.2795E-3
-2.61881E-3	-119.417E-12	710.756E-3	-13.4016E-3	-117.295E-12	698.565E-3	20.0997E-3
-2.62381E-3	-119.177E-12	728.783E-3	-11.1367E-3	-117.603E-12	707.573E-3	4.21075E-3
-2.62881E-3	-119.773E-12	741.743E-3	880.145E-6	-117.833E-12	703.318E-3	-8.37126E-3
-2.63382E-3	-119.554E-12	724.264E-3	792.855E-6	-117.945E-12	692.920E-3	-22.7032E-3
-2.63882E-3	-119.584E-12	714.840E-3	-14.0702E-3	-118.308E-12	690.314E-3	-29.7554E-3
-2.64382E-3	-119.408E-12	713.035E-3	-22.5552E-3	-119.040E-12	711.509E-3	-29.8195E-3
-2.64882E-3	-119.341E-12	706.638E-3	-36.1905E-3	-119.061E-12	724.094E-3	-20.3836E-3
-2.65383E-3	-119.565E-12	707.074E-3	-47.6458E-3	-119.648E-12	711.257E-3	-16.6494E-3
-2.65883E-3	-120.054E-12	714.141E-3	-39.1947E-3	-120.173E-12	709.174E-3	-27.1172E-3
-2.66383E-3	-119.711E-12	722.796E-3	-28.7369E-3	-121.243E-12	718.519E-3	-24.8173E-3
-2.66883E-3	-119.839E-12	726.382E-3	-23.5592E-3	-121.443E-12	726.772E-3	-9.84120E-3
-2.67384E-3	-120.320E-12	717.723E-3	-15.4883E-3	-122.257E-12	724.206E-3	475.385E-6
-2.67884E-3	-120.314E-12	703.358E-3	-2.17638E-3	-122.599E-12	710.033E-3	5.91841E-3
-2.68384E-3	-120.412E-12	704.633E-3	9.07218E-3	-123.441E-12	702.596E-3	4.83515E-3
-2.68884E-3	-120.952E-12	720.336E-3	7.06926E-3	-123.345E-12	698.987E-3	-13.8156E-3
-2.69385E-3	-121.218E-12	732.038E-3	-6.56521E-3	-123.633E-12	689.277E-3	-28.9533E-3
-2.69885E-3	-121.556E-12	721.631E-3	-17.6765E-3	-123.328E-12	689.450E-3	-22.0738E-3
-2.70385E-3	-121.378E-12	703.126E-3	-15.5364E-3	-123.154E-12	699.717E-3	-21.4008E-3
-2.70885E-3	-121.508E-12	700.781E-3	-1.33514E-3	-123.060E-12	704.609E-3	-35.9150E-3
-2.71386E-3	-121.995E-12	704.890E-3	7.99792E-3	-122.588E-12	701.147E-3	-30.0747E-3
-2.71886E-3	-122.648E-12	707.087E-3	2.10374E-3	-121.943E-12	699.857E-3	-2.33255E-3
-2.72386E-3	-122.608E-12	703.147E-3	-15.3996E-3	-121.678E-12	704.610E-3	172.642E-6
-2.72886E-3	-123.103E-12	713.613E-3	-38.5791E-3	-121.570E-12	705.267E-3	-28.6890E-3
-2.73387E-3	-123.326E-12	728.588E-3	-33.2224E-3	-121.739E-12	704.938E-3	-45.1831E-3
-2.73887E-3	-123.400E-12	702.579E-3	-13.1014E-3	-122.048E-12	708.384E-3	-32.5908E-3
-2.74387E-3	-124.340E-12	680.263E-3	-20.3059E-3	-122.248E-12	710.253E-3	-21.7579E-3
-2.74887E-3	-124.530E-12	698.309E-3	-29.6659E-3	-123.035E-12	713.820E-3	-36.4122E-3
-2.75388E-3	-125.139E-12	708.665E-3	-36.8731E-3	-124.253E-12	710.438E-3	-46.3431E-3
-2.75888E-3	-126.231E-12	705.533E-3	-40.6452E-3	-125.137E-12	695.832E-3	-35.6757E-3
-2.76388E-3	-127.249E-12	706.694E-3	-21.8036E-3	-126.195E-12	709.561E-3	-21.2871E-3
-2.76888E-3	-127.356E-12	713.156E-3	-9.94362E-3	-127.128E-12	738.653E-3	-17.7328E-3
-2.77389E-3	-127.867E-12	726.810E-3	-18.1499E-3	-128.279E-12	731.269E-3	-21.8032E-3
-2.77889E-3	-128.693E-12	722.978E-3	-20.7209E-3	-129.037E-12	715.498E-3	-12.1758E-3
-2.78389E-3	-129.079E-12	695.599E-3	-23.1650E-3	-129.437E-12	713.398E-3	3.99837E-3
-2.78889E-3	-128.774E-12	679.597E-3	-25.3375E-3	-129.579E-12	709.998E-3	7.36500E-3
-2.79390E-3	-128.826E-12	690.930E-3	-12.2042E-3	-129.411E-12	704.326E-3	110.944E-6
-2.79890E-3	-128.699E-12	710.000E-3	1.86607E-3	-129.354E-12	702.060E-3	-10.1716E-3
-2.80390E-3	-129.129E-12	716.949E-3	2.25658E-3	-128.913E-12	702.236E-3	-16.6130E-3
-2.80890E-3	-128.268E-12	705.999E-3	-8.11654E-3	-128.494E-12	691.943E-3	-12.7174E-3
-2.81391E-3	-128.082E-12	701.703E-3	-4.97832E-3	-127.508E-12	686.331E-3	-2.58602E-3
-2.81891E-3	-127.780E-12	712.501E-3	6.26090E-3	-127.135E-12	689.411E-3	-762.617E-6
-2.82391E-3	-128.474E-12	712.414E-3	852.261E-6	-126.827E-12	692.217E-3	-14.7008E-3
-2.82891E-3	-128.710E-12	697.358E-3	199.105E-6	-126.716E-12	694.147E-3	-21.5924E-3
-2.83392E-3	-128.616E-12	689.911E-3	6.52942E-3	-126.295E-12	679.397E-3	-23.0060E-3
-2.83892E-3	-129.177E-12	691.541E-3	6.43952E-3	-126.795E-12	669.372E-3	-39.5067E-3
-2.84392E-3	-129.692E-12	683.667E-3	3.48729E-3	-126.974E-12	680.540E-3	-36.2174E-3
-2.84892E-3	-130.336E-12	667.062E-3	-15.7099E-3	-127.591E-12	697.583E-3	-11.9444E-3
-2.85393E-3	-130.487E-12	656.332E-3	-44.8359E-3	-127.840E-12	720.925E-3	-13.1450E-3
-2.85893E-3	-131.228E-12	664.567E-3	-44.5755E-3	-129.203E-12	735.917E-3	-21.3584E-3
-2.86393E-3	-130.805E-12	688.948E-3	-26.6446E-3	-130.051E-12	739.961E-3	-8.02678E-3
-2.86893E-3	-130.952E-12	705.637E-3	-23.3320E-3	-130.910E-12	740.376E-3	2.99053E-3
-2.87394E-3	-130.995E-12	684.709E-3	-19.6337E-3	-131.579E-12	725.893E-3	-655.709E-6
-2.87894E-3	-131.601E-12	666.646E-3	-12.2891E-3	-132.490E-12	710.177E-3	-13.5876E-3
-2.88394E-3	-130.613E-12	695.753E-3	-19.5675E-3	-133.136E-12	701.697E-3	-24.7461E-3
-2.88894E-3	-130.286E-12	723.339E-3	-30.5099E-3	-133.382E-12	697.008E-3	-21.2023E-3
-2.89395E-3	-130.170E-12	708.793E-3	-24.8955E-3	-133.417E-12	710.952E-3	-6.90474E-3
-2.89895E-3	-130.304E-12	682.101E-3	-13.5962E-3	-133.232E-12	723.987E-3	8.01712E-3
-2.90395E-3	-129.989E-12	673.959E-3	-482.597E-6	-133.020E-12	713.026E-3	21.1044E-3
-2.90895E-3	-129.666E-12	659.986E-3	13.1538E-3	-132.679E-12	709.001E-3	15.5647E-3
-2.91396E-3	-129.792E-12	636.531E-3	11.8520E-3	-131.873E-12	709.373E-3	-6.93665E-3
-2.91896E-3	-130.610E-12	644.436E-3	3.94696E-3	-131.520E-12	696.026E-3	-11.6218E-3
-2.92396E-3	-131.003E-12	670.185E-3	-12.7345E-3	-130.652E-12	685.242E-3	-11.4667E-3
-2.92896E-3	-130.916E-12	677.955E-3	-32.2673E-3	-130.438E-12	683.704E-3	-14.5284E-3
-2.93397E-3	-131.778E-12	681.403E-3	-24.9195E-3	-130.385E-12	699.316E-3	-14.3407E-3
-2.93897E-3	-132.892E-12	681.108E-3	-10.0683E-3	-130.203E-12	718.314E-3	-24.8014E-3
-2.94397E-3	-133.453E-12	686.122E-3	-15.8457E-3	-130.234E-12	707.448E-3	-34.0096E-3
-2.94897E-3	-134.240E-12	707.323E-3	-24.7237E-3	-130.793E-12	691.779E-3	-30.7801E-3
-2.95398E-3	-134.295E-12	712.988E-3	-21.2435E-3	-131.861E-12	706.933E-3	-30.3269E-3
-2.95898E-3	-135.165E-12	707.468E-3	-7.81952E-3	-132.187E-12	707.827E-3	-27.6092E-3
-2.96398E-3	-135.246E-12	704.607E-3	-3.34179E-3	-133.253E-12	680.611E-3	-15.5368E-3
-2.96898E-3	-135.197E-12	697.951E-3	-13.8151E-3	-134.203E-12	674.492E-3	-5.67895E-3
-2.97399E-3	-135.161E-12	699.680E-3	-5.32838E-3	-135.372E-12	699.830E-3	1.45887E-3
-2.97899E-3	-135.422E-12	706.483E-3	13.1543E-3	-136.174E-12	720.589E-3	2.10560E-3
-2.98399E-3	-135.573E-12	694.591E-3	8.30317E-3	-136.915E-12	734.976E-3	-9.16320E-3
-2.98899E-3	-135.064E-12	679.321E-3	2.70687E-3	-137.590E-12	749.696E-3	-17.0852E-3
-2.99400E-3	-135.444E-12	682.723E-3	3.42765E-3	-138.206E-12	727.509E-3	-16.3852E-3
-2.99900E-3	-134.901E-12	688.632E-3	-2.27056E-3	-139.228E-12	688.157E-3	-16.2091E-3
-3.00400E-3	-135.546E-12	693.848E-3	-10.2343E-3	-139.234E-12	689.343E-3	-17.1990E-3
-3.00900E-3	-135.293E-12	681.373E-3	-14.6375E-3	-139.838E-12	700.525E-3	-7.67004E-3
-3.01401E-3	-135.973E-12	669.960E-3	-19.3206E-3	-139.705E-12	694.676E-3	-2.07857E-3
-3.01901E-3	-136.300E-12	683.440E-3	-20.3896E-3	-140.383E-12	710.751E-3	-21.4703E-3
-3.02401E-3	-136.733E-12	685.375E-3	-6.16766E-3	-139.648E-12	725.105E-3	-22.8773E-3
-3.02901E-3	-137.384E-12	674.777E-3	-4.88544E-3	-139.475E-12	711.338E-3	-1.52672E-3
-3.03402E-3	-138.204E-12	674.106E-3	-22.3086E-3	-138.859E-12	696.020E-3	-7.37298E-3
-3.03902E-3	-138.475E-12	679.253E-3	-31.3444E-3	-138.965E-12	686.212E-3	-26.0084E-3
-3.04402E-3	-138.641E-12	677.952E-3	-29.6549E-3	-138.921E-12	684.996E-3	-18.6136E-3
-3.04902E-3	-139.563E-12	690.469E-3	-30.4286E-3	-138.888E-12	683.454E-3	-4.03773E-3
-3.05403E-3	-139.340E-12	714.169E-3	-31.3583E-3	-138.273E-12	679.707E-3	-11.1916E-3
-3.05903E-3	-139.472E-12	714.072E-3	-39.0115E-3	-138.561E-12	702.524E-3	-19.5914E-3
-3.06403E-3	-139.644E-12	705.020E-3	-59.6838E-3	-138.764E-12	727.507E-3	-20.9459E-3
-3.06903E-3	-140.117E-12	694.286E-3	-44.4763E-3	-139.376E-12	719.615E-3	-22.7556E-3
-3.07404E-3	-140.254E-12	685.040E-3	-1.36441E-3	-139.137E-12	699.789E-3	-10.3651E-3
-3.07904E-3	-140.189E-12	699.312E-3	-6.26660E-3	-139.651E-12	697.532E-3	-5.14719E-3
-3.08404E-3	-140.275E-12	707.478E-3	-35.2370E-3	-139.873E-12	701.187E-3	-17.1277E-3
-3.08904E-3	-140.611E-12	700.665E-3	-35.9937E-3	-140.621E-12	693.337E-3	-9.72805E-3
-3.09405E-3	-141.023E-12	707.323E-3	-31.6710E-3	-141.018E-12	687.736E-3	5.25804E-3
-3.09905E-3	-140.891E-12	714.207E-3	-29.0774E-3	-142.067E-12	696.938E-3	-12.3514E-3
-3.10405E-3	-141.669E-12	705.396E-3	-15.2186E-3	-142.479E-12	719.821E-3	-40.4754E-3
-3.10905E-3	-142.105E-12	702.339E-3	737.314E-6	-142.888E-12	720.782E-3	-55.2442E-3
-3.11406E-3	-142.170E-12	698.201E-3	14.0325E-3	-143.166E-12	704.151E-3	-59.3918E-3
-3.11906E-3	-142.293E-12	694.772E-3	19.7781E-3	-143.201E-12	719.598E-3	-47.2811E-3
-3.12406E-3	-142.788E-12	707.586E-3	-226.013E-6	-143.018E-12	724.436E-3	-35.4322E-3
-3.12906E-3	-143.593E-12	704.701E-3	-27.1184E-3	-142.810E-12	691.827E-3	-22.6337E-3
-3.13407E-3	-143.829E-12	694.918E-3	-31.6865E-3	-142.527E-12	677.052E-3	-1.83144E-3
-3.13907E-3	-143.656E-12	709.276E-3	-30.9034E-3	-141.528E-12	678.005E-3	2.82260E-3
-3.14407E-3	-143.771E-12	718.298E-3	-39.8791E-3	-140.770E-12	672.231E-3	-10.6917E-3
-3.14907E-3	-144.500E-12	702.127E-3	-35.7997E-3	-140.997E-12	674.912E-3	-32.8425E-3
-3.15408E-3	-144.572E-12	687.391E-3	-10.2594E-3	-140.886E-12	692.871E-3	-44.8844E-3
-3.15908E-3	-144.414E-12	693.264E-3	820.931E-6	-140.256E-12	692.628E-3	-36.9333E-3
-3.16408E-3	-144.899E-12	696.976E-3	-12.1072E-3	-139.585E-12	666.094E-3	-31.8746E-3
-3.16908E-3	-145.368E-12	704.036E-3	-19.7615E-3	-140.489E-12	670.082E-3	-30.4153E-3
-3.17409E-3	-145.588E-12	734.652E-3	-7.94421E-3	-140.932E-12	685.827E-3	-32.3709E-3
-3.17909E-3	-146.062E-12	739.667E-3	11.9231E-3	-141.005E-12	683.841E-3	-26.0559E-3
-3.18409E-3	-146.166E-12	710.221E-3	23.8406E-3	-141.481E-12	705.395E-3	515.756E-6
-3.18909E-3	-146.203E-12	692.150E-3	13.9450E-3	-142.911E-12	725.590E-3	113.586E-6
-3.19410E-3	-146.456E-12	698.033E-3	-5.75487E-3	-143.992E-12	721.278E-3	-15.3712E-3
-3.19910E-3	-147.191E-12	696.241E-3	-9.51886E-3	-145.233E-12	719.498E-3	-11.1314E-3
-3.20410E-3	-147.106E-12	686.164E-3	-5.52248E-3	-146.521E-12	713.941E-3	-19.8093E-3
-3.20910E-3	-147.223E-12	685.302E-3	-14.0114E-3	-147.597E-12	704.576E-3	-15.4877E-3
-3.21411E-3	-147.099E-12	682.221E-3	-26.1209E-3	-148.580E-12	705.937E-3	10.1172E-3
-3.21911E-3	-147.365E-12	681.070E-3	-39.3659E-3	-149.485E-12	711.189E-3	7.78541E-3
-3.22411E-3	-147.747E-12	683.980E-3	-35.3803E-3	-150.137E-12	705.654E-3	-2.45763E-3
-3.22911E-3	-147.709E-12	679.664E-3	-18.2259E-3	-149.554E-12	686.151E-3	-3.43810E-3
-3.23412E-3	-147.375E-12	678.249E-3	-24.1520E-3	-148.894E-12	678.067E-3	-20.9662E-3
-3.23912E-3	-147.362E-12	690.306E-3	-22.7842E-3	-148.200E-12	682.260E-3	-22.0829E-3
-3.24412E-3	-147.549E-12	693.731E-3	11.6069E-3	-147.777E-12	691.027E-3	-12.4403E-3
-3.24912E-3	-147.562E-12	686.469E-3	21.4978E-3	-146.524E-12	694.588E-3	-33.4755E-3
-3.25413E-3	-147.448E-12	706.576E-3	-768.816E-6	-146.124E-12	658.136E-3	-40.7489E-3
-3.25913E-3	-147.775E-12	730.194E-3	-18.3916E-3	-145.833E-12	634.131E-3	-15.6532E-3
-3.26413E-3	-147.626E-12	721.907E-3	-37.7570E-3	-146.387E-12	653.861E-3	5.36255E-3
-3.26913E-3	-148.716E-12	720.862E-3	-32.2984E-3	-146.342E-12	673.503E-3	-4.60188E-3
-3.27414E-3	-148.034E-12	727.871E-3	-12.0766E-3	-146.742E-12	701.457E-3	-28.8644E-3
-3.27914E-3	-148.874E-12	711.669E-3	-12.4572E-3	-147.533E-12	722.221E-3	-43.1659E-3
-3.28414E-3	-149.767E-12	682.520E-3	-20.2368E-3	-148.471E-12	709.720E-3	-41.3839E-3
-3.28914E-3	-149.934E-12	674.700E-3	-21.9222E-3	-149.771E-12	701.627E-3	-22.3509E-3
-3.29415E-3	-149.635E-12	695.626E-3	-10.5818E-3	-150.389E-12	720.590E-3	-13.0824E-3
-3.29915E-3	-150.379E-12	713.097E-3	-8.92427E-3	-151.366E-12	722.023E-3	-18.5947E-3
-3.30415E-3	-150.653E-12	711.574E-3	-23.4706E-3	-152.389E-12	698.193E-3	-24.0014E-3
-3.30915E-3	-150.428E-12	702.431E-3	-32.0650E-3	-153.438E-12	703.343E-3	-33.4227E-3
-3.31416E-3	-150.005E-12	689.505E-3	-31.4356E-3	-154.203E-12	720.868E-3	-34.6445E-3
-3.31916E-3	-150.584E-12	677.520E-3	-18.4536E-3	-154.214E-12	705.009E-3	-23.6409E-3
-3.32416E-3	-151.042E-12	678.193E-3	-8.53897E-3	-154.441E-12	688.781E-3	-8.82958E-3
-3.32916E-3	-150.917E-12	688.798E-3	-5.44355E-3	-154.512E-12	690.238E-3	-2.17699E-3
-3.33417E-3	-150.527E-12	695.671E-3	-4.62770E-3	-153.667E-12	692.225E-3	-288.182E-6
-3.33917E-3	-150.871E-12	681.094E-3	-6.72201E-3	-152.045E-12	689.139E-3	4.07340E-3
-3.34417E-3	-151.299E-12	647.103E-3	-15.3763E-3	-150.836E-12	668.276E-3	2.10724E-3
-3.34917E-3	-151.666E-12	647.628E-3	-15.6686E-3	-150.659E-12	653.716E-3	-3.33737E-3
-3.35418E-3	-151.936E-12	690.303E-3	6.58187E-3	-150.681E-12	672.155E-3	-15.8938E-3
-3.35918E-3	-152.910E-12	706.799E-3	23.1000E-3	-150.387E-12	697.886E-3	-40.5239E-3
-3.36418E-3	-153.915E-12	688.845E-3	9.99708E-3	-150.577E-12	703.024E-3	-44.1946E-3
-3.36918E-3	-154.479E-12	679.894E-3	-16.6021E-3	-151.263E-12	713.694E-3	-17.2707E-3
-3.37419E-3	-155.073E-12	693.024E-3	-34.3517E-3	-152.341E-12	719.418E-3	-4.17808E-3
-3.37919E-3	-155.423E-12	715.673E-3	-35.8488E-3	-152.568E-12	710.756E-3	-13.2846E-3
-3.38419E-3	-156.091E-12	723.568E-3	-16.2846E-3	-153.507E-12	708.721E-3	-10.7454E-3
-3.38919E-3	-157.080E-12	717.135E-3	16.8007E-3	-154.112E-12	693.671E-3	-4.04148E-3
-3.39420E-3	-157.327E-12	723.424E-3	46.1360E-3	-154.837E-12	680.416E-3	-3.53081E-3
-3.39920E-3	-157.840E-12	725.521E-3	48.5315E-3	-155.523E-12	693.074E-3	-2.91874E-3
-3.40420E-3	-157.826E-12	705.985E-3	12.8546E-3	-156.748E-12	703.195E-3	-17.9964E-3
-3.40920E-3	-158.165E-12	690.753E-3	-27.5574E-3	-157.311E-12	693.040E-3	-24.6610E-3
-3.41421E-3	-157.680E-12	680.022E-3	-35.8276E-3	-157.386E-12	685.161E-3	-15.5751E-3
-3.41921E-3	-157.780E-12	672.416E-3	-31.5910E-3	-157.839E-12	685.413E-3	-12.7307E-3
-3.42421E-3	-156.921E-12	690.955E-3	-26.1781E-3	-158.174E-12	676.638E-3	-7.25458E-3
-3.42921E-3	-156.470E-12	714.645E-3	-14.9538E-3	-157.750E-12	681.948E-3	-5.92828E-3
-3.43422E-3	-156.315E-12	705.254E-3	-17.9116E-3	-157.341E-12	694.927E-3	-7.50854E-3
-3.43922E-3	-156.179E-12	685.936E-3	-25.7649E-3	-157.401E-12	685.757E-3	6.63743E-3
-3.44422E-3	-156.333E-12	687.403E-3	-19.9689E-3	-157.565E-12	680.637E-3	9.76195E-3
-3.44922E-3	-155.742E-12	691.812E-3	-14.3419E-3	-157.351E-12	694.790E-3	-9.69192E-3
-3.45423E-3	-156.954E-12	686.691E-3	-9.14126E-3	-156.713E-12	709.657E-3	-16.5462E-3
-3.45923E-3	-157.373E-12	692.897E-3	-15.4816E-3	-157.151E-12	705.508E-3	-9.82355E-3
-3.46423E-3	-157.914E-12	693.590E-3	-32.2502E-3	-157.856E-12	683.713E-3	-23.8690E-3
-3.46923E-3	-157.983E-12	691.322E-3	-38.5555E-3	-157.449E-12	661.515E-3	-50.1865E-3
-3.47424E-3	-158.662E-12	703.504E-3	-33.8345E-3	-157.689E-12	664.531E-3	-53.2047E-3
-3.47924E-3	-158.730E-12	695.412E-3	-30.5404E-3	-158.099E-12	698.139E-3	-44.8193E-3
-3.48424E-3	-158.548E-12	691.678E-3	-29.3282E-3	-158.557E-12	712.402E-3	-23.3477E-3
-3.48924E-3	-158.760E-12	712.158E-3	-3.48343E-3	-158.137E-12	714.077E-3	6.74327E-3
-3.49425E-3	-158.261E-12	707.808E-3	24.7503E-3	-158.135E-12	737.528E-3	8.01543E-3
-3.49925E-3	-158.370E-12	683.736E-3	32.4973E-3	-158.905E-12	743.098E-3	6.84022E-3
-3.50425E-3	-158.896E-12	687.139E-3	29.8205E-3	-159.510E-12	720.096E-3	12.6109E-3
-3.50925E-3	-158.954E-12	696.737E-3	-2.29861E-3	-160.083E-12	693.708E-3	-9.26165E-3
-3.51426E-3	-158.611E-12	689.898E-3	-15.7428E-3	-160.182E-12	670.180E-3	-35.6112E-3
-3.51926E-3	-159.417E-12	686.643E-3	13.9296E-3	-160.811E-12	667.541E-3	-38.0582E-3
-3.52426E-3	-159.308E-12	691.717E-3	18.0871E-3	-161.361E-12	679.766E-3	-24.7400E-3
-3.52926E-3	-159.375E-12	691.670E-3	-4.98703E-3	-162.201E-12	692.628E-3	-8.57968E-3
-3.53427E-3	-159.823E-12	683.167E-3	-20.0678E-3	-162.165E-12	713.698E-3	-4.02035E-3
-3.53927E-3	-160.018E-12	661.611E-3	-21.5007E-3	-162.222E-12	718.418E-3	-15.7044E-3
-3.54427E-3	-160.418E-12	646.503E-3	-3.52651E-3	-162.734E-12	689.467E-3	-23.0509E-3
-3.54927E-3	-160.551E-12	668.325E-3	14.1629E-3	-163.036E-12	671.452E-3	-1.84518E-3
-3.55428E-3	-161.225E-12	692.126E-3	3.45591E-3	-163.021E-12	691.141E-3	4.48635E-3
-3.55928E-3	-162.225E-12	680.593E-3	-259.905E-6	-162.596E-12	691.218E-3	-28.0194E-3
-3.56428E-3	-162.573E-12	677.572E-3	11.2749E-3	-162.003E-12	664.731E-3	-41.2599E-3
-3.56928E-3	-163.190E-12	694.774E-3	7.61025E-3	-162.090E-12	654.063E-3	-28.6366E-3
-3.57429E-3	-163.173E-12	692.773E-3	-8.48298E-3	-162.165E-12	656.232E-3	-20.6000E-3
-3.57929E-3	-164.296E-12	674.829E-3	-28.9596E-3	-161.661E-12	677.559E-3	-6.70703E-3
-3.58429E-3	-164.625E-12	655.173E-3	-29.4990E-3	-161.592E-12	688.913E-3	5.11246E-3
-3.58929E-3	-165.348E-12	665.414E-3	-4.37401E-3	-161.864E-12	661.732E-3	1.40415E-3
-3.59430E-3	-164.528E-12	696.524E-3	-2.02277E-3	-161.361E-12	641.417E-3	812.806E-6
-3.59930E-3	-164.580E-12	697.852E-3	-37.1139E-3	-162.070E-12	650.040E-3	-8.39387E-3
-3.60430E-3	-164.941E-12	686.410E-3	-51.6038E-3	-162.472E-12	653.432E-3	-30.2885E-3
-3.60930E-3	-165.908E-12	682.681E-3	-31.3538E-3	-162.847E-12	649.009E-3	-27.1871E-3
-3.61431E-3	-165.919E-12	689.378E-3	-23.2115E-3	-164.394E-12	663.964E-3	-11.8809E-3
-3.61931E-3	-165.750E-12	699.668E-3	-45.0471E-3	-165.513E-12	679.657E-3	-17.3417E-3
-3.62431E-3	-166.347E-12	689.650E-3	-55.9701E-3	-166.691E-12	691.171E-3	-21.1655E-3
-3.62931E-3	-167.074E-12	679.246E-3	-38.1020E-3	-167.467E-12	722.415E-3	-11.7335E-3
-3.63432E-3	-167.002E-12	687.259E-3	-16.2580E-3	-168.754E-12	732.016E-3	-20.2648E-3
-3.63932E-3	-166.850E-12	698.367E-3	-5.98579E-3	-169.248E-12	697.778E-3	-45.7626E-3
-3.64432E-3	-166.952E-12	699.167E-3	-7.62258E-3	-169.512E-12	683.119E-3	-57.4570E-3
-3.64932E-3	-166.573E-12	684.905E-3	-16.2461E-3	-169.236E-12	685.010E-3	-43.2449E-3
-3.65433E-3	-166.691E-12	681.263E-3	-5.31507E-3	-168.842E-12	671.212E-3	-27.1152E-3
-3.65933E-3	-166.232E-12	690.639E-3	21.3130E-3	-169.153E-12	670.884E-3	-36.1217E-3
-3.66433E-3	-166.053E-12	689.022E-3	19.2795E-3	-167.551E-12	691.333E-3	-42.2135E-3
-3.66933E-3	-166.698E-12	682.190E-3	2.63769E-3	-166.580E-12	691.472E-3	-26.4313E-3
-3.67434E-3	-166.804E-12	684.791E-3	5.31024E-3	-166.248E-12	670.931E-3	-6.03401E-3
-3.67934E-3	-166.619E-12	684.422E-3	18.9864E-3	-166.027E-12	650.432E-3	-17.3337E-3
-3.68434E-3	-166.612E-12	666.282E-3	32.8168E-3	-164.920E-12	633.113E-3	-43.2747E-3
-3.68934E-3	-166.854E-12	662.841E-3	32.3604E-3	-164.810E-12	648.962E-3	-29.8685E-3
-3.69435E-3	-167.199E-12	675.113E-3	15.3428E-3	-165.685E-12	673.402E-3	-20.1749E-3
-3.69935E-3	-167.677E-12	676.829E-3	7.04203E-3	-166.127E-12	678.171E-3	-33.4510E-3
-3.70435E-3	-168.153E-12	669.778E-3	7.08323E-3	-167.223E-12	682.130E-3	-33.2012E-3
-3.70935E-3	-168.069E-12	669.256E-3	17.0018E-3	-167.965E-12	683.915E-3	-20.4624E-3
-3.71436E-3	-169.074E-12	679.700E-3	34.0059E-3	-169.746E-12	704.641E-3	-6.40662E-3
-3.71936E-3	-169.201E-12	689.127E-3	30.6057E-3	-171.126E-12	718.863E-3	-11.6370E-3
-3.72436E-3	-170.177E-12	686.450E-3	-1.54538E-3	-172.094E-12	695.995E-3	-21.0318E-3
-3.72936E-3	-169.850E-12	674.578E-3	-20.4756E-3	-173.542E-12	674.304E-3	-15.3017E-3
-3.73437E-3	-169.815E-12	679.873E-3	-12.8163E-3	-173.771E-12	680.247E-3	-654.558E-6
-3.73937E-3	-169.778E-12	692.254E-3	-20.1972E-3	-174.289E-12	701.277E-3	11.9601E-3
-3.74437E-3	-169.637E-12	670.708E-3	-34.2012E-3	-174.337E-12	707.593E-3	11.9824E-3
-3.74937E-3	-169.193E-12	649.699E-3	-29.6109E-3	-174.590E-12	680.111E-3	8.26289E-3
-3.75438E-3	-169.004E-12	659.960E-3	-27.4520E-3	-173.636E-12	655.671E-3	3.47760E-3
-3.75938E-3	-169.079E-12	658.229E-3	-40.6610E-3	-172.792E-12	668.850E-3	-72.3447E-6
-3.76438E-3	-168.783E-12	648.671E-3	-51.4203E-3	-171.403E-12	682.162E-3	-1.86334E-3
-3.76938E-3	-168.950E-12	651.620E-3	-41.5212E-3	-171.353E-12	663.279E-3	-23.4008E-3
-3.77439E-3	-169.809E-12	657.774E-3	-27.0245E-3	-170.857E-12	644.012E-3	-48.3492E-3
-3.77939E-3	-170.167E-12	654.668E-3	-12.8026E-3	-169.311E-12	655.860E-3	-38.3823E-3
-3.78439E-3	-170.898E-12	646.230E-3	16.3401E-3	-169.006E-12	667.350E-3	-12.2776E-3
-3.78939E-3	-171.359E-12	653.241E-3	10.2256E-3	-169.426E-12	661.482E-3	11.2726E-3
-3.79440E-3	-172.781E-12	674.093E-3	-23.3519E-3	-170.217E-12	659.052E-3	15.5242E-3
-3.79940E-3	-173.238E-12	670.144E-3	-22.8069E-3	-170.364E-12	669.144E-3	-3.89736E-3
-3.80440E-3	-174.881E-12	653.571E-3	9.20644E-3	-171.503E-12	685.582E-3	-13.7822E-3
-3.80940E-3	-175.353E-12	654.091E-3	33.9100E-3	-172.584E-12	686.138E-3	-15.0573E-3
-3.81441E-3	-176.666E-12	656.393E-3	37.1001E-3	-173.869E-12	676.778E-3	-22.4158E-3
-3.81941E-3	-178.007E-12	668.488E-3	27.5064E-3	-175.106E-12	685.212E-3	-26.6840E-3
-3.82441E-3	-178.804E-12	690.073E-3	-8.67176E-3	-176.262E-12	693.265E-3	-33.6839E-3
-3.82941E-3	-178.183E-12	699.351E-3	-41.0519E-3	-176.882E-12	700.485E-3	-36.6210E-3
-3.83442E-3	-178.064E-12	699.072E-3	-37.2993E-3	-178.102E-12	711.636E-3	-36.5387E-3
-3.83942E-3	-178.784E-12	702.752E-3	-32.8906E-3	-179.060E-12	707.020E-3	-41.5177E-3
-3.84442E-3	-178.005E-12	699.085E-3	-54.0452E-3	-178.876E-12	691.129E-3	-20.7005E-3
-3.84942E-3	-177.636E-12	692.628E-3	-75.1490E-3	-178.416E-12	673.371E-3	16.7215E-3
-3.85443E-3	-176.394E-12	691.582E-3	-52.8650E-3	-178.449E-12	666.907E-3	15.5137E-3
-3.85943E-3	-175.816E-12	681.590E-3	-9.42186E-3	-178.815E-12	672.900E-3	-11.3024E-3
-3.86443E-3	-175.970E-12	666.838E-3	-4.45708E-3	-178.129E-12	678.990E-3	-9.06217E-3
-3.86943E-3	-175.401E-12	654.182E-3	-7.55173E-3	-177.484E-12	679.160E-3	6.78507E-3
-3.87444E-3	-174.346E-12	643.862E-3	3.77326E-3	-176.894E-12	663.666E-3	8.66105E-3
-3.87944E-3	-173.957E-12	654.041E-3	-17.7210E-3	-176.422E-12	650.103E-3	8.44389E-3
-3.88444E-3	-174.553E-12	684.750E-3	-36.6015E-3	-176.891E-12	674.822E-3	-755.075E-6
-3.88944E-3	-175.013E-12	687.328E-3	-17.1001E-3	-176.432E-12	692.282E-3	-24.8372E-3
-3.89445E-3	-175.199E-12	659.617E-3	3.68147E-3	-176.347E-12	677.371E-3	-28.9517E-3
-3.89945E-3	-175.458E-12	650.950E-3	45.9943E-6	-175.952E-12	674.640E-3	-30.8524E-3
-3.90445E-3	-176.229E-12	651.288E-3	-16.3407E-3	-176.820E-12	672.918E-3	-46.3825E-3
-3.90945E-3	-177.666E-12	653.734E-3	-11.6759E-3	-176.375E-12	656.490E-3	-41.1175E-3
-3.91446E-3	-178.355E-12	663.841E-3	-796.169E-6	-177.210E-12	644.193E-3	-39.1561E-3
-3.91946E-3	-179.373E-12	660.212E-3	-15.3952E-3	-177.016E-12	651.993E-3	-53.8060E-3
-3.92446E-3	-179.542E-12	646.556E-3	-27.1797E-3	-177.380E-12	659.183E-3	-55.4553E-3
-3.92946E-3	-180.624E-12	643.183E-3	-6.88646E-3	-177.867E-12	645.008E-3	-37.4088E-3
-3.93447E-3	-181.220E-12	663.812E-3	6.35277E-3	-178.209E-12	650.125E-3	-16.3602E-3
-3.93947E-3	-180.890E-12	686.037E-3	5.35697E-3	-178.357E-12	664.853E-3	-20.1178E-3
-3.94447E-3	-180.569E-12	683.433E-3	4.95197E-3	-179.297E-12	656.017E-3	-29.3781E-3
-3.94947E-3	-180.529E-12	678.537E-3	-9.75308E-3	-179.325E-12	667.773E-3	-5.26688E-3
-3.95448E-3	-179.834E-12	690.078E-3	-19.5235E-3	-180.101E-12	691.821E-3	20.9070E-3
-3.95948E-3	-179.988E-12	693.380E-3	-9.16885E-3	-180.517E-12	688.543E-3	21.4622E-3
-3.96448E-3	-179.422E-12	689.734E-3	10.8554E-3	-180.880E-12	690.614E-3	15.5111E-3
-3.96948E-3	-179.318E-12	707.636E-3	11.7130E-3	-180.998E-12	704.584E-3	6.41206E-3
-3.97449E-3	-179.287E-12	716.344E-3	-21.6778E-3	-181.857E-12	691.016E-3	-2.13597E-3
-3.97949E-3	-180.318E-12	707.711E-3	-35.8585E-3	-181.603E-12	654.813E-3	-10.8855E-3
-3.98449E-3	-180.784E-12	710.723E-3	-17.2532E-3	-180.892E-12	633.328E-3	-17.9182E-3
-3.98949E-3	-180.572E-12	710.460E-3	-6.76194E-3	-181.321E-12	621.876E-3	-31.1425E-3
-3.99450E-3	-180.199E-12	700.203E-3	-5.88977E-3	-180.624E-12	631.771E-3	-38.4301E-3
-3.99950E-3	-181.576E-12	668.943E-3	-7.91735E-3	-179.959E-12	642.979E-3	-14.6057E-3
-4.00450E-3	-182.460E-12	629.600E-3	-19.6936E-3	-179.703E-12	635.560E-3	-1.42120E-3
-4.00950E-3	-182.400E-12	622.333E-3	-35.9697E-3	-179.997E-12	648.095E-3	-21.8523E-3
-4.01451E-3	-183.000E-12	641.169E-3	-31.4939E-3	-179.009E-12	646.481E-3	-44.4903E-3
-4.01951E-3	-183.526E-12	654.980E-3	-19.5614E-3	-179.795E-12	630.319E-3	-24.9007E-3
-4.02451E-3	-183.582E-12	658.947E-3	-27.0962E-3	-180.193E-12	640.519E-3	21.7294E-3
-4.02951E-3	-184.130E-12	664.556E-3	-29.4137E-3	-180.698E-12	661.149E-3	34.4866E-3
-4.03452E-3	-184.214E-12	665.768E-3	-18.8631E-3	-181.635E-12	679.581E-3	24.5210E-3
-4.03952E-3	-184.534E-12	648.442E-3	-12.7023E-3	-183.191E-12	689.210E-3	8.53513E-3
-4.04452E-3	-184.498E-12	628.408E-3	-25.5782E-3	-185.041E-12	676.617E-3	-14.7445E-3
-4.04952E-3	-185.206E-12	627.487E-3	-28.9134E-3	-186.427E-12	679.498E-3	-21.8603E-3
-4.05453E-3	-184.869E-12	648.461E-3	-67.9859E-6	-187.933E-12	709.066E-3	-18.2777E-3
-4.05953E-3	-184.660E-12	650.790E-3	11.6557E-3	-189.388E-12	704.774E-3	-21.8650E-3
-4.06453E-3	-183.521E-12	638.890E-3	12.3796E-3	-190.680E-12	683.285E-3	-27.6155E-3
-4.06953E-3	-184.215E-12	660.351E-3	16.4341E-3	-191.676E-12	698.116E-3	-35.5564E-3
-4.07454E-3	-184.328E-12	684.893E-3	18.9678E-3	-192.290E-12	711.446E-3	-42.5896E-3
-4.07954E-3	-183.984E-12	699.423E-3	32.5751E-3	-191.352E-12	690.912E-3	-22.1403E-3
-4.08454E-3	-183.500E-12	696.370E-3	35.4239E-3	-190.906E-12	676.908E-3	-4.36497E-3
-4.08954E-3	-183.899E-12	675.316E-3	22.4567E-3	-190.034E-12	672.573E-3	-11.8100E-3
-4.09455E-3	-184.339E-12	675.562E-3	6.17544E-3	-189.460E-12	666.302E-3	-4.87891E-3
-4.09955E-3	-183.852E-12	676.492E-3	830.383E-6	-188.192E-12	668.140E-3	8.32046E-3
-4.10455E-3	-184.424E-12	669.448E-3	-8.85428E-3	-186.898E-12	650.749E-3	8.82553E-3
-4.10955E-3	-183.772E-12	670.713E-3	-24.6508E-3	-185.964E-12	637.372E-3	-3.97049E-3
-4.11456E-3	-184.937E-12	671.769E-3	-9.13186E-3	-185.399E-12	667.852E-3	-18.6669E-3
-4.11956E-3	-185.801E-12	664.302E-3	4.22876E-3	-185.862E-12	696.264E-3	-19.1629E-3
-4.12456E-3	-186.024E-12	654.732E-3	-16.1130E-3	-184.777E-12	695.242E-3	-23.3971E-3
-4.12956E-3	-186.629E-12	664.999E-3	-29.8946E-3	-185.189E-12	688.307E-3	-43.9421E-3
-4.13457E-3	-187.865E-12	672.524E-3	-25.3052E-3	-186.223E-12	687.095E-3	-61.9649E-3
-4.13957E-3	-188.679E-12	665.267E-3	-15.2114E-3	-187.641E-12	682.093E-3	-44.5097E-3
-4.14457E-3	-188.833E-12	670.832E-3	-6.81361E-3	-188.016E-12	681.125E-3	4.83282E-3
-4.14957E-3	-190.244E-12	684.000E-3	-4.45897E-3	-189.631E-12	689.520E-3	12.4594E-3
-4.15458E-3	-190.551E-12	693.464E-3	-21.1939E-3	-191.175E-12	689.108E-3	-23.2850E-3
-4.15958E-3	-190.777E-12	689.345E-3	-46.8655E-3	-192.602E-12	683.044E-3	-29.8554E-3
-4.16458E-3	-191.281E-12	675.785E-3	-51.2285E-3	-192.429E-12	690.029E-3	-18.6659E-3
-4.16958E-3	-191.041E-12	673.593E-3	-41.1740E-3	-192.601E-12	691.246E-3	-20.1800E-3
-4.17459E-3	-190.739E-12	664.144E-3	-20.2477E-3	-191.527E-12	687.772E-3	-21.2706E-3
-4.17959E-3	-190.848E-12	638.327E-3	-5.36803E-3	-190.952E-12	697.055E-3	-22.7124E-3
-4.18459E-3	-190.367E-12	637.130E-3	-10.3124E-3	-190.985E-12	688.530E-3	-41.3372E-3
-4.18959E-3	-189.495E-12	687.045E-3	-14.0243E-3	-189.522E-12	665.144E-3	-41.7504E-3
-4.19460E-3	-190.211E-12	722.085E-3	-1.01899E-3	-187.873E-12	650.319E-3	-18.1941E-3
-4.19960E-3	-189.341E-12	696.615E-3	14.2957E-3	-186.903E-12	648.266E-3	-12.9722E-3
-4.20460E-3	-189.274E-12	682.670E-3	1.80518E-3	-186.165E-12	666.040E-3	-20.0639E-3
-4.20960E-3	-188.960E-12	694.281E-3	-22.4278E-3	-185.636E-12	683.432E-3	-41.8693E-3
-4.21461E-3	-190.191E-12	674.707E-3	-25.0865E-3	-185.153E-12	677.462E-3	-52.2008E-3
-4.21961E-3	-190.410E-12	647.110E-3	-22.8525E-3	-186.566E-12	666.728E-3	-13.9511E-3
-4.22461E-3	-191.338E-12	648.864E-3	-14.0784E-3	-186.886E-12	657.463E-3	26.0559E-3
-4.22961E-3	-192.885E-12	661.546E-3	-7.77408E-3	-187.828E-12	652.015E-3	5.99557E-3
-4.23462E-3	-194.985E-12	676.815E-3	-21.7531E-3	-188.818E-12	663.429E-3	-34.6943E-3
-4.23962E-3	-196.065E-12	686.817E-3	-11.6531E-3	-190.263E-12	658.099E-3	-34.6077E-3
-4.24462E-3	-197.722E-12	687.792E-3	9.12755E-3	-191.333E-12	642.519E-3	-28.4288E-3
-4.24962E-3	-198.286E-12	716.956E-3	-1.65547E-3	-192.382E-12	653.606E-3	-24.8435E-3
-4.25463E-3	-199.004E-12	740.061E-3	-19.9412E-3	-193.511E-12	666.228E-3	-17.0427E-3
-4.25963E-3	-199.726E-12	712.802E-3	-23.3409E-3	-194.636E-12	665.854E-3	-34.9299E-3
-4.26463E-3	-199.144E-12	689.219E-3	-7.43729E-3	-195.098E-12	678.316E-3	-55.5460E-3
-4.26963E-3	-198.253E-12	694.961E-3	14.5418E-3	-195.739E-12	696.398E-3	-48.3562E-3
-4.27464E-3	-198.331E-12	694.871E-3	4.93827E-3	-195.887E-12	683.325E-3	-28.7321E-3
-4.27964E-3	-196.755E-12	679.664E-3	-31.7308E-3	-195.625E-12	659.496E-3	-44.4943E-3
-4.28464E-3	-195.103E-12	684.989E-3	-45.4433E-3	-196.110E-12	653.764E-3	-75.8654E-3
-4.28964E-3	-194.400E-12	690.089E-3	-41.2053E-3	-196.105E-12	658.011E-3	-55.5476E-3
-4.29465E-3	-192.689E-12	675.539E-3	-38.1347E-3	-195.986E-12	674.798E-3	-12.2161E-3
-4.29965E-3	-192.832E-12	671.648E-3	-33.3439E-3	-195.961E-12	657.525E-3	2.77173E-3
-4.30465E-3	-193.036E-12	653.679E-3	-21.4196E-3	-195.529E-12	600.164E-3	-5.46338E-3
-4.30965E-3	-192.328E-12	639.533E-3	2.78323E-3	-195.812E-12	573.425E-3	-26.2479E-3
-4.31466E-3	-191.959E-12	655.639E-3	12.7576E-3	-196.727E-12	612.050E-3	-31.1707E-3
-4.31966E-3	-192.319E-12	659.245E-3	-3.50442E-3	-196.201E-12	678.664E-3	-10.1022E-3
-4.32466E-3	-193.486E-12	646.184E-3	-31.4473E-3	-195.860E-12	711.840E-3	-2.24464E-3
-4.32966E-3	-193.174E-12	634.791E-3	-54.8046E-3	-197.522E-12	713.540E-3	-6.14880E-3
-4.33467E-3	-193.639E-12	622.174E-3	-38.2273E-3	-198.125E-12	697.285E-3	-11.7146E-3
-4.33967E-3	-194.533E-12	618.224E-3	384.975E-6	-198.070E-12	674.001E-3	-20.3596E-3
-4.34467E-3	-196.511E-12	638.677E-3	11.5813E-3	-197.872E-12	665.608E-3	-20.0919E-3
-4.34967E-3	-196.643E-12	675.743E-3	8.77876E-3	-198.974E-12	665.873E-3	-10.6675E-3
-4.35468E-3	-197.309E-12	680.880E-3	13.2702E-3	-199.785E-12	679.776E-3	-1.77267E-3
-4.35968E-3	-198.066E-12	638.800E-3	16.8733E-3	-199.526E-12	702.977E-3	-6.58112E-3
-4.36468E-3	-199.012E-12	624.175E-3	3.36530E-3	-199.942E-12	710.058E-3	-18.9186E-3
-4.36968E-3	-199.342E-12	661.680E-3	-13.0289E-3	-200.935E-12	716.816E-3	-24.1238E-3
-4.37469E-3	-198.815E-12	679.181E-3	-9.83503E-3	-201.562E-12	714.779E-3	-16.4640E-3
-4.37969E-3	-199.579E-12	669.963E-3	11.5012E-3	-201.387E-12	689.179E-3	-19.5619E-3
-4.38469E-3	-200.285E-12	664.057E-3	16.9895E-3	-202.238E-12	675.598E-3	-25.9740E-3
-4.38969E-3	-200.034E-12	655.992E-3	-6.45203E-3	-201.875E-12	686.783E-3	-23.9069E-3
-4.39470E-3	-199.234E-12	674.612E-3	-6.25866E-3	-201.482E-12	704.194E-3	-28.0242E-3
-4.39970E-3	-199.223E-12	701.277E-3	12.0109E-3	-202.043E-12	696.843E-3	-14.2733E-3
-4.40470E-3	-199.380E-12	686.212E-3	9.77155E-3	-201.960E-12	675.830E-3	-1.66253E-3
-4.40970E-3	-199.464E-12	678.433E-3	-8.66670E-3	-201.532E-12	674.465E-3	-25.8880E-3
-4.41471E-3	-199.504E-12	690.342E-3	-26.6211E-3	-201.203E-12	694.509E-3	-37.1042E-3
-4.41971E-3	-200.120E-12	677.455E-3	-21.0733E-3	-201.876E-12	718.435E-3	-21.2789E-3
-4.42471E-3	-200.888E-12	655.337E-3	117.824E-6	-202.188E-12	715.732E-3	-29.2274E-3
-4.42971E-3	-200.947E-12	644.831E-3	4.28736E-3	-201.788E-12	689.260E-3	-16.2379E-3
-4.43472E-3	-200.817E-12	649.260E-3	-18.4737E-3	-201.541E-12	658.033E-3	18.6439E-3
-4.43972E-3	-201.245E-12	663.675E-3	-28.3032E-3	-201.673E-12	637.748E-3	12.6488E-3
-4.44472E-3	-202.415E-12	684.033E-3	-10.4039E-3	-201.498E-12	641.268E-3	-1.15676E-3
-4.44972E-3	-203.634E-12	706.364E-3	-14.4070E-3	-201.145E-12	661.019E-3	-11.9024E-3
-4.45473E-3	-204.688E-12	708.693E-3	-28.4634E-3	-202.047E-12	650.755E-3	-22.8132E-3
-4.45973E-3	-205.259E-12	708.257E-3	-17.7935E-3	-202.718E-12	614.789E-3	-11.9376E-3
-4.46473E-3	-205.384E-12	714.052E-3	-9.06207E-3	-203.839E-12	628.398E-3	-10.4096E-3
-4.46973E-3	-206.154E-12	696.415E-3	-5.22419E-3	-204.762E-12	674.511E-3	-36.3322E-3
-4.47474E-3	-206.001E-12	679.445E-3	390.398E-6	-205.404E-12	707.152E-3	-42.7811E-3
-4.47974E-3	-205.637E-12	698.628E-3	1.76346E-3	-206.017E-12	726.871E-3	-15.2946E-3
-4.48474E-3	-204.260E-12	712.240E-3	-4.67482E-3	-207.489E-12	702.588E-3	-6.10530E-3
-4.48974E-3	-204.686E-12	691.127E-3	-13.3970E-3	-207.122E-12	662.061E-3	-25.0058E-3
-4.49475E-3	-204.739E-12	670.634E-3	-6.71621E-3	-206.806E-12	658.472E-3	-45.0179E-3
-4.49975E-3	-204.087E-12	665.122E-3	6.25188E-3	-206.427E-12	650.593E-3	-63.6266E-3
-4.50475E-3	-203.511E-12	669.079E-3	6.01204E-3	-206.813E-12	628.007E-3	-58.8615E-3
-4.50975E-3	-203.778E-12	675.712E-3	-831.656E-6	-205.996E-12	617.751E-3	-37.9088E-3
-4.51476E-3	-203.963E-12	688.654E-3	3.44489E-3	-205.271E-12	659.015E-3	-39.4102E-3
-4.51976E-3	-203.414E-12	709.324E-3	13.5835E-3	-204.810E-12	697.354E-3	-34.2457E-3
-4.52476E-3	-203.792E-12	706.150E-3	18.5570E-3	-204.634E-12	683.453E-3	-13.8035E-3
-4.52976E-3	-203.492E-12	679.716E-3	19.1067E-3	-204.008E-12	676.046E-3	-12.3136E-3
-4.53477E-3	-204.143E-12	657.224E-3	4.19991E-3	-202.900E-12	671.597E-3	3.40059E-3
-4.53977E-3	-204.168E-12	633.026E-3	-18.3789E-3	-203.103E-12	664.711E-3	25.6148E-3
-4.54477E-3	-205.354E-12	628.975E-3	-24.8231E-3	-204.162E-12	662.871E-3	3.90117E-3
-4.54977E-3	-205.362E-12	651.785E-3	-23.3820E-3	-205.413E-12	664.952E-3	-17.0142E-3
-4.55478E-3	-206.302E-12	654.491E-3	-14.1088E-3	-205.793E-12	662.724E-3	-17.8648E-3
-4.55978E-3	-206.882E-12	632.770E-3	-3.50152E-3	-206.107E-12	641.269E-3	-48.6263E-3
-4.56478E-3	-207.093E-12	624.534E-3	-1.02148E-3	-207.793E-12	642.096E-3	-66.4674E-3
-4.56978E-3	-206.819E-12	622.922E-3	67.7140E-6	-209.115E-12	678.175E-3	-56.4028E-3
-4.57479E-3	-206.784E-12	622.400E-3	-13.7447E-3	-209.224E-12	694.608E-3	-74.6581E-3
-4.57979E-3	-208.025E-12	633.793E-3	-33.0840E-3	-209.480E-12	689.168E-3	-82.8792E-3
-4.58479E-3	-207.896E-12	646.196E-3	-47.2181E-3	-209.810E-12	709.862E-3	-64.2129E-3
-4.58979E-3	-207.872E-12	661.939E-3	-42.4744E-3	-210.424E-12	720.508E-3	-42.5394E-3
-4.59480E-3	-207.666E-12	681.368E-3	-16.1147E-3	-210.340E-12	695.935E-3	-23.4233E-3
-4.59980E-3	-207.852E-12	677.662E-3	5.90588E-3	-210.013E-12	683.687E-3	3.18307E-3
-4.60480E-3	-208.390E-12	649.049E-3	13.3187E-3	-208.928E-12	689.888E-3	15.3859E-3
-4.60980E-3	-208.191E-12	645.564E-3	18.8121E-3	-208.444E-12	669.231E-3	-2.43262E-3
-4.61481E-3	-208.232E-12	670.265E-3	24.3439E-3	-207.665E-12	641.618E-3	11.0322E-3
-4.61981E-3	-208.750E-12	676.485E-3	8.49731E-3	-207.156E-12	671.884E-3	32.9066E-3
-4.62481E-3	-209.228E-12	681.927E-3	-14.8105E-3	-206.895E-12	693.258E-3	14.7926E-3
-4.62981E-3	-208.703E-12	695.118E-3	-18.9473E-3	-206.210E-12	671.881E-3	-20.4819E-3
-4.63482E-3	-209.576E-12	684.201E-3	-1.01542E-3	-206.600E-12	654.724E-3	-45.2589E-3
-4.63982E-3	-209.544E-12	671.421E-3	12.9927E-3	-207.137E-12	652.497E-3	-32.4451E-3
-4.64482E-3	-210.351E-12	682.031E-3	5.64311E-3	-207.459E-12	657.599E-3	-27.3289E-3
-4.64982E-3	-211.468E-12	703.775E-3	-19.4323E-3	-207.998E-12	668.004E-3	-50.7174E-3
-4.65483E-3	-212.910E-12	715.378E-3	-46.7608E-3	-209.746E-12	670.815E-3	-54.8752E-3
-4.65983E-3	-213.130E-12	704.118E-3	-57.4617E-3	-210.844E-12	654.403E-3	-52.2222E-3
-4.66483E-3	-214.045E-12	695.311E-3	-47.3640E-3	-211.715E-12	652.299E-3	-47.6773E-3
-4.66983E-3	-214.725E-12	681.079E-3	-31.6029E-3	-213.143E-12	662.937E-3	-33.0610E-3
-4.67484E-3	-216.171E-12	662.953E-3	-19.8327E-3	-215.326E-12	671.810E-3	-25.5605E-3
-4.67984E-3	-215.395E-12	669.033E-3	-7.64390E-3	-216.503E-12	686.039E-3	-15.9553E-3
-4.68484E-3	-215.023E-12	670.918E-3	-2.39260E-3	-217.244E-12	708.160E-3	-8.68122E-3
-4.68984E-3	-215.657E-12	673.425E-3	5.83389E-3	-217.496E-12	726.782E-3	-594.309E-6
-4.69485E-3	-215.503E-12	698.628E-3	10.7614E-3	-218.120E-12	712.963E-3	4.35749E-3
-4.69985E-3	-214.297E-12	702.719E-3	-29.9687E-3	-218.963E-12	689.529E-3	-17.3035E-3
-4.70485E-3	-213.046E-12	683.808E-3	-66.7043E-3	-217.263E-12	676.924E-3	-14.2604E-3
-4.70985E-3	-213.722E-12	679.557E-3	-43.2200E-3	-216.157E-12	670.465E-3	21.3359E-3
-4.71486E-3	-213.889E-12	667.649E-3	-27.0011E-3	-216.475E-12	672.540E-3	30.9888E-3
-4.71986E-3	-213.525E-12	667.793E-3	-41.7416E-3	-215.835E-12	681.205E-3	29.7222E-3
-4.72486E-3	-212.989E-12	678.221E-3	-53.8849E-3	-214.730E-12	701.871E-3	40.3471E-3
-4.72986E-3	-212.736E-12	665.007E-3	-54.5339E-3	-213.982E-12	695.106E-3	19.2677E-3
-4.73487E-3	-212.797E-12	659.649E-3	-24.1643E-3	-213.858E-12	675.482E-3	7.63929E-3
-4.73987E-3	-213.305E-12	666.055E-3	11.8195E-3	-213.393E-12	685.419E-3	4.95234E-3
-4.74487E-3	-213.702E-12	653.419E-3	17.5749E-3	-213.562E-12	696.879E-3	-36.7740E-3
-4.74988E-3	-213.775E-12	652.694E-3	1.60557E-3	-214.060E-12	690.790E-3	-59.9110E-3
-4.75488E-3	-214.458E-12	688.003E-3	-12.9892E-3	-214.361E-12	681.638E-3	-47.8689E-3
-4.75988E-3	-216.730E-12	694.362E-3	-8.45066E-3	-215.751E-12	683.528E-3	-21.0621E-3
-4.76488E-3	-218.026E-12	661.947E-3	-10.4910E-3	-216.713E-12	686.235E-3	2.22214E-3
-4.76988E-3	-219.033E-12	655.334E-3	-22.3294E-3	-218.380E-12	695.271E-3	-2.84436E-3
-4.77489E-3	-219.156E-12	669.698E-3	-27.8799E-3	-218.597E-12	715.270E-3	-15.9687E-3
-4.77989E-3	-219.485E-12	670.662E-3	-33.5763E-3	-219.537E-12	708.994E-3	-8.15828E-3
-4.78489E-3	-220.189E-12	675.502E-3	-30.5319E-3	-220.256E-12	694.231E-3	-11.2719E-3
-4.78989E-3	-219.884E-12	680.239E-3	-15.2863E-3	-220.511E-12	684.338E-3	-16.8862E-3
-4.79490E-3	-218.990E-12	673.333E-3	-7.70926E-3	-220.042E-12	661.197E-3	4.99714E-3
-4.79990E-3	-218.498E-12	673.703E-3	-6.23968E-3	-219.727E-12	658.291E-3	23.3005E-3
-4.80490E-3	-217.662E-12	674.371E-3	8.49307E-3	-219.636E-12	660.368E-3	2.77493E-3
-4.80990E-3	-216.553E-12	671.958E-3	21.8336E-3	-219.318E-12	656.690E-3	-43.0479E-3
-4.81491E-3	-216.740E-12	670.716E-3	21.0308E-3	-218.676E-12	669.756E-3	-44.0333E-3
-4.81991E-3	-215.567E-12	667.570E-3	2.18493E-3	-218.057E-12	673.074E-3	-8.90584E-3
-4.82491E-3	-215.072E-12	647.105E-3	-29.9593E-3	-218.160E-12	646.581E-3	-8.47988E-3
-4.82991E-3	-215.485E-12	631.105E-3	-31.1860E-3	-217.737E-12	624.118E-3	-22.8104E-3
-4.83492E-3	-215.705E-12	654.336E-3	-19.5712E-3	-216.671E-12	626.302E-3	-11.9034E-3
-4.83992E-3	-216.042E-12	666.512E-3	-28.8955E-3	-216.164E-12	638.555E-3	-8.68792E-3
-4.84492E-3	-216.995E-12	660.679E-3	-21.0843E-3	-216.076E-12	658.246E-3	-29.8610E-3
-4.84992E-3	-218.546E-12	670.561E-3	-9.19872E-3	-215.829E-12	677.182E-3	-32.0452E-3
-4.85493E-3	-220.089E-12	685.506E-3	-10.6012E-3	-216.508E-12	671.491E-3	4.77309E-3
-4.85993E-3	-222.566E-12	698.818E-3	-213.240E-6	-217.565E-12	657.142E-3	36.4328E-3
-4.86493E-3	-223.301E-12	688.226E-3	-2.62989E-3	-218.035E-12	664.950E-3	14.4177E-3
-4.86993E-3	-224.325E-12	656.223E-3	-31.9596E-3	-220.323E-12	690.747E-3	-27.2623E-3
-4.87494E-3	-225.487E-12	652.881E-3	-58.4207E-3	-221.743E-12	717.064E-3	-28.4806E-3
-4.87994E-3	-225.755E-12	667.266E-3	-50.1551E-3	-223.370E-12	715.839E-3	-17.1338E-3
-4.88494E-3	-225.776E-12	673.980E-3	-12.8842E-3	-223.631E-12	688.572E-3	-41.6733E-3
-4.88995E-3	-224.845E-12	676.401E-3	48.3051E-6	-224.460E-12	668.421E-3	-55.7011E-3
-4.89495E-3	-223.640E-12	671.788E-3	-6.59692E-3	-225.443E-12	689.684E-3	-50.6952E-3
-4.89995E-3	-223.219E-12	662.905E-3	-1.20796E-3	-226.436E-12	712.893E-3	-61.5385E-3
-4.90495E-3	-222.968E-12	642.685E-3	14.1024E-3	-226.385E-12	695.929E-3	-47.0633E-3
-4.90995E-3	-221.857E-12	637.575E-3	1.91700E-3	-225.949E-12	669.795E-3	-24.5568E-3
-4.91496E-3	-220.413E-12	654.785E-3	-30.0959E-3	-227.435E-12	637.126E-3	-27.7771E-3
-4.91996E-3	-220.247E-12	650.420E-3	-54.5571E-3	-226.716E-12	620.070E-3	-31.5507E-3
-4.92496E-3	-219.584E-12	633.244E-3	-68.1184E-3	-226.907E-12	639.527E-3	-29.8825E-3
-4.92996E-3	-219.404E-12	629.289E-3	-42.3613E-3	-225.390E-12	644.033E-3	-37.0200E-3
-4.93497E-3	-218.086E-12	650.935E-3	-14.1119E-3	-225.134E-12	633.706E-3	-35.2223E-3
-4.93997E-3	-218.023E-12	673.136E-3	-8.02287E-3	-224.231E-12	658.695E-3	-3.64669E-3
-4.94497E-3	-219.450E-12	683.169E-3	1.13193E-3	-224.137E-12	679.232E-3	20.1154E-3
-4.94997E-3	-220.394E-12	698.765E-3	11.7256E-3	-223.946E-12	671.476E-3	10.0813E-3
-4.95498E-3	-221.442E-12	692.220E-3	26.0556E-3	-223.802E-12	665.264E-3	12.9460E-3
-4.95998E-3	-222.410E-12	648.319E-3	25.9547E-3	-223.019E-12	651.529E-3	23.0649E-3
-4.96498E-3	-224.188E-12	608.143E-3	2.11788E-3	-224.951E-12	619.129E-3	11.1827E-3
-4.96998E-3	-225.637E-12	627.496E-3	-15.6311E-3	-224.404E-12	596.785E-3	-13.7989E-3
-4.97499E-3	-227.533E-12	676.454E-3	-27.0425E-3	-225.198E-12	614.583E-3	-39.4038E-3
-4.97999E-3	-227.948E-12	703.251E-3	-50.0242E-3	-225.517E-12	638.299E-3	-42.5153E-3
-4.98499E-3	-229.411E-12	703.189E-3	-49.7067E-3	-226.566E-12	669.195E-3	-35.3314E-3
-4.98999E-3	-229.689E-12	680.939E-3	-35.5122E-3	-227.041E-12	693.862E-3	-22.1580E-3
-4.99500E-3	-230.116E-12	661.134E-3	-58.2746E-3	-228.166E-12	679.650E-3	1.09884E-3
-5.00000E-3	-229.043E-12	664.802E-3	-58.0815E-3	-228.790E-12	669.426E-3	-13.1375E-3
