Experiment	bias spectroscopy	
Date	19.01.2016 20:10:13	
User		
X (m)	50.4214E-9	
Y (m)	257.014E-9	
Z (m)	-132.547E-9	
Z offset (m)	0E+0	
Settling time (s)	200E-6	
Integration time (s)	5E-3	
Z-Ctrl hold	TRUE	
Final Z (m)	N/A	
Filter type	None	
Order		
Cutoff frq		
Comment01	MnPc/Pb(111)	
Comment02	dz =00pm	
Comment03	7 Sweeps	
Comment04	MagField =0.T	
Comment05	Divider 1:10	
Comment06	Setpoint:5mV,200 pA	
Comment07	Lockin: 50uVrms,5ms,5mV	
Comment08	Gain:9; 912Hz modulation	
Comment09	T=1.06K	
Bias>Bias (V)	5E-3	
Bias>Calibration (V/V)	81.475E-3	
Bias>Offset (V)	1.046E-3	
Bias Spectroscopy>Sweep Start (V)	5E-3	
Bias Spectroscopy>Sweep End (V)	-5E-3	
Bias Spectroscopy>Num Pixel	2000	
Bias Spectroscopy>Z Avg time (s)	500E-3	
Bias Spectroscopy>Z offset (m)	0E+0	
Bias Spectroscopy>1st Settling time (s)	500E-3	
Bias Spectroscopy>Settling time (s)	200E-6	
Bias Spectroscopy>Integration time (s)	5E-3	
Bias Spectroscopy>End Settling time (s)	500E-3	
Bias Spectroscopy>Z control time (s)	500E-3	
Bias Spectroscopy>Max Slew rate (V/s)	Inf	
Bias Spectroscopy>backward sweep	TRUE	
Bias Spectroscopy>Z-controller hold	TRUE	
Bias Spectroscopy>Number of sweeps	7	
Bias Spectroscopy>Channels	Current (A);X% LockIn (V);Y% LockIn (V)	
Bias Spectroscopy>Reset Bias	TRUE	
Bias Spectroscopy>Record final Z	FALSE	
Bias Spectroscopy>Lock-In run	FALSE	
Bias Spectroscopy>Sweep mode	Linear	
Bias Spectroscopy>MultiLine Settings : Segment Start (V), Segment End (V), Settling (s), Integration (s), Steps (xn)	100E-3,3.3E-3,100E-6,10E-3,2500;3.3E-3,-3.3E-3,100E-6,10E-3,10;-3.3E-3,-100E-3,100E-6,10E-3,2500	
Current>Current (A)	200.788E-12	
Current>Calibration (A/V)	999.99900E-12	
Current>Offset (A)	-455.429E-15	
Current>Gain	LN 10^9	
Z-Controller>Z (m)	-132.544E-9	
Z-Controller>Controller name	log Current	
Z-Controller>Controller status	ON	
Z-Controller>Setpoint	200E-12	
Z-Controller>Setpoint unit	A	
Z-Controller>P gain	2.96994E-12	
Z-Controller>I gain	67.0321E-9	
Z-Controller>Time const (s)	44.3062E-6	
Z-Controller>TipLift (m)	0E+0	
Z-Controller>Switch off delay (s)	50E-3	
Current (A)	200.256E-12	
Z (m)	-132.544E-9	

[DATA]
Bias calc (V)	Current (A)	X% LockIn (V)	Y% LockIn (V)	Current [bwd] (A)	X% LockIn [bwd] (V)	Y% LockIn [bwd] (V)
5.00000E-3	187.131E-12	470.160E-3	-25.2614E-3	187.201E-12	492.480E-3	-46.8285E-3
4.99500E-3	185.857E-12	479.774E-3	-40.0789E-3	188.047E-12	523.137E-3	-37.7498E-3
4.98999E-3	185.438E-12	477.360E-3	-29.1492E-3	188.108E-12	530.376E-3	-18.0450E-3
4.98499E-3	184.830E-12	518.225E-3	-39.9147E-3	187.691E-12	504.162E-3	-12.7943E-3
4.97999E-3	185.404E-12	549.627E-3	-42.5584E-3	187.258E-12	494.873E-3	-6.13705E-3
4.97499E-3	186.549E-12	518.393E-3	-11.0311E-3	186.122E-12	511.014E-3	-23.0283E-3
4.96998E-3	186.316E-12	493.578E-3	5.63420E-3	186.859E-12	510.596E-3	-42.9695E-3
4.96498E-3	186.276E-12	527.269E-3	16.2006E-3	186.397E-12	510.790E-3	-14.5157E-3
4.95998E-3	185.800E-12	553.759E-3	11.7550E-3	188.109E-12	548.007E-3	16.6710E-3
4.95498E-3	185.996E-12	538.082E-3	-14.8407E-3	187.588E-12	546.799E-3	16.9407E-3
4.94997E-3	186.903E-12	517.976E-3	-25.0905E-3	186.287E-12	520.803E-3	2.64177E-3
4.94497E-3	187.066E-12	522.367E-3	-23.0821E-3	187.250E-12	522.188E-3	-34.5937E-3
4.93997E-3	187.119E-12	529.458E-3	-27.0952E-3	185.679E-12	498.047E-3	-62.6045E-3
4.93497E-3	187.039E-12	525.277E-3	-14.7074E-3	184.319E-12	472.739E-3	-40.9998E-3
4.92996E-3	188.404E-12	497.003E-3	-12.9091E-3	184.295E-12	492.732E-3	1.54118E-3
4.92496E-3	188.472E-12	475.880E-3	-41.1864E-3	186.144E-12	501.543E-3	22.7347E-3
4.91996E-3	187.423E-12	494.919E-3	-48.6617E-3	187.098E-12	497.276E-3	-557.154E-6
4.91496E-3	186.398E-12	522.641E-3	-32.2494E-3	185.864E-12	503.495E-3	-36.9766E-3
4.90995E-3	187.228E-12	550.899E-3	-28.2919E-3	185.222E-12	501.114E-3	-41.5748E-3
4.90495E-3	188.185E-12	571.116E-3	-17.6383E-3	185.673E-12	513.138E-3	-27.5269E-3
4.89995E-3	187.901E-12	557.399E-3	-11.0341E-3	186.925E-12	534.468E-3	-28.9575E-3
4.89495E-3	185.491E-12	513.636E-3	-13.2266E-3	186.283E-12	544.937E-3	-31.8916E-3
4.88995E-3	186.142E-12	493.326E-3	-14.9050E-3	187.186E-12	542.464E-3	-15.8174E-3
4.88494E-3	187.226E-12	498.216E-3	-15.9135E-3	187.739E-12	539.776E-3	-7.16246E-3
4.87994E-3	186.660E-12	510.341E-3	-13.7203E-3	188.119E-12	550.427E-3	-19.9785E-3
4.87494E-3	184.122E-12	526.693E-3	-32.2169E-3	189.963E-12	553.639E-3	-27.3248E-3
4.86993E-3	184.846E-12	535.884E-3	-33.5151E-3	188.931E-12	544.736E-3	-29.9161E-3
4.86493E-3	186.788E-12	541.286E-3	-10.2758E-3	189.131E-12	548.012E-3	-37.3631E-3
4.85993E-3	186.109E-12	538.911E-3	-3.46041E-3	187.429E-12	537.071E-3	-23.1413E-3
4.85493E-3	184.367E-12	524.671E-3	-9.52061E-3	187.410E-12	522.542E-3	-2.87401E-3
4.84992E-3	184.434E-12	507.595E-3	-24.0958E-3	187.333E-12	536.776E-3	-1.95123E-3
4.84492E-3	184.498E-12	494.625E-3	-23.0321E-3	186.244E-12	543.381E-3	-13.0069E-3
4.83992E-3	185.832E-12	482.431E-3	-2.84971E-3	184.016E-12	555.589E-3	-22.6540E-3
4.83492E-3	185.324E-12	495.104E-3	-25.3963E-3	184.773E-12	566.685E-3	-19.8769E-3
4.82991E-3	185.603E-12	521.519E-3	-67.9349E-3	186.597E-12	528.666E-3	-21.6886E-3
4.82491E-3	185.857E-12	528.890E-3	-84.6786E-3	185.364E-12	491.484E-3	-33.1782E-3
4.81991E-3	183.946E-12	516.750E-3	-70.0649E-3	184.426E-12	498.570E-3	-31.8695E-3
4.81491E-3	184.395E-12	518.432E-3	-26.5126E-3	183.760E-12	506.686E-3	-1.16303E-3
4.80990E-3	182.178E-12	525.298E-3	-449.454E-6	186.492E-12	503.460E-3	28.3527E-3
4.80490E-3	182.414E-12	522.254E-3	-3.76416E-3	184.773E-12	521.546E-3	39.2288E-3
4.79990E-3	179.765E-12	528.879E-3	-12.3955E-3	184.825E-12	545.487E-3	42.6232E-3
4.79490E-3	179.508E-12	515.118E-3	-11.6037E-3	184.727E-12	547.182E-3	10.6969E-3
4.78989E-3	178.568E-12	486.256E-3	-4.11592E-3	185.976E-12	534.039E-3	-39.9251E-3
4.78489E-3	179.388E-12	487.285E-3	-3.52734E-3	186.880E-12	518.643E-3	-53.4655E-3
4.77989E-3	179.361E-12	521.344E-3	-17.2083E-3	186.065E-12	509.833E-3	-46.3921E-3
4.77489E-3	178.017E-12	542.909E-3	-7.32569E-3	185.440E-12	507.738E-3	-29.9859E-3
4.76988E-3	177.562E-12	536.840E-3	15.5918E-3	183.037E-12	503.425E-3	8.34992E-3
4.76488E-3	177.297E-12	511.756E-3	29.4355E-3	183.394E-12	503.188E-3	29.2334E-3
4.75988E-3	179.494E-12	493.931E-3	37.8234E-3	183.439E-12	499.613E-3	2.38090E-3
4.75488E-3	179.996E-12	504.470E-3	17.2580E-3	182.725E-12	508.102E-3	-25.0287E-3
4.74988E-3	179.755E-12	507.620E-3	9.44953E-3	180.825E-12	531.600E-3	-18.6114E-3
4.74487E-3	179.146E-12	484.617E-3	24.2523E-3	179.855E-12	535.345E-3	-31.2289E-3
4.73987E-3	180.854E-12	484.103E-3	24.9114E-3	180.775E-12	519.317E-3	-60.0427E-3
4.73487E-3	183.256E-12	500.391E-3	-933.420E-6	179.717E-12	518.754E-3	-65.2070E-3
4.72986E-3	180.823E-12	509.168E-3	-43.4343E-3	181.441E-12	537.922E-3	-61.3742E-3
4.72486E-3	179.197E-12	528.668E-3	-47.9967E-3	180.412E-12	530.617E-3	-60.0029E-3
4.71986E-3	179.893E-12	534.591E-3	3.68704E-3	178.733E-12	511.237E-3	-52.1981E-3
4.71486E-3	182.480E-12	534.706E-3	42.8365E-3	178.812E-12	502.746E-3	-31.7881E-3
4.70985E-3	179.437E-12	549.585E-3	35.9026E-3	180.499E-12	501.434E-3	-27.2774E-3
4.70485E-3	177.072E-12	544.561E-3	-8.48982E-3	181.062E-12	513.294E-3	-24.0586E-3
4.69985E-3	177.747E-12	506.624E-3	-48.5083E-3	178.809E-12	505.257E-3	-18.9589E-3
4.69485E-3	179.160E-12	491.355E-3	-55.8520E-3	179.198E-12	491.911E-3	-22.3863E-3
4.68984E-3	177.891E-12	480.484E-3	-62.5455E-3	180.513E-12	516.897E-3	-23.1004E-3
4.68484E-3	175.169E-12	439.026E-3	-53.7580E-3	181.390E-12	532.157E-3	-41.9029E-3
4.67984E-3	175.241E-12	426.378E-3	-18.1381E-3	178.499E-12	514.130E-3	-48.6141E-3
4.67484E-3	175.376E-12	472.068E-3	7.39039E-3	176.689E-12	503.935E-3	-27.5855E-3
4.66983E-3	176.035E-12	525.848E-3	-2.40045E-3	178.563E-12	514.060E-3	-14.0019E-3
4.66483E-3	174.970E-12	536.280E-3	-21.5783E-3	179.672E-12	525.248E-3	-23.5103E-3
4.65983E-3	174.907E-12	533.626E-3	-31.8284E-3	178.148E-12	530.821E-3	-31.5816E-3
4.65483E-3	176.063E-12	538.738E-3	-30.8412E-3	176.531E-12	541.244E-3	-18.4492E-3
4.64982E-3	177.132E-12	535.660E-3	-27.0280E-3	176.550E-12	543.718E-3	-36.8018E-3
4.64482E-3	177.357E-12	527.098E-3	-20.3856E-3	178.346E-12	539.579E-3	-55.7516E-3
4.63982E-3	176.235E-12	515.124E-3	-5.24691E-3	179.238E-12	553.349E-3	-34.1220E-3
4.63482E-3	176.628E-12	499.445E-3	-3.53497E-3	177.480E-12	555.622E-3	-26.1560E-3
4.62981E-3	176.552E-12	511.326E-3	-17.8408E-3	175.445E-12	532.528E-3	-39.4734E-3
4.62481E-3	178.287E-12	530.012E-3	-26.7863E-3	176.875E-12	513.298E-3	-48.0438E-3
4.61981E-3	176.220E-12	533.730E-3	-6.00884E-3	178.278E-12	494.993E-3	-42.5412E-3
4.61481E-3	174.415E-12	539.937E-3	18.7339E-3	178.256E-12	489.103E-3	-26.5921E-3
4.60980E-3	175.439E-12	541.420E-3	970.826E-6	175.882E-12	517.931E-3	-24.1627E-3
4.60480E-3	176.483E-12	548.757E-3	-45.0832E-3	176.029E-12	545.296E-3	-23.7468E-3
4.59980E-3	175.142E-12	536.913E-3	-44.4420E-3	178.100E-12	535.158E-3	5.83208E-3
4.59480E-3	172.500E-12	490.638E-3	-13.9865E-3	177.308E-12	526.335E-3	10.9331E-3
4.58979E-3	173.376E-12	461.467E-3	4.31404E-3	175.380E-12	537.412E-3	-21.6333E-3
4.58479E-3	174.389E-12	479.924E-3	12.4521E-3	173.777E-12	538.417E-3	-46.3400E-3
4.57979E-3	174.253E-12	498.236E-3	-5.04961E-3	175.131E-12	528.052E-3	-52.5128E-3
4.57479E-3	172.245E-12	501.053E-3	-28.9050E-3	176.156E-12	500.011E-3	-47.4794E-3
4.56978E-3	172.316E-12	506.157E-3	-35.7959E-3	175.248E-12	484.341E-3	-30.2339E-3
4.56478E-3	174.354E-12	517.195E-3	-27.4634E-3	173.666E-12	506.885E-3	4.84142E-3
4.55978E-3	173.239E-12	528.394E-3	-25.3588E-3	174.130E-12	521.717E-3	10.1675E-3
4.55478E-3	171.982E-12	535.813E-3	-21.6589E-3	175.712E-12	506.903E-3	1.35977E-3
4.54977E-3	173.414E-12	541.411E-3	-25.3225E-3	175.571E-12	494.687E-3	11.2230E-3
4.54477E-3	174.235E-12	523.189E-3	-27.4771E-3	174.532E-12	504.659E-3	-3.46344E-3
4.53977E-3	173.806E-12	482.876E-3	-17.3844E-3	174.520E-12	505.938E-3	-33.9837E-3
4.53477E-3	172.087E-12	467.709E-3	-3.94708E-3	175.285E-12	501.348E-3	-27.7405E-3
4.52976E-3	172.636E-12	508.743E-3	4.06185E-3	176.403E-12	521.782E-3	-24.9271E-3
4.52476E-3	173.618E-12	519.621E-3	-27.8160E-3	174.728E-12	555.506E-3	-45.3667E-3
4.51976E-3	172.155E-12	477.169E-3	-60.5642E-3	174.096E-12	570.894E-3	-31.4668E-3
4.51476E-3	172.597E-12	453.340E-3	-56.5299E-3	174.447E-12	559.868E-3	-6.64648E-3
4.50975E-3	171.909E-12	474.191E-3	-42.6228E-3	174.743E-12	546.211E-3	5.69718E-3
4.50475E-3	171.803E-12	517.612E-3	-44.5610E-3	173.365E-12	537.819E-3	11.3961E-3
4.49975E-3	171.285E-12	527.106E-3	-50.1460E-3	172.589E-12	521.680E-3	10.3431E-3
4.49475E-3	171.280E-12	512.370E-3	-49.9374E-3	171.746E-12	503.768E-3	3.35884E-3
4.48974E-3	171.298E-12	524.807E-3	-33.2405E-3	172.788E-12	497.221E-3	2.23589E-3
4.48474E-3	171.086E-12	552.071E-3	-15.1244E-3	172.147E-12	512.298E-3	-946.298E-6
4.47974E-3	170.163E-12	546.716E-3	-7.59233E-3	170.878E-12	532.457E-3	-21.5524E-3
4.47474E-3	170.425E-12	513.890E-3	7.82987E-3	171.137E-12	538.679E-3	-37.8763E-3
4.46973E-3	171.297E-12	501.705E-3	19.0734E-3	172.766E-12	530.478E-3	-44.1659E-3
4.46473E-3	170.553E-12	544.045E-3	7.44460E-3	172.011E-12	505.330E-3	-40.5309E-3
4.45973E-3	169.472E-12	595.139E-3	-1.57275E-3	170.553E-12	501.018E-3	-28.6376E-3
4.45473E-3	168.855E-12	596.172E-3	6.59245E-3	170.203E-12	507.440E-3	-38.1919E-3
4.44972E-3	168.232E-12	559.630E-3	-16.2268E-3	171.381E-12	491.856E-3	-60.7139E-3
4.44472E-3	169.997E-12	532.909E-3	-49.7173E-3	170.028E-12	476.005E-3	-32.0285E-3
4.43972E-3	168.790E-12	509.614E-3	-56.8439E-3	169.911E-12	474.388E-3	18.8346E-3
4.43472E-3	169.267E-12	482.664E-3	-48.7695E-3	168.434E-12	483.728E-3	15.7027E-3
4.42971E-3	167.689E-12	480.418E-3	-34.8850E-3	168.506E-12	503.413E-3	-18.7506E-3
4.42471E-3	168.527E-12	482.205E-3	-34.2086E-3	167.685E-12	510.052E-3	-38.3557E-3
4.41971E-3	169.647E-12	468.265E-3	-41.1249E-3	166.639E-12	485.747E-3	-42.3833E-3
4.41471E-3	168.251E-12	459.316E-3	-20.0507E-3	166.297E-12	477.146E-3	-35.7519E-3
4.40970E-3	167.258E-12	487.557E-3	11.6615E-3	165.174E-12	491.428E-3	-14.0700E-3
4.40470E-3	168.098E-12	513.719E-3	6.73778E-3	165.727E-12	495.482E-3	-7.78819E-3
4.39970E-3	170.054E-12	501.820E-3	-29.6219E-3	164.381E-12	484.104E-3	25.9560E-6
4.39470E-3	168.739E-12	499.511E-3	-50.0670E-3	165.128E-12	494.901E-3	19.5499E-3
4.38969E-3	169.372E-12	492.745E-3	-21.6784E-3	165.244E-12	529.241E-3	11.6172E-3
4.38469E-3	168.951E-12	474.659E-3	5.50530E-3	166.183E-12	525.041E-3	-5.82421E-3
4.37969E-3	168.932E-12	505.206E-3	1.36414E-3	164.822E-12	507.881E-3	-30.2195E-3
4.37469E-3	168.010E-12	521.809E-3	-5.71994E-3	164.590E-12	507.809E-3	-67.6948E-3
4.36968E-3	167.252E-12	496.184E-3	-10.0057E-3	165.557E-12	514.861E-3	-59.7999E-3
4.36468E-3	168.136E-12	508.865E-3	-14.3551E-3	166.141E-12	525.051E-3	-7.15689E-3
4.35968E-3	167.922E-12	509.607E-3	10.7539E-3	166.293E-12	511.640E-3	8.69009E-3
4.35468E-3	167.140E-12	485.407E-3	27.2523E-3	164.529E-12	484.468E-3	-8.62929E-3
4.34967E-3	167.184E-12	466.244E-3	-13.5276E-3	164.818E-12	495.847E-3	-17.3128E-3
4.34467E-3	168.609E-12	457.114E-3	-63.4725E-3	164.126E-12	540.475E-3	-14.1670E-3
4.33967E-3	168.291E-12	464.805E-3	-75.4941E-3	165.871E-12	547.775E-3	-16.0111E-3
4.33467E-3	167.468E-12	479.857E-3	-50.0170E-3	165.771E-12	493.060E-3	-22.8512E-3
4.32966E-3	167.982E-12	505.399E-3	-16.3790E-3	164.674E-12	472.531E-3	-30.4853E-3
4.32466E-3	168.466E-12	520.638E-3	16.4652E-3	163.238E-12	501.745E-3	-40.5986E-3
4.31966E-3	169.076E-12	518.413E-3	18.8081E-3	163.970E-12	502.515E-3	-32.1152E-3
4.31466E-3	167.112E-12	517.176E-3	-1.72493E-3	165.519E-12	517.590E-3	-28.3749E-3
4.30965E-3	166.245E-12	518.947E-3	-3.58001E-3	164.356E-12	547.735E-3	-43.7523E-3
4.30465E-3	167.076E-12	504.375E-3	-15.9269E-3	164.099E-12	535.549E-3	-12.2065E-3
4.29965E-3	168.462E-12	508.766E-3	-22.9449E-3	163.130E-12	522.131E-3	36.5924E-3
4.29465E-3	168.283E-12	525.696E-3	6.93312E-3	165.544E-12	529.588E-3	39.0918E-3
4.28964E-3	165.825E-12	536.337E-3	4.14172E-3	165.895E-12	520.831E-3	24.7450E-3
4.28464E-3	164.985E-12	553.918E-3	-37.5462E-3	163.869E-12	520.527E-3	3.47972E-3
4.27964E-3	165.881E-12	548.027E-3	-39.8793E-3	164.101E-12	526.077E-3	-38.3837E-3
4.27464E-3	166.353E-12	524.368E-3	3.89341E-3	165.919E-12	511.948E-3	-63.0592E-3
4.26963E-3	164.547E-12	521.118E-3	46.7685E-3	167.639E-12	518.731E-3	-23.5153E-3
4.26463E-3	162.503E-12	535.784E-3	34.0562E-3	165.451E-12	540.980E-3	5.21459E-3
4.25963E-3	161.869E-12	539.845E-3	12.2111E-3	164.698E-12	538.054E-3	-25.3655E-3
4.25463E-3	163.206E-12	538.139E-3	15.7719E-3	166.043E-12	522.547E-3	-42.4655E-3
4.24962E-3	163.555E-12	547.543E-3	16.4201E-3	166.079E-12	516.593E-3	-21.1486E-3
4.24462E-3	162.043E-12	546.430E-3	13.2855E-3	163.948E-12	516.472E-3	3.96295E-3
4.23962E-3	161.567E-12	524.551E-3	3.77030E-3	162.236E-12	499.440E-3	19.7932E-3
4.23462E-3	161.948E-12	519.828E-3	-5.92105E-3	163.409E-12	475.750E-3	8.74496E-3
4.22961E-3	162.463E-12	514.628E-3	-14.4513E-3	163.589E-12	464.595E-3	-25.2551E-3
4.22461E-3	161.785E-12	502.767E-3	-29.3506E-3	162.748E-12	459.380E-3	-37.8032E-3
4.21961E-3	162.060E-12	516.183E-3	-32.0473E-3	160.782E-12	490.205E-3	-20.8383E-3
4.21461E-3	164.147E-12	537.498E-3	-15.5350E-3	160.798E-12	524.947E-3	-4.99158E-3
4.20960E-3	163.161E-12	547.251E-3	-24.6063E-3	162.593E-12	524.989E-3	-2.54060E-3
4.20460E-3	163.049E-12	543.527E-3	-36.6111E-3	162.173E-12	532.307E-3	-4.16648E-3
4.19960E-3	161.594E-12	537.179E-3	-38.7922E-3	161.728E-12	556.691E-3	-12.8873E-3
4.19460E-3	162.343E-12	550.995E-3	-49.1519E-3	160.870E-12	570.590E-3	-14.8937E-3
4.18959E-3	160.988E-12	543.603E-3	-44.1229E-3	162.172E-12	548.719E-3	10.5125E-3
4.18459E-3	161.594E-12	504.061E-3	-15.9986E-3	162.629E-12	508.221E-3	27.6340E-3
4.17959E-3	159.982E-12	511.604E-3	10.3826E-3	163.148E-12	516.528E-3	11.7321E-3
4.17459E-3	160.772E-12	536.710E-3	14.4104E-3	162.659E-12	554.883E-3	-25.8785E-3
4.16958E-3	161.029E-12	541.383E-3	2.40594E-3	162.812E-12	537.246E-3	-49.5902E-3
4.16458E-3	159.394E-12	542.767E-3	-4.39532E-3	163.244E-12	500.230E-3	-28.1418E-3
4.15958E-3	158.570E-12	528.900E-3	-12.0558E-3	162.225E-12	497.622E-3	-12.9043E-3
4.15458E-3	158.555E-12	511.163E-3	-19.5241E-3	161.660E-12	511.936E-3	-21.0267E-3
4.14957E-3	159.487E-12	526.861E-3	-17.6436E-3	160.506E-12	536.222E-3	-16.2645E-3
4.14457E-3	158.679E-12	551.374E-3	-25.5318E-3	160.295E-12	557.059E-3	-2.47648E-3
4.13957E-3	157.806E-12	535.974E-3	-30.7334E-3	158.467E-12	552.221E-3	4.01089E-3
4.13457E-3	157.970E-12	517.324E-3	-37.3214E-3	158.222E-12	556.258E-3	-11.1545E-3
4.12956E-3	157.902E-12	533.467E-3	-35.3450E-3	158.542E-12	575.965E-3	-37.0227E-3
4.12456E-3	158.063E-12	542.237E-3	-15.7165E-3	158.778E-12	552.336E-3	-43.8061E-3
4.11956E-3	158.451E-12	530.216E-3	-10.9653E-3	158.591E-12	516.906E-3	-27.7670E-3
4.11456E-3	159.754E-12	528.147E-3	-18.9199E-3	156.996E-12	522.660E-3	-20.0594E-3
4.10955E-3	158.520E-12	518.374E-3	-9.60432E-3	158.108E-12	548.548E-3	-20.5758E-3
4.10455E-3	158.277E-12	503.106E-3	759.181E-6	158.644E-12	569.502E-3	6.64201E-3
4.09955E-3	159.131E-12	506.565E-3	-7.53516E-3	158.141E-12	560.517E-3	32.5413E-3
4.09455E-3	159.543E-12	539.595E-3	359.760E-6	156.378E-12	529.853E-3	13.5934E-3
4.08954E-3	158.454E-12	568.362E-3	1.09862E-3	155.812E-12	514.995E-3	-16.5577E-3
4.08454E-3	157.438E-12	550.967E-3	-27.6929E-3	155.887E-12	519.937E-3	-15.3640E-3
4.07954E-3	157.806E-12	515.392E-3	-50.5075E-3	156.940E-12	513.938E-3	-703.535E-6
4.07454E-3	157.643E-12	497.605E-3	-41.9114E-3	155.739E-12	495.792E-3	9.36677E-3
4.06953E-3	156.838E-12	502.530E-3	-10.4189E-3	153.508E-12	498.977E-3	480.416E-6
4.06453E-3	155.573E-12	513.584E-3	-9.77577E-3	154.650E-12	512.125E-3	-31.8512E-3
4.05953E-3	156.271E-12	508.885E-3	-30.5797E-3	154.940E-12	516.799E-3	-48.1397E-3
4.05453E-3	156.200E-12	496.094E-3	-20.5726E-3	154.734E-12	529.203E-3	-45.5369E-3
4.04952E-3	155.684E-12	516.200E-3	-20.4729E-3	153.029E-12	530.699E-3	-64.5754E-3
4.04452E-3	154.891E-12	532.613E-3	-29.4886E-3	153.033E-12	521.837E-3	-63.8570E-3
4.03952E-3	155.570E-12	513.425E-3	-13.9781E-3	153.501E-12	520.837E-3	-26.1404E-3
4.03452E-3	155.219E-12	507.845E-3	-14.1853E-3	153.746E-12	514.255E-3	-31.7295E-3
4.02951E-3	153.734E-12	516.909E-3	-33.8054E-3	153.482E-12	496.669E-3	-57.8367E-3
4.02451E-3	154.305E-12	527.721E-3	-40.5639E-3	152.755E-12	501.509E-3	-54.0099E-3
4.01951E-3	156.615E-12	532.662E-3	-31.8226E-3	153.040E-12	526.211E-3	-45.5657E-3
4.01451E-3	155.879E-12	524.751E-3	-22.6751E-3	153.719E-12	530.976E-3	-25.6964E-3
4.00950E-3	154.517E-12	504.454E-3	-19.4778E-3	153.767E-12	536.911E-3	-8.36306E-3
4.00450E-3	154.517E-12	490.900E-3	-13.7484E-3	154.026E-12	544.136E-3	-22.5107E-3
3.99950E-3	155.769E-12	519.123E-3	6.82785E-3	154.173E-12	505.425E-3	-37.4562E-3
3.99450E-3	155.693E-12	563.205E-3	4.39228E-3	154.026E-12	482.710E-3	-30.5344E-3
3.98949E-3	154.541E-12	573.761E-3	-8.76801E-3	152.923E-12	527.668E-3	-16.8837E-3
3.98449E-3	154.812E-12	564.647E-3	-3.20376E-3	154.296E-12	535.595E-3	-27.3287E-3
3.97949E-3	154.018E-12	554.892E-3	-9.52705E-3	154.574E-12	498.625E-3	-42.1356E-3
3.97449E-3	154.987E-12	536.188E-3	-17.2945E-3	154.195E-12	501.990E-3	-19.8897E-3
3.96948E-3	153.247E-12	527.938E-3	-11.8713E-3	153.081E-12	514.836E-3	-14.7822E-3
3.96448E-3	153.959E-12	541.897E-3	-4.93250E-3	153.673E-12	514.390E-3	-36.8593E-3
3.95948E-3	152.604E-12	551.102E-3	-25.2849E-3	155.137E-12	524.231E-3	-35.0528E-3
3.95448E-3	151.935E-12	542.565E-3	-51.0756E-3	154.874E-12	539.087E-3	-13.1784E-3
3.94947E-3	152.080E-12	520.669E-3	-37.3264E-3	154.539E-12	561.955E-3	14.0920E-3
3.94447E-3	152.998E-12	500.470E-3	-29.3414E-3	153.845E-12	573.877E-3	14.9945E-3
3.93947E-3	152.539E-12	528.500E-3	-45.5090E-3	154.980E-12	565.606E-3	-10.6274E-3
3.93447E-3	151.788E-12	558.025E-3	-34.8067E-3	155.949E-12	569.853E-3	-20.6047E-3
3.92946E-3	152.640E-12	543.251E-3	-19.8148E-3	155.785E-12	555.909E-3	-14.7709E-3
3.92446E-3	153.368E-12	535.450E-3	-24.0895E-3	154.243E-12	523.425E-3	8.50060E-3
3.91946E-3	154.221E-12	542.856E-3	-16.0987E-3	153.048E-12	536.640E-3	28.0979E-3
3.91446E-3	153.133E-12	542.171E-3	-6.58371E-3	152.926E-12	568.781E-3	-47.5984E-6
3.90945E-3	151.883E-12	542.901E-3	-15.7913E-3	154.015E-12	558.389E-3	-7.38880E-3
3.90445E-3	151.652E-12	544.919E-3	-17.0772E-3	152.561E-12	528.014E-3	19.5659E-3
3.89945E-3	153.262E-12	551.742E-3	-3.59439E-3	151.749E-12	503.233E-3	2.86519E-3
3.89445E-3	153.174E-12	566.314E-3	-424.317E-6	150.612E-12	493.616E-3	-28.6211E-3
3.88944E-3	151.252E-12	552.774E-3	-11.4802E-3	151.034E-12	528.745E-3	-39.0919E-3
3.88444E-3	151.029E-12	538.591E-3	-27.2571E-3	151.485E-12	550.876E-3	-43.6434E-3
3.87944E-3	151.840E-12	549.360E-3	-30.2100E-3	151.116E-12	532.237E-3	-43.4581E-3
3.87444E-3	151.920E-12	554.166E-3	-22.2781E-3	150.379E-12	532.228E-3	-37.1573E-3
3.86943E-3	149.223E-12	551.281E-3	-12.4172E-3	150.893E-12	545.211E-3	-28.2987E-3
3.86443E-3	148.909E-12	539.139E-3	-20.7087E-3	150.967E-12	548.243E-3	-36.7436E-3
3.85943E-3	148.769E-12	532.777E-3	-44.4267E-3	150.555E-12	543.428E-3	-49.8564E-3
3.85443E-3	149.860E-12	532.277E-3	-36.6329E-3	149.733E-12	542.393E-3	-38.4488E-3
3.84942E-3	148.958E-12	518.150E-3	-14.7466E-3	150.311E-12	554.552E-3	-18.7922E-3
3.84442E-3	148.474E-12	517.747E-3	1.77302E-3	151.076E-12	550.907E-3	-22.0124E-3
3.83942E-3	147.914E-12	515.149E-3	20.3416E-3	151.374E-12	522.890E-3	-37.9858E-3
3.83442E-3	147.798E-12	517.398E-3	29.0419E-3	152.342E-12	503.734E-3	-38.4751E-3
3.82941E-3	147.328E-12	555.160E-3	23.1935E-3	149.629E-12	507.187E-3	-11.4599E-3
3.82441E-3	146.776E-12	563.413E-3	21.8870E-3	149.800E-12	516.121E-3	12.1225E-3
3.81941E-3	147.051E-12	535.603E-3	5.03798E-3	151.067E-12	513.951E-3	-4.01592E-3
3.81441E-3	146.376E-12	528.629E-3	-18.6925E-3	150.955E-12	513.619E-3	-13.6915E-3
3.80940E-3	145.421E-12	531.777E-3	5.70921E-3	147.762E-12	539.980E-3	-16.5209E-3
3.80440E-3	145.086E-12	537.054E-3	28.8111E-3	144.857E-12	550.848E-3	-31.6826E-3
3.79940E-3	146.428E-12	553.580E-3	17.4027E-3	146.891E-12	539.418E-3	-4.91552E-3
3.79440E-3	146.215E-12	564.317E-3	-8.28259E-3	147.211E-12	558.716E-3	31.3539E-3
3.78939E-3	145.507E-12	561.929E-3	-31.4041E-3	146.199E-12	575.185E-3	23.0201E-3
3.78439E-3	145.192E-12	553.039E-3	-28.9203E-3	144.475E-12	572.968E-3	5.90921E-3
3.77939E-3	146.469E-12	537.818E-3	-22.1893E-3	145.754E-12	573.436E-3	741.072E-6
3.77439E-3	147.004E-12	533.334E-3	-27.5944E-3	148.205E-12	567.783E-3	7.27434E-3
3.76938E-3	145.372E-12	543.271E-3	-19.1777E-3	148.162E-12	577.967E-3	6.05789E-3
3.76438E-3	144.517E-12	548.716E-3	-3.92503E-3	146.379E-12	600.389E-3	-5.45529E-3
3.75938E-3	145.463E-12	528.976E-3	-3.79556E-3	146.193E-12	583.348E-3	-17.6473E-3
3.75438E-3	147.291E-12	512.230E-3	-11.6321E-3	147.531E-12	541.735E-3	-41.8542E-3
3.74937E-3	145.457E-12	525.031E-3	641.139E-6	148.499E-12	537.257E-3	-43.9525E-3
3.74437E-3	144.669E-12	537.614E-3	25.4618E-3	146.946E-12	546.082E-3	-10.2604E-3
3.73937E-3	143.757E-12	539.699E-3	15.7150E-3	146.818E-12	527.151E-3	16.6963E-3
3.73437E-3	143.755E-12	539.924E-3	-8.44161E-3	146.495E-12	515.997E-3	15.5615E-3
3.72936E-3	142.273E-12	521.972E-3	-10.8181E-3	146.695E-12	510.449E-3	-1.73546E-3
3.72436E-3	141.563E-12	498.454E-3	-4.70737E-3	145.876E-12	486.050E-3	-4.79821E-3
3.71936E-3	140.623E-12	496.345E-3	-1.37977E-3	144.560E-12	491.984E-3	6.68444E-3
3.71436E-3	140.942E-12	493.154E-3	2.92728E-3	143.571E-12	536.474E-3	-11.1887E-3
3.70935E-3	141.423E-12	499.932E-3	-5.63020E-3	144.878E-12	542.356E-3	-25.3904E-3
3.70435E-3	140.901E-12	519.476E-3	-13.7248E-3	143.224E-12	533.764E-3	-8.10947E-3
3.69935E-3	139.920E-12	525.961E-3	2.33455E-3	142.922E-12	543.601E-3	-8.79473E-3
3.69435E-3	140.748E-12	519.157E-3	5.40373E-3	141.449E-12	530.392E-3	-21.5672E-3
3.68934E-3	142.889E-12	525.177E-3	-13.6774E-3	143.299E-12	527.648E-3	-19.9968E-3
3.68434E-3	142.896E-12	527.362E-3	-9.21324E-3	143.390E-12	554.302E-3	-3.13989E-3
3.67934E-3	141.930E-12	510.407E-3	-1.98609E-3	142.438E-12	552.922E-3	20.0002E-3
3.67434E-3	142.101E-12	511.908E-3	-33.8310E-3	141.955E-12	528.603E-3	13.5547E-3
3.66933E-3	143.642E-12	535.791E-3	-57.8630E-3	142.645E-12	527.615E-3	-19.0267E-3
3.66433E-3	144.093E-12	551.145E-3	-35.3007E-3	144.224E-12	517.031E-3	-40.0700E-3
3.65933E-3	141.073E-12	540.823E-3	2.69936E-3	142.988E-12	505.467E-3	-33.5858E-3
3.65433E-3	140.183E-12	527.011E-3	5.33535E-3	142.087E-12	532.876E-3	-21.5077E-3
3.64932E-3	141.901E-12	519.270E-3	-10.3968E-3	142.866E-12	537.849E-3	-21.1931E-3
3.64432E-3	143.143E-12	514.552E-3	-6.21592E-3	144.543E-12	505.583E-3	618.112E-6
3.63932E-3	140.304E-12	513.721E-3	7.13700E-3	143.541E-12	513.324E-3	25.2841E-3
3.63432E-3	137.860E-12	519.484E-3	3.59178E-3	142.384E-12	546.521E-3	24.6634E-3
3.62931E-3	137.345E-12	514.918E-3	-11.9975E-3	142.085E-12	542.852E-3	20.6264E-3
3.62431E-3	138.397E-12	505.244E-3	-14.1152E-3	143.025E-12	525.079E-3	-6.47425E-3
3.61931E-3	137.074E-12	507.384E-3	-11.5217E-3	143.466E-12	518.580E-3	-29.6713E-3
3.61431E-3	136.876E-12	515.528E-3	-21.0051E-3	140.712E-12	512.480E-3	-3.30063E-3
3.60930E-3	138.358E-12	537.099E-3	-29.7615E-3	139.546E-12	513.606E-3	13.4423E-3
3.60430E-3	139.878E-12	555.211E-3	-7.36427E-3	139.582E-12	513.173E-3	-7.32057E-3
3.59930E-3	139.875E-12	561.490E-3	19.4970E-3	141.337E-12	499.467E-3	-29.5568E-3
3.59430E-3	139.916E-12	558.116E-3	1.24470E-3	140.467E-12	518.613E-3	-34.3304E-3
3.58929E-3	140.407E-12	535.839E-3	-30.3652E-3	139.376E-12	544.018E-3	-22.9470E-3
3.58429E-3	141.237E-12	517.115E-3	-17.6371E-3	139.317E-12	521.267E-3	-22.1936E-3
3.57929E-3	141.049E-12	519.960E-3	-3.40683E-3	140.389E-12	497.019E-3	-25.3552E-3
3.57429E-3	140.656E-12	540.309E-3	-3.01535E-3	140.892E-12	498.149E-3	-1.76470E-3
3.56928E-3	141.184E-12	551.098E-3	20.2251E-3	138.781E-12	492.952E-3	30.5992E-3
3.56428E-3	141.082E-12	530.702E-3	37.4584E-3	138.897E-12	479.497E-3	36.5195E-3
3.55928E-3	141.175E-12	516.250E-3	39.1728E-3	140.093E-12	485.741E-3	21.2286E-3
3.55428E-3	139.055E-12	537.901E-3	33.3740E-3	140.990E-12	515.217E-3	4.70276E-3
3.54927E-3	138.944E-12	555.775E-3	27.4762E-3	139.013E-12	548.338E-3	-16.6599E-3
3.54427E-3	137.847E-12	532.665E-3	14.7120E-3	138.570E-12	552.896E-3	-55.8194E-3
3.53927E-3	137.619E-12	500.236E-3	-10.1392E-3	138.887E-12	523.584E-3	-65.3154E-3
3.53427E-3	137.434E-12	493.758E-3	-21.9509E-3	140.300E-12	516.459E-3	-14.8229E-3
3.52926E-3	138.072E-12	507.537E-3	-22.6102E-3	138.617E-12	526.293E-3	13.8185E-3
3.52426E-3	138.856E-12	507.641E-3	-10.3458E-3	136.841E-12	516.054E-3	-2.83290E-3
3.51926E-3	137.029E-12	494.712E-3	11.1125E-3	136.871E-12	526.936E-3	-9.77081E-3
3.51426E-3	137.252E-12	516.551E-3	-33.3169E-6	137.469E-12	551.997E-3	-14.4996E-3
3.50925E-3	138.752E-12	546.023E-3	-34.5568E-3	137.260E-12	538.888E-3	-22.0904E-3
3.50425E-3	139.744E-12	539.980E-3	-33.6737E-3	135.815E-12	538.979E-3	-25.1081E-3
3.49925E-3	137.758E-12	532.164E-3	-18.0264E-3	136.852E-12	572.827E-3	-38.6877E-3
3.49425E-3	137.848E-12	534.006E-3	-19.9400E-3	136.987E-12	565.299E-3	-47.1085E-3
3.48924E-3	139.060E-12	524.654E-3	-24.0820E-3	136.378E-12	529.154E-3	-40.9671E-3
3.48424E-3	139.062E-12	525.281E-3	-27.5143E-3	135.082E-12	530.645E-3	-25.6969E-3
3.47924E-3	137.924E-12	545.472E-3	-34.1266E-3	135.443E-12	541.612E-3	-1.81685E-3
3.47424E-3	137.358E-12	557.297E-3	-29.4777E-3	136.511E-12	533.879E-3	12.0819E-3
3.46923E-3	138.475E-12	540.249E-3	-23.2682E-3	135.461E-12	542.964E-3	2.64909E-3
3.46423E-3	138.287E-12	513.352E-3	-35.2303E-3	135.288E-12	553.778E-3	-31.8708E-3
3.45923E-3	137.135E-12	520.610E-3	-39.6042E-3	134.634E-12	530.265E-3	-41.8009E-3
3.45423E-3	136.175E-12	532.708E-3	-29.1949E-3	135.658E-12	517.735E-3	-38.7981E-3
3.44922E-3	136.222E-12	523.525E-3	-13.5335E-3	134.887E-12	532.745E-3	-69.1393E-3
3.44422E-3	136.021E-12	520.145E-3	-13.9677E-3	134.056E-12	533.624E-3	-56.9455E-3
3.43922E-3	135.042E-12	529.819E-3	-23.1693E-3	133.677E-12	526.190E-3	-19.5152E-3
3.43422E-3	134.879E-12	525.812E-3	-15.2480E-3	134.955E-12	513.917E-3	-26.6536E-3
3.42921E-3	133.353E-12	521.775E-3	-9.63282E-3	136.836E-12	514.264E-3	-17.8174E-3
3.42421E-3	134.424E-12	529.766E-3	-16.5347E-3	135.039E-12	536.514E-3	5.59746E-3
3.41921E-3	134.505E-12	520.356E-3	-17.9994E-3	133.610E-12	532.682E-3	1.82661E-3
3.41421E-3	135.672E-12	523.634E-3	-17.2743E-3	133.440E-12	504.045E-3	12.1732E-3
3.40920E-3	133.909E-12	539.244E-3	-6.44688E-3	135.512E-12	501.257E-3	15.2352E-3
3.40420E-3	132.561E-12	541.476E-3	10.3033E-3	134.614E-12	523.799E-3	-6.02650E-3
3.39920E-3	131.912E-12	529.156E-3	6.51154E-3	132.569E-12	547.479E-3	-10.1937E-3
3.39420E-3	132.089E-12	508.252E-3	2.13042E-3	131.676E-12	561.209E-3	3.64283E-3
3.38919E-3	131.642E-12	514.441E-3	1.45377E-3	133.194E-12	548.019E-3	17.5981E-3
3.38419E-3	131.058E-12	540.787E-3	-6.56952E-3	132.621E-12	523.180E-3	1.76253E-3
3.37919E-3	131.060E-12	543.205E-3	-15.3806E-3	131.890E-12	531.188E-3	-24.0759E-3
3.37419E-3	131.311E-12	515.346E-3	-9.66153E-3	130.929E-12	578.746E-3	-37.4140E-3
3.36918E-3	130.663E-12	501.268E-3	-8.47237E-3	132.414E-12	593.075E-3	-55.9328E-3
3.36418E-3	129.636E-12	502.383E-3	-24.3212E-3	132.266E-12	557.435E-3	-54.4494E-3
3.35918E-3	129.648E-12	490.422E-3	-43.6916E-3	133.200E-12	548.853E-3	-17.5781E-3
3.35418E-3	131.608E-12	495.375E-3	-53.8599E-3	131.947E-12	564.240E-3	-542.411E-6
3.34917E-3	131.468E-12	529.261E-3	-35.9035E-3	132.397E-12	558.716E-3	-17.4196E-3
3.34417E-3	130.929E-12	545.973E-3	-35.7872E-3	132.314E-12	558.004E-3	-29.5920E-3
3.33917E-3	129.947E-12	538.948E-3	-69.1121E-3	133.118E-12	578.603E-3	-28.1824E-3
3.33417E-3	133.528E-12	537.087E-3	-60.1888E-3	132.722E-12	584.027E-3	-20.9157E-3
3.32916E-3	133.957E-12	543.846E-3	-14.5959E-3	131.695E-12	542.117E-3	-26.2685E-3
3.32416E-3	131.011E-12	557.174E-3	-978.019E-6	132.308E-12	490.099E-3	-39.0608E-3
3.31916E-3	130.349E-12	562.865E-3	1.22654E-3	133.267E-12	493.872E-3	-14.0014E-3
3.31416E-3	131.659E-12	551.058E-3	-142.970E-6	133.221E-12	520.439E-3	14.7313E-3
3.30915E-3	131.862E-12	543.243E-3	-24.2541E-3	130.952E-12	521.971E-3	894.418E-6
3.30415E-3	128.979E-12	546.441E-3	-37.3356E-3	130.602E-12	526.068E-3	-8.70870E-3
3.29915E-3	128.064E-12	542.728E-3	-23.4599E-3	131.251E-12	538.623E-3	-3.82803E-3
3.29415E-3	128.294E-12	538.127E-3	-11.3126E-3	131.792E-12	526.213E-3	-24.2447E-3
3.28914E-3	129.617E-12	519.589E-3	-12.7668E-3	129.849E-12	504.556E-3	-67.5701E-3
3.28414E-3	127.766E-12	486.609E-3	-14.2075E-3	128.219E-12	510.400E-3	-78.8433E-3
3.27914E-3	127.185E-12	485.634E-3	-18.0840E-3	128.571E-12	524.160E-3	-37.8306E-3
3.27414E-3	127.325E-12	513.440E-3	-21.0572E-3	128.928E-12	523.881E-3	-8.17183E-3
3.26913E-3	128.813E-12	524.277E-3	-14.9259E-3	128.740E-12	526.348E-3	-17.9330E-3
3.26413E-3	129.385E-12	509.632E-3	-13.8081E-3	128.385E-12	521.397E-3	-22.1571E-3
3.25913E-3	128.643E-12	499.252E-3	-13.6279E-3	128.890E-12	532.224E-3	-13.8942E-3
3.25413E-3	128.428E-12	512.413E-3	-4.86738E-3	128.982E-12	561.480E-3	-6.40195E-3
3.24912E-3	128.426E-12	534.157E-3	-11.8732E-3	130.144E-12	546.930E-3	-1.19706E-3
3.24412E-3	129.387E-12	544.500E-3	-25.0077E-3	129.115E-12	519.561E-3	4.42732E-3
3.23912E-3	129.771E-12	545.570E-3	-34.4922E-3	129.319E-12	533.906E-3	-4.72301E-3
3.23412E-3	129.265E-12	542.786E-3	-44.7999E-3	128.899E-12	545.571E-3	-15.7077E-3
3.22911E-3	128.183E-12	543.728E-3	-39.2905E-3	129.281E-12	530.339E-3	6.67140E-3
3.22411E-3	127.208E-12	550.593E-3	-45.9743E-3	128.929E-12	527.827E-3	7.69684E-3
3.21911E-3	126.628E-12	552.914E-3	-54.7134E-3	127.433E-12	543.631E-3	-15.8909E-3
3.21411E-3	126.893E-12	539.038E-3	-44.5395E-3	127.265E-12	558.862E-3	-10.7756E-3
3.20910E-3	126.261E-12	533.874E-3	-27.3564E-3	127.533E-12	563.175E-3	-8.96586E-3
3.20410E-3	124.746E-12	523.717E-3	-2.60891E-3	128.197E-12	541.944E-3	-22.3872E-3
3.19910E-3	123.074E-12	498.761E-3	15.4433E-3	126.386E-12	514.458E-3	-12.9948E-3
3.19410E-3	124.309E-12	497.271E-3	16.9238E-3	124.633E-12	513.396E-3	-10.4346E-3
3.18909E-3	125.034E-12	505.523E-3	13.4588E-3	123.390E-12	524.599E-3	-37.2910E-3
3.18409E-3	124.346E-12	517.913E-3	2.52386E-3	124.071E-12	535.691E-3	-38.4895E-3
3.17909E-3	123.868E-12	529.510E-3	-17.0266E-3	123.902E-12	548.718E-3	-14.1517E-3
3.17409E-3	125.078E-12	540.604E-3	-27.3107E-3	122.783E-12	544.397E-3	-14.0743E-3
3.16908E-3	127.131E-12	548.946E-3	-19.6236E-3	123.143E-12	523.767E-3	-23.6545E-3
3.16408E-3	126.812E-12	537.156E-3	-2.84408E-3	124.041E-12	511.718E-3	-3.26859E-3
3.15908E-3	126.646E-12	522.778E-3	19.3947E-3	123.206E-12	535.468E-3	8.20864E-3
3.15408E-3	126.431E-12	523.098E-3	34.9503E-3	122.290E-12	559.453E-3	-8.04589E-3
3.14907E-3	127.009E-12	529.070E-3	18.5637E-3	123.070E-12	544.189E-3	-8.57452E-3
3.14407E-3	128.135E-12	530.027E-3	-13.5949E-3	124.855E-12	536.274E-3	-9.20293E-3
3.13907E-3	126.410E-12	534.287E-3	-39.3084E-3	124.286E-12	550.809E-3	-17.1057E-3
3.13407E-3	125.468E-12	547.116E-3	-46.2496E-3	122.967E-12	560.131E-3	-13.3119E-3
3.12906E-3	125.179E-12	555.187E-3	-31.6845E-3	122.240E-12	561.556E-3	-7.82602E-3
3.12406E-3	125.792E-12	542.886E-3	-7.39935E-3	123.495E-12	547.620E-3	-596.131E-6
3.11906E-3	124.761E-12	525.781E-3	-2.34651E-3	123.521E-12	534.887E-3	128.812E-6
3.11406E-3	124.164E-12	529.139E-3	-8.76544E-3	122.243E-12	549.623E-3	-12.6346E-3
3.10905E-3	121.410E-12	555.154E-3	-17.5531E-3	121.958E-12	559.879E-3	-8.98473E-3
3.10405E-3	122.100E-12	570.099E-3	-30.0271E-3	123.209E-12	552.397E-3	-1.21837E-3
3.09905E-3	122.395E-12	564.640E-3	-25.0487E-3	122.524E-12	536.089E-3	-14.2607E-3
3.09405E-3	121.775E-12	539.792E-3	-19.4395E-3	120.524E-12	513.812E-3	-25.5127E-3
3.08904E-3	119.614E-12	513.489E-3	-26.6852E-3	120.133E-12	515.647E-3	-24.3519E-3
3.08404E-3	120.543E-12	520.699E-3	-36.1598E-3	120.769E-12	531.591E-3	-30.8421E-3
3.07904E-3	122.340E-12	542.251E-3	-37.1285E-3	120.998E-12	538.480E-3	-40.0285E-3
3.07404E-3	121.660E-12	549.244E-3	-24.4203E-3	119.764E-12	550.722E-3	-25.7942E-3
3.06903E-3	121.318E-12	537.802E-3	-10.1357E-3	118.872E-12	567.357E-3	-21.8538E-3
3.06403E-3	121.196E-12	532.154E-3	-5.03083E-3	120.785E-12	562.094E-3	-48.3772E-3
3.05903E-3	122.023E-12	540.202E-3	-7.27198E-3	120.787E-12	544.549E-3	-49.0731E-3
3.05403E-3	121.617E-12	554.085E-3	-2.71986E-3	119.013E-12	536.522E-3	-25.3907E-3
3.04902E-3	121.032E-12	561.911E-3	14.0812E-3	118.452E-12	527.061E-3	-27.5559E-3
3.04402E-3	120.481E-12	563.151E-3	20.4046E-3	120.194E-12	521.713E-3	-25.3226E-3
3.03902E-3	119.968E-12	550.002E-3	2.00519E-3	121.019E-12	548.684E-3	-11.2330E-3
3.03402E-3	119.934E-12	531.213E-3	-5.43216E-3	120.008E-12	568.850E-3	-9.34197E-3
3.02901E-3	119.525E-12	521.678E-3	6.61661E-3	118.929E-12	555.419E-3	-22.2106E-3
3.02401E-3	119.299E-12	513.762E-3	-6.53676E-3	119.980E-12	551.961E-3	-42.1272E-3
3.01901E-3	118.190E-12	504.501E-3	-29.1896E-3	120.619E-12	554.118E-3	-31.1472E-3
3.01401E-3	117.834E-12	506.935E-3	-32.0113E-3	119.474E-12	556.872E-3	1.25233E-3
3.00900E-3	117.987E-12	528.774E-3	-28.1729E-3	119.219E-12	560.915E-3	7.06396E-3
3.00400E-3	117.794E-12	540.656E-3	-34.4379E-3	118.979E-12	545.464E-3	-9.13571E-3
2.99900E-3	117.589E-12	521.932E-3	-47.0924E-3	120.170E-12	536.213E-3	-14.6522E-3
2.99400E-3	117.384E-12	514.434E-3	-35.1025E-3	120.288E-12	549.407E-3	-27.2146E-3
2.98899E-3	117.896E-12	545.130E-3	-15.9468E-3	119.467E-12	556.722E-3	-32.9459E-3
2.98399E-3	118.348E-12	553.549E-3	-25.9543E-3	119.523E-12	555.129E-3	-6.57863E-3
2.97899E-3	118.175E-12	539.126E-3	-45.1242E-3	120.618E-12	546.776E-3	8.72018E-3
2.97399E-3	117.795E-12	552.458E-3	-47.9073E-3	120.734E-12	529.986E-3	-10.9111E-3
2.96898E-3	117.856E-12	581.025E-3	-44.9186E-3	118.795E-12	516.647E-3	-18.9060E-3
2.96398E-3	118.649E-12	587.647E-3	-39.8947E-3	117.684E-12	519.299E-3	487.837E-6
2.95898E-3	119.236E-12	568.785E-3	-28.3776E-3	118.477E-12	537.806E-3	9.38038E-3
2.95398E-3	117.680E-12	558.635E-3	-17.6015E-3	119.291E-12	544.746E-3	-3.65112E-3
2.94897E-3	116.938E-12	546.853E-3	1.33859E-3	118.432E-12	548.380E-3	-17.7157E-3
2.94397E-3	117.581E-12	539.723E-3	13.5119E-3	116.351E-12	561.826E-3	-33.1512E-3
2.93897E-3	118.275E-12	562.822E-3	-968.802E-6	115.965E-12	560.581E-3	-36.8685E-3
2.93397E-3	117.509E-12	575.067E-3	-8.01051E-3	117.146E-12	552.985E-3	-12.5837E-3
2.92896E-3	116.404E-12	562.834E-3	-5.57511E-3	118.463E-12	550.810E-3	-18.9514E-3
2.92396E-3	117.800E-12	548.228E-3	-15.5673E-3	116.351E-12	530.963E-3	-45.4009E-3
2.91896E-3	117.673E-12	529.745E-3	-26.3085E-3	115.557E-12	532.166E-3	-32.2094E-3
2.91396E-3	116.453E-12	529.128E-3	-18.8825E-3	116.372E-12	562.503E-3	-11.8339E-3
2.90895E-3	115.147E-12	540.938E-3	-13.8734E-3	118.404E-12	575.472E-3	-4.82784E-3
2.90395E-3	116.734E-12	523.219E-3	-45.3995E-3	117.895E-12	573.814E-3	-5.54827E-3
2.89895E-3	117.145E-12	506.462E-3	-66.5706E-3	115.772E-12	553.643E-3	-22.6132E-3
2.89395E-3	115.769E-12	511.117E-3	-41.9274E-3	115.674E-12	525.926E-3	-19.3977E-3
2.88894E-3	115.681E-12	518.562E-3	-24.4837E-3	117.671E-12	524.173E-3	15.4949E-3
2.88394E-3	116.323E-12	534.009E-3	-28.5225E-3	117.301E-12	543.342E-3	15.9989E-3
2.87894E-3	116.562E-12	540.639E-3	-22.0692E-3	114.746E-12	559.752E-3	-12.8271E-3
2.87394E-3	115.104E-12	536.204E-3	-8.59683E-3	113.424E-12	551.615E-3	-14.0282E-3
2.86893E-3	114.742E-12	551.167E-3	-3.56046E-3	113.638E-12	529.265E-3	-17.9419E-3
2.86393E-3	114.490E-12	573.235E-3	-15.5351E-3	114.541E-12	528.289E-3	-43.0943E-3
2.85893E-3	114.844E-12	585.885E-3	-32.5355E-3	112.473E-12	547.563E-3	-50.2885E-3
2.85393E-3	114.102E-12	576.579E-3	-32.8988E-3	110.200E-12	549.881E-3	-43.7709E-3
2.84892E-3	113.301E-12	532.618E-3	-27.3869E-3	110.375E-12	519.141E-3	-39.1365E-3
2.84392E-3	112.516E-12	509.107E-3	-27.7890E-3	111.658E-12	501.058E-3	-30.3543E-3
2.83892E-3	112.668E-12	531.145E-3	-16.5341E-3	111.076E-12	521.614E-3	-23.5690E-3
2.83392E-3	113.134E-12	548.344E-3	-4.23233E-3	110.187E-12	535.099E-3	-21.7193E-3
2.82891E-3	113.382E-12	553.867E-3	-8.56097E-3	110.737E-12	544.487E-3	-15.2353E-3
2.82391E-3	114.438E-12	556.558E-3	-3.24909E-3	110.858E-12	559.345E-3	-2.90160E-3
2.81891E-3	112.750E-12	551.027E-3	5.76665E-3	110.513E-12	558.213E-3	2.76936E-3
2.81391E-3	112.374E-12	550.707E-3	-5.30196E-3	110.755E-12	551.874E-3	-991.613E-6
2.80890E-3	111.788E-12	550.937E-3	-14.9554E-3	110.423E-12	537.449E-3	-154.367E-6
2.80390E-3	112.272E-12	555.533E-3	-16.0857E-3	110.015E-12	533.347E-3	10.5842E-3
2.79890E-3	110.996E-12	545.274E-3	-17.2262E-3	109.561E-12	538.390E-3	4.38647E-3
2.79390E-3	109.772E-12	515.217E-3	-10.4028E-3	109.614E-12	533.641E-3	-22.7035E-3
2.78889E-3	109.285E-12	518.905E-3	-22.9598E-3	109.980E-12	529.743E-3	-44.0550E-3
2.78389E-3	109.403E-12	526.065E-3	-40.0865E-3	109.499E-12	522.449E-3	-52.3892E-3
2.77889E-3	108.938E-12	516.132E-3	-35.4609E-3	109.327E-12	522.167E-3	-37.4172E-3
2.77389E-3	108.145E-12	526.409E-3	-25.0926E-3	108.559E-12	535.761E-3	-14.2141E-3
2.76888E-3	108.450E-12	545.176E-3	-11.0567E-3	107.389E-12	544.807E-3	2.81261E-3
2.76388E-3	107.519E-12	546.122E-3	-6.87959E-3	107.296E-12	543.495E-3	10.1229E-3
2.75888E-3	107.990E-12	532.764E-3	-21.2448E-3	106.926E-12	535.355E-3	-552.700E-6
2.75388E-3	108.256E-12	532.755E-3	-26.7456E-3	107.026E-12	533.438E-3	-3.33763E-3
2.74887E-3	109.371E-12	548.841E-3	-16.5040E-3	106.393E-12	545.960E-3	-1.51570E-3
2.74387E-3	109.087E-12	560.892E-3	-19.5412E-3	107.020E-12	552.235E-3	-10.3921E-3
2.73887E-3	109.073E-12	571.491E-3	-38.6686E-3	106.580E-12	540.890E-3	-14.1312E-3
2.73387E-3	109.501E-12	580.566E-3	-49.9636E-3	107.644E-12	532.718E-3	-18.4756E-3
2.72886E-3	110.523E-12	577.886E-3	-46.8303E-3	107.514E-12	548.816E-3	-33.2337E-3
2.72386E-3	111.180E-12	569.876E-3	-46.6393E-3	107.158E-12	566.336E-3	-41.4944E-3
2.71886E-3	110.685E-12	567.899E-3	-46.2592E-3	107.262E-12	560.811E-3	-30.3343E-3
2.71386E-3	109.790E-12	568.530E-3	-40.1346E-3	108.806E-12	549.073E-3	-42.1398E-3
2.70885E-3	109.478E-12	567.468E-3	-31.0713E-3	108.992E-12	547.346E-3	-70.2984E-3
2.70385E-3	109.782E-12	555.909E-3	-25.0045E-3	108.276E-12	562.289E-3	-57.2346E-3
2.69885E-3	108.581E-12	537.561E-3	-25.3258E-3	109.285E-12	567.852E-3	-25.6959E-3
2.69385E-3	108.201E-12	536.723E-3	-23.4013E-3	109.168E-12	548.466E-3	-1.90821E-3
2.68884E-3	106.845E-12	541.448E-3	-19.9758E-3	108.932E-12	542.800E-3	-2.67104E-3
2.68384E-3	106.109E-12	532.567E-3	-14.6518E-3	108.394E-12	556.150E-3	-22.6333E-3
2.67884E-3	104.742E-12	519.404E-3	-13.8935E-3	108.062E-12	547.881E-3	-27.3701E-3
2.67384E-3	104.844E-12	531.854E-3	-16.1652E-3	107.518E-12	546.247E-3	-23.3945E-3
2.66883E-3	105.450E-12	547.680E-3	-19.2066E-3	107.166E-12	577.660E-3	-33.1409E-3
2.66383E-3	106.095E-12	538.494E-3	-15.7218E-3	106.599E-12	579.594E-3	-34.3450E-3
2.65883E-3	105.898E-12	531.077E-3	-8.14437E-3	106.445E-12	543.160E-3	-23.0635E-3
2.65383E-3	104.387E-12	543.144E-3	-16.0444E-3	105.662E-12	527.727E-3	-20.9902E-3
2.64882E-3	105.744E-12	548.646E-3	-23.3626E-3	105.107E-12	535.721E-3	-11.2419E-3
2.64382E-3	108.266E-12	540.793E-3	-14.1694E-3	105.158E-12	548.503E-3	-8.16803E-3
2.63882E-3	108.643E-12	549.530E-3	-4.27085E-3	105.281E-12	557.071E-3	-38.5760E-3
2.63382E-3	106.516E-12	566.947E-3	9.09058E-3	105.532E-12	541.951E-3	-64.9064E-3
2.62881E-3	106.174E-12	566.248E-3	16.0536E-3	105.038E-12	531.756E-3	-53.4101E-3
2.62381E-3	107.278E-12	562.620E-3	-7.21784E-3	105.108E-12	542.200E-3	-38.7717E-3
2.61881E-3	108.654E-12	572.758E-3	-23.3029E-3	104.828E-12	540.942E-3	-33.2105E-3
2.61381E-3	107.703E-12	574.150E-3	-3.85230E-3	105.245E-12	538.130E-3	-30.9019E-3
2.60880E-3	103.905E-12	562.014E-3	10.9035E-3	105.763E-12	556.612E-3	-26.3089E-3
2.60380E-3	103.797E-12	552.036E-3	-7.41352E-3	105.089E-12	570.054E-3	-22.5945E-3
2.59880E-3	104.759E-12	544.089E-3	-23.9443E-3	104.950E-12	564.619E-3	-35.1195E-3
2.59380E-3	105.171E-12	535.817E-3	-22.5436E-3	104.132E-12	564.909E-3	-27.5314E-3
2.58879E-3	102.653E-12	547.718E-3	-31.9502E-3	104.768E-12	568.146E-3	-15.0893E-3
2.58379E-3	100.598E-12	582.014E-3	-36.2590E-3	104.432E-12	562.447E-3	-28.9323E-3
2.57879E-3	101.357E-12	587.623E-3	-17.3987E-3	105.293E-12	560.270E-3	-33.7230E-3
2.57379E-3	103.571E-12	563.084E-3	-1.88525E-3	104.343E-12	550.653E-3	-27.6476E-3
2.56878E-3	102.728E-12	546.422E-3	1.31810E-3	103.162E-12	532.245E-3	-21.6461E-3
2.56378E-3	101.658E-12	553.181E-3	-9.70080E-3	102.791E-12	536.321E-3	-14.4806E-3
2.55878E-3	101.661E-12	562.961E-3	-32.3705E-3	102.555E-12	561.386E-3	-34.5544E-3
2.55378E-3	102.796E-12	560.546E-3	-48.9475E-3	101.996E-12	570.216E-3	-70.0492E-3
2.54877E-3	103.009E-12	567.272E-3	-52.4943E-3	100.904E-12	566.855E-3	-51.7441E-3
2.54377E-3	101.702E-12	570.830E-3	-32.1794E-3	101.460E-12	569.488E-3	-741.481E-6
2.53877E-3	102.360E-12	560.460E-3	-6.67260E-3	102.042E-12	553.121E-3	-81.6913E-6
2.53377E-3	102.680E-12	554.550E-3	1.62649E-3	100.767E-12	524.542E-3	-24.0391E-3
2.52876E-3	103.278E-12	569.688E-3	-9.16993E-3	99.5933E-12	521.392E-3	-26.7730E-3
2.52376E-3	101.471E-12	586.004E-3	-28.4664E-3	99.1738E-12	543.086E-3	-14.8220E-3
2.51876E-3	100.798E-12	570.731E-3	-35.7009E-3	99.5051E-12	563.528E-3	4.96644E-3
2.51376E-3	101.130E-12	555.867E-3	-48.9195E-3	99.2456E-12	557.806E-3	174.648E-6
2.50875E-3	101.054E-12	564.316E-3	-53.9814E-3	98.5565E-12	529.028E-3	-24.1035E-3
2.50375E-3	100.683E-12	569.761E-3	-34.6718E-3	98.4149E-12	515.854E-3	-35.3021E-3
2.49875E-3	98.9712E-12	568.661E-3	-23.0650E-3	98.8020E-12	532.216E-3	-42.9875E-3
2.49375E-3	98.7063E-12	561.926E-3	-31.0083E-3	99.4644E-12	555.398E-3	-41.4468E-3
2.48874E-3	99.2884E-12	549.376E-3	-36.7368E-3	99.0025E-12	577.007E-3	-36.4724E-3
2.48374E-3	99.9407E-12	538.849E-3	-31.9543E-3	98.2661E-12	589.042E-3	-40.8372E-3
2.47874E-3	98.9019E-12	541.463E-3	-22.4726E-3	98.2742E-12	578.038E-3	-28.2962E-3
2.47374E-3	98.1109E-12	545.325E-3	6.21077E-3	98.1785E-12	552.962E-3	-6.32494E-3
2.46873E-3	99.1096E-12	547.997E-3	23.2292E-3	98.4902E-12	539.960E-3	-1.66008E-3
2.46373E-3	99.9247E-12	568.550E-3	-10.8365E-3	97.8005E-12	539.308E-3	-8.49010E-3
2.45873E-3	100.612E-12	563.476E-3	-37.9057E-3	96.9856E-12	542.158E-3	-16.9524E-3
2.45373E-3	99.2510E-12	531.966E-3	-31.8899E-3	96.5142E-12	554.762E-3	-27.2129E-3
2.44872E-3	99.2476E-12	542.801E-3	-26.1978E-3	96.8349E-12	551.278E-3	-21.8358E-3
2.44372E-3	99.9754E-12	564.325E-3	-19.1893E-3	95.8348E-12	533.887E-3	-5.39237E-3
2.43872E-3	100.869E-12	545.206E-3	-13.1764E-3	95.1370E-12	541.963E-3	-4.63428E-3
2.43372E-3	98.8298E-12	532.554E-3	-10.3721E-3	94.9012E-12	550.965E-3	692.575E-6
2.42871E-3	97.6043E-12	539.523E-3	-5.38919E-3	94.7217E-12	544.226E-3	17.2985E-3
2.42371E-3	97.1797E-12	540.256E-3	1.16641E-3	94.8762E-12	546.525E-3	16.5053E-3
2.41871E-3	98.5170E-12	540.932E-3	2.56974E-3	94.2594E-12	545.359E-3	-2.52431E-3
2.41371E-3	97.9260E-12	541.206E-3	-10.4253E-3	93.9404E-12	544.958E-3	-22.1137E-3
2.40870E-3	95.9373E-12	539.443E-3	-11.9451E-3	94.0160E-12	558.605E-3	-43.1918E-3
2.40370E-3	95.5424E-12	542.034E-3	1.44125E-3	94.9974E-12	569.742E-3	-61.8884E-3
2.39870E-3	96.1430E-12	540.972E-3	-17.0082E-3	95.5055E-12	574.367E-3	-50.2989E-3
2.39370E-3	96.9808E-12	530.266E-3	-39.2652E-3	94.7748E-12	573.112E-3	-13.7877E-3
2.38869E-3	96.1923E-12	527.415E-3	-25.8769E-3	94.9052E-12	563.729E-3	8.56042E-3
2.38369E-3	94.6218E-12	530.656E-3	-4.65046E-3	96.1812E-12	562.823E-3	14.1237E-3
2.37869E-3	96.3247E-12	531.985E-3	-2.74348E-3	97.0287E-12	568.115E-3	19.0634E-3
2.37369E-3	96.7959E-12	532.505E-3	-18.0520E-3	96.0993E-12	553.356E-3	18.9495E-3
2.36868E-3	96.0307E-12	554.751E-3	-25.1274E-3	95.5189E-12	533.088E-3	-3.70986E-3
2.36368E-3	94.1515E-12	573.114E-3	-13.3729E-3	96.7142E-12	524.047E-3	-25.1044E-3
2.35868E-3	93.9874E-12	547.234E-3	-10.7514E-3	97.9025E-12	529.945E-3	-22.9280E-3
2.35368E-3	94.7223E-12	533.237E-3	-19.1108E-3	96.9034E-12	547.434E-3	-28.9495E-3
2.34867E-3	94.9801E-12	541.824E-3	-24.8296E-3	95.8873E-12	556.012E-3	-32.4632E-3
2.34367E-3	93.1160E-12	544.686E-3	-27.2669E-3	96.2174E-12	543.852E-3	-13.9618E-3
2.33867E-3	92.5206E-12	551.585E-3	-12.7818E-3	96.3768E-12	515.474E-3	3.16613E-3
2.33367E-3	93.2338E-12	557.393E-3	-1.72944E-3	95.4492E-12	512.280E-3	-841.509E-6
2.32866E-3	94.4289E-12	560.978E-3	-9.03776E-3	94.5271E-12	540.348E-3	-19.7917E-3
2.32366E-3	94.0344E-12	566.754E-3	-5.19966E-3	93.8789E-12	544.547E-3	-20.0392E-3
2.31866E-3	92.5874E-12	564.547E-3	-9.88641E-3	93.7745E-12	538.442E-3	-14.0565E-3
2.31366E-3	92.9472E-12	561.973E-3	-21.3607E-3	93.8305E-12	553.868E-3	-18.6205E-3
2.30865E-3	93.6102E-12	555.450E-3	-3.09569E-3	94.3215E-12	570.910E-3	-12.2042E-3
2.30365E-3	94.9471E-12	546.267E-3	16.4807E-3	94.4030E-12	587.925E-3	-2.67275E-3
2.29865E-3	93.8044E-12	562.836E-3	13.1155E-3	94.3833E-12	587.064E-3	-14.2982E-3
2.29365E-3	93.9813E-12	581.977E-3	8.44505E-3	94.4629E-12	569.352E-3	-28.4232E-3
2.28864E-3	94.1917E-12	579.226E-3	8.31839E-3	95.3959E-12	562.264E-3	-28.9204E-3
2.28364E-3	94.3092E-12	568.800E-3	4.78038E-3	96.0872E-12	572.842E-3	-34.5395E-3
2.27864E-3	93.7609E-12	562.744E-3	-1.73569E-3	95.8914E-12	595.188E-3	-38.4214E-3
2.27364E-3	91.7836E-12	557.728E-3	-14.4843E-3	95.7270E-12	603.063E-3	-32.1970E-3
2.26863E-3	91.6389E-12	550.891E-3	-26.4887E-3	95.9545E-12	579.789E-3	-14.1294E-3
2.26363E-3	91.5048E-12	553.896E-3	-29.6789E-3	97.3022E-12	554.433E-3	-1.61264E-3
2.25863E-3	91.2729E-12	568.744E-3	-20.2183E-3	95.7783E-12	558.663E-3	-4.76313E-3
2.25363E-3	90.3154E-12	565.953E-3	-2.73308E-3	94.0940E-12	573.581E-3	-4.15158E-3
2.24862E-3	89.1634E-12	546.623E-3	5.63389E-3	93.8681E-12	565.390E-3	2.36967E-3
2.24362E-3	89.2872E-12	546.941E-3	-12.4400E-3	95.0835E-12	540.915E-3	3.49070E-3
2.23862E-3	89.1246E-12	551.279E-3	-35.1773E-3	92.8841E-12	528.918E-3	-12.8054E-3
2.23362E-3	90.3335E-12	536.158E-3	-29.6517E-3	91.0232E-12	516.484E-3	-40.0064E-3
2.22861E-3	89.7101E-12	527.043E-3	-17.6521E-3	90.8509E-12	515.359E-3	-38.1319E-3
2.22361E-3	89.2685E-12	535.588E-3	-20.3032E-3	91.2994E-12	537.706E-3	-28.2443E-3
2.21861E-3	89.3001E-12	548.073E-3	-28.6054E-3	90.3422E-12	540.220E-3	-44.5355E-3
2.21361E-3	90.3785E-12	547.569E-3	-34.7694E-3	88.3546E-12	537.718E-3	-47.8345E-3
2.20860E-3	90.5819E-12	527.174E-3	-39.5640E-3	88.4128E-12	549.096E-3	-38.5691E-3
2.20360E-3	89.6591E-12	530.363E-3	-34.6553E-3	88.6184E-12	544.242E-3	-23.7209E-3
2.19860E-3	89.8663E-12	553.396E-3	-21.8439E-3	88.5742E-12	537.203E-3	-3.38695E-3
2.19360E-3	89.9204E-12	551.315E-3	-11.7828E-3	87.6626E-12	547.428E-3	8.37312E-3
2.18859E-3	89.8593E-12	535.429E-3	-18.0816E-3	87.3015E-12	555.149E-3	10.4465E-3
2.18359E-3	88.0476E-12	524.520E-3	-20.2257E-3	87.7929E-12	557.297E-3	1.91753E-3
2.17859E-3	87.9536E-12	532.691E-3	-9.06431E-3	88.2796E-12	558.695E-3	-10.0984E-3
2.17359E-3	88.9260E-12	543.091E-3	-17.0445E-3	87.7180E-12	547.238E-3	-21.1270E-3
2.16858E-3	88.5197E-12	534.736E-3	-21.6358E-3	87.5052E-12	531.849E-3	-15.4049E-3
2.16358E-3	87.1010E-12	523.485E-3	-12.1537E-3	88.1641E-12	544.726E-3	-6.84257E-3
2.15858E-3	85.6788E-12	523.993E-3	-18.7197E-3	87.4691E-12	563.118E-3	-24.6699E-3
2.15358E-3	86.3684E-12	537.752E-3	-26.5773E-3	87.3736E-12	549.535E-3	-40.3306E-3
2.14857E-3	86.4604E-12	558.174E-3	-8.48842E-3	86.8253E-12	536.989E-3	-30.1426E-3
2.14357E-3	86.2992E-12	558.649E-3	13.8597E-3	86.7046E-12	537.941E-3	-18.8734E-3
2.13857E-3	85.5789E-12	530.997E-3	8.73950E-3	86.1482E-12	519.783E-3	-2.29272E-3
2.13357E-3	86.6394E-12	507.472E-3	-10.3213E-3	85.0441E-12	512.107E-3	15.1586E-3
2.12856E-3	86.5471E-12	510.157E-3	-13.9774E-3	84.8784E-12	534.555E-3	-5.20437E-3
2.12356E-3	87.4354E-12	526.164E-3	-3.34193E-3	84.4337E-12	547.674E-3	-22.5309E-3
2.11856E-3	87.1497E-12	520.417E-3	7.41552E-3	84.0802E-12	545.650E-3	-9.09293E-3
2.11356E-3	86.2763E-12	510.421E-3	6.30674E-3	82.7803E-12	531.167E-3	-11.0720E-3
2.10855E-3	86.1049E-12	526.240E-3	11.7345E-3	82.9187E-12	529.884E-3	-23.9286E-3
2.10355E-3	86.4886E-12	552.175E-3	23.7573E-3	82.7165E-12	546.415E-3	-30.4339E-3
2.09855E-3	87.2193E-12	559.612E-3	16.5375E-3	82.6727E-12	552.599E-3	-27.3632E-3
2.09355E-3	84.6370E-12	559.098E-3	4.89905E-3	83.1721E-12	544.049E-3	-15.4622E-3
2.08854E-3	84.1983E-12	567.773E-3	9.12469E-3	82.9216E-12	536.276E-3	-6.54033E-3
2.08354E-3	84.4896E-12	559.308E-3	9.66483E-3	83.7723E-12	540.511E-3	1.11375E-3
2.07854E-3	85.5703E-12	546.390E-3	-9.74870E-3	83.8536E-12	532.385E-3	-8.80321E-3
2.07354E-3	83.8153E-12	539.855E-3	-15.2149E-3	84.0913E-12	514.344E-3	-15.1171E-3
2.06853E-3	81.7285E-12	511.731E-3	-8.27535E-3	84.1353E-12	514.764E-3	3.44733E-3
2.06353E-3	82.5028E-12	487.332E-3	-16.2196E-3	84.9512E-12	528.275E-3	3.15157E-3
2.05853E-3	82.9091E-12	504.920E-3	-23.4142E-3	85.4200E-12	538.558E-3	-15.2025E-3
2.05353E-3	83.0812E-12	541.395E-3	-22.3111E-3	85.6901E-12	548.408E-3	-10.8909E-3
2.04852E-3	81.7438E-12	559.035E-3	-16.2032E-3	84.7046E-12	555.841E-3	1.20904E-3
2.04352E-3	81.8701E-12	553.482E-3	-11.5907E-3	84.3975E-12	561.666E-3	-454.669E-6
2.03852E-3	82.4493E-12	539.082E-3	-13.1896E-3	84.7804E-12	572.281E-3	-7.40905E-3
2.03352E-3	83.5099E-12	528.394E-3	7.36159E-3	85.0088E-12	573.011E-3	-12.4492E-3
2.02851E-3	82.6854E-12	532.540E-3	23.6664E-3	84.1534E-12	561.475E-3	-838.623E-6
2.02351E-3	82.2581E-12	547.641E-3	2.17706E-3	82.3533E-12	552.005E-3	12.3723E-3
2.01851E-3	82.6911E-12	558.074E-3	-12.8243E-3	82.3439E-12	541.911E-3	514.884E-6
2.01351E-3	82.1916E-12	568.151E-3	-3.77358E-3	81.6326E-12	527.319E-3	-14.3642E-3
2.00850E-3	82.3814E-12	572.307E-3	2.40392E-3	81.5075E-12	526.658E-3	-4.03515E-3
2.00350E-3	82.2410E-12	565.547E-3	-10.5357E-3	81.2631E-12	543.278E-3	3.82608E-3
1.99850E-3	82.1854E-12	556.062E-3	-14.2661E-3	81.8406E-12	552.443E-3	-6.95989E-3
1.99350E-3	81.5339E-12	542.633E-3	1.98310E-3	80.5999E-12	546.963E-3	-9.92143E-3
1.98849E-3	80.7002E-12	551.487E-3	4.22938E-3	80.8854E-12	543.913E-3	-976.780E-6
1.98349E-3	80.2725E-12	565.488E-3	-1.75535E-3	80.9032E-12	536.528E-3	7.87313E-3
1.97849E-3	80.1330E-12	550.092E-3	-5.62683E-3	81.6980E-12	528.961E-3	8.23024E-3
1.97349E-3	80.2388E-12	546.235E-3	105.251E-6	81.8723E-12	541.248E-3	-7.25373E-3
1.96848E-3	79.6734E-12	559.153E-3	11.3133E-3	81.7031E-12	551.566E-3	-31.6287E-3
1.96348E-3	79.1870E-12	557.230E-3	-7.85723E-3	81.6476E-12	550.906E-3	-32.0715E-3
1.95848E-3	79.2240E-12	555.180E-3	-45.5941E-3	82.0363E-12	546.644E-3	-25.2821E-3
1.95348E-3	79.1608E-12	562.027E-3	-60.9943E-3	82.7798E-12	549.865E-3	-18.1468E-3
1.94847E-3	80.1928E-12	566.152E-3	-58.0044E-3	82.2248E-12	560.235E-3	148.908E-6
1.94347E-3	78.4589E-12	565.265E-3	-32.8181E-3	82.4040E-12	548.962E-3	-993.147E-6
1.93847E-3	78.5617E-12	546.476E-3	-1.46952E-3	81.8801E-12	528.736E-3	-14.3906E-3
1.93347E-3	78.8874E-12	517.662E-3	-118.042E-6	82.5158E-12	528.696E-3	-22.1834E-3
1.92846E-3	79.9683E-12	518.444E-3	-8.23735E-3	81.7538E-12	531.459E-3	-21.2564E-3
1.92346E-3	78.9767E-12	547.516E-3	-4.56863E-3	80.3488E-12	525.094E-3	-15.2588E-3
1.91846E-3	78.3051E-12	561.456E-3	474.941E-6	79.5769E-12	518.244E-3	-16.8059E-3
1.91346E-3	77.9129E-12	556.800E-3	-11.6941E-3	78.5634E-12	515.229E-3	-21.6395E-3
1.90845E-3	77.6424E-12	542.309E-3	-21.0433E-3	79.0810E-12	515.639E-3	-22.9687E-3
1.90345E-3	78.1229E-12	530.069E-3	-20.2872E-3	77.8660E-12	530.394E-3	-19.5219E-3
1.89845E-3	77.9007E-12	537.877E-3	-20.4619E-3	77.8135E-12	549.305E-3	-8.11725E-3
1.89345E-3	77.9914E-12	553.219E-3	-12.7507E-3	76.4709E-12	561.117E-3	-2.54710E-3
1.88844E-3	77.2398E-12	563.119E-3	-14.7715E-3	76.6160E-12	568.925E-3	-4.19694E-3
1.88344E-3	77.6348E-12	558.487E-3	-10.9623E-3	76.1321E-12	546.563E-3	-6.52813E-3
1.87844E-3	78.4585E-12	547.512E-3	280.570E-6	75.0390E-12	522.223E-3	-24.1977E-3
1.87344E-3	78.6831E-12	549.281E-3	-5.08870E-3	75.2335E-12	528.150E-3	-40.1812E-3
1.86843E-3	77.9787E-12	557.131E-3	-11.0005E-3	75.7142E-12	537.848E-3	-33.9280E-3
1.86343E-3	77.7355E-12	553.130E-3	-10.4083E-3	76.7214E-12	544.450E-3	-23.0289E-3
1.85843E-3	78.3935E-12	540.707E-3	-7.81280E-3	76.0148E-12	551.848E-3	-24.1196E-3
1.85343E-3	77.6061E-12	545.574E-3	-14.9852E-3	76.3694E-12	561.654E-3	-33.4983E-3
1.84842E-3	77.8233E-12	552.721E-3	-45.8579E-3	75.8549E-12	586.617E-3	-37.6074E-3
1.84342E-3	76.7577E-12	548.455E-3	-68.8107E-3	76.7421E-12	591.678E-3	-29.2659E-3
1.83842E-3	76.6926E-12	557.980E-3	-48.1219E-3	76.4211E-12	568.386E-3	-11.5443E-3
1.83342E-3	75.5649E-12	571.384E-3	-15.0317E-3	76.1090E-12	552.851E-3	-5.92174E-3
1.82841E-3	75.5251E-12	574.991E-3	-4.68550E-3	75.7893E-12	545.454E-3	-6.17359E-3
1.82341E-3	75.9173E-12	565.545E-3	-14.2964E-3	75.8551E-12	541.799E-3	-188.886E-6
1.81841E-3	75.1123E-12	545.573E-3	-28.9265E-3	75.7942E-12	544.854E-3	-1.37369E-3
1.81341E-3	74.6467E-12	549.011E-3	-35.9825E-3	73.8455E-12	565.340E-3	-8.04034E-3
1.80840E-3	75.1769E-12	556.399E-3	-29.5100E-3	73.8973E-12	575.225E-3	-8.52126E-3
1.80340E-3	75.0540E-12	542.357E-3	-20.7245E-3	72.7505E-12	550.863E-3	-8.73542E-3
1.79840E-3	74.1516E-12	528.791E-3	-13.9112E-3	73.1592E-12	528.591E-3	-12.1477E-3
1.79340E-3	74.1810E-12	520.778E-3	-6.93797E-3	72.3053E-12	528.571E-3	-12.8994E-3
1.78839E-3	74.3961E-12	531.777E-3	-7.45455E-3	71.5134E-12	530.873E-3	-18.8223E-3
1.78339E-3	74.4276E-12	555.506E-3	1.05029E-3	71.4966E-12	534.855E-3	-27.9266E-3
1.77839E-3	74.7439E-12	568.912E-3	3.30022E-3	71.7330E-12	552.626E-3	-29.5609E-3
1.77339E-3	74.2815E-12	574.657E-3	-21.5790E-3	71.4611E-12	560.788E-3	-17.8504E-3
1.76838E-3	73.9420E-12	560.485E-3	-27.8499E-3	71.5789E-12	558.303E-3	5.67119E-3
1.76338E-3	73.6180E-12	542.068E-3	-6.33047E-3	72.5641E-12	557.540E-3	29.9522E-3
1.75838E-3	73.9798E-12	547.856E-3	-2.01583E-3	72.1000E-12	549.998E-3	26.1963E-3
1.75338E-3	74.0209E-12	553.114E-3	-16.2920E-3	72.2023E-12	543.049E-3	-7.69657E-3
1.74837E-3	72.4788E-12	543.379E-3	-19.9881E-3	72.3436E-12	554.287E-3	-25.2845E-3
1.74337E-3	71.7141E-12	537.486E-3	-18.8606E-3	73.2785E-12	568.967E-3	-21.7425E-3
1.73837E-3	71.6404E-12	555.144E-3	-7.99767E-3	73.7008E-12	561.985E-3	-19.6091E-3
1.73337E-3	72.1929E-12	568.006E-3	7.17705E-3	72.7621E-12	563.036E-3	-16.2283E-3
1.72836E-3	71.0819E-12	554.188E-3	-8.58143E-3	73.8813E-12	578.420E-3	-18.7157E-3
1.72336E-3	70.3506E-12	545.863E-3	-37.6132E-3	72.6518E-12	568.951E-3	-19.7348E-3
1.71836E-3	70.0072E-12	552.622E-3	-49.0161E-3	73.9899E-12	556.901E-3	-18.0698E-3
1.71336E-3	70.7049E-12	561.197E-3	-44.4809E-3	72.2867E-12	555.405E-3	-14.3927E-3
1.70835E-3	70.2689E-12	566.216E-3	-39.9356E-3	71.7890E-12	546.375E-3	-4.31168E-3
1.70335E-3	69.9873E-12	562.557E-3	-40.3093E-3	70.7966E-12	554.371E-3	-1.55933E-3
1.69835E-3	69.7753E-12	548.906E-3	-45.1261E-3	70.7691E-12	565.610E-3	-5.60847E-3
1.69335E-3	70.6783E-12	541.430E-3	-50.9030E-3	70.3088E-12	562.047E-3	-5.99466E-3
1.68834E-3	71.2602E-12	538.826E-3	-40.8131E-3	68.4521E-12	557.598E-3	-7.50086E-3
1.68334E-3	70.9624E-12	533.484E-3	-24.3199E-3	68.8985E-12	549.516E-3	-8.43018E-3
1.67834E-3	70.7596E-12	545.823E-3	-10.7536E-3	69.0157E-12	546.942E-3	-598.964E-6
1.67334E-3	70.7656E-12	563.673E-3	-111.171E-6	69.4800E-12	554.588E-3	-1.15449E-3
1.66833E-3	70.6066E-12	558.455E-3	-5.39378E-3	67.9766E-12	557.681E-3	3.44122E-3
1.66333E-3	69.8780E-12	546.249E-3	-16.9943E-3	68.7177E-12	555.929E-3	2.53806E-3
1.65833E-3	68.9048E-12	541.288E-3	-24.3944E-3	70.1705E-12	554.037E-3	-14.0448E-3
1.65333E-3	69.0861E-12	541.251E-3	-17.6394E-3	70.3829E-12	559.391E-3	-26.4352E-3
1.64832E-3	68.4240E-12	545.558E-3	-4.70148E-3	69.2071E-12	573.804E-3	-35.6516E-3
1.64332E-3	68.0168E-12	543.553E-3	-17.9171E-3	69.5067E-12	564.528E-3	-20.0596E-3
1.63832E-3	67.5480E-12	529.709E-3	-39.0158E-3	70.8229E-12	549.342E-3	3.34550E-3
1.63332E-3	67.5883E-12	519.692E-3	-30.7537E-3	71.1975E-12	559.044E-3	-5.32268E-3
1.62831E-3	67.5431E-12	531.467E-3	-5.82532E-3	69.6071E-12	573.726E-3	-19.2738E-3
1.62331E-3	67.4350E-12	552.174E-3	3.10320E-3	69.0357E-12	586.524E-3	-22.6294E-3
1.61831E-3	67.9274E-12	551.599E-3	-2.35063E-3	68.9681E-12	576.402E-3	-31.8335E-3
1.61331E-3	67.6100E-12	550.573E-3	-5.70282E-3	69.3957E-12	549.290E-3	-34.2866E-3
1.60830E-3	67.5461E-12	567.819E-3	-14.7699E-3	67.6557E-12	546.669E-3	-16.5743E-3
1.60330E-3	67.9675E-12	574.066E-3	-25.8508E-3	66.8666E-12	545.543E-3	5.40969E-3
1.59830E-3	67.7932E-12	560.651E-3	-27.3027E-3	66.0621E-12	533.741E-3	3.75077E-3
1.59330E-3	68.3864E-12	545.604E-3	-28.5620E-3	66.1313E-12	536.803E-3	-13.2445E-3
1.58829E-3	68.3769E-12	558.066E-3	-21.6591E-3	64.7170E-12	548.645E-3	-25.2966E-3
1.58329E-3	68.7708E-12	585.598E-3	-6.25376E-3	64.3708E-12	557.051E-3	-25.8797E-3
1.57829E-3	67.5169E-12	587.400E-3	-11.2116E-3	63.5077E-12	554.106E-3	-13.5373E-3
1.57329E-3	67.2363E-12	579.987E-3	-20.6570E-3	63.3954E-12	553.193E-3	-13.2803E-3
1.56828E-3	66.5819E-12	577.426E-3	-9.28995E-3	63.4596E-12	546.385E-3	-18.3791E-3
1.56328E-3	66.4630E-12	574.691E-3	3.01051E-3	63.2217E-12	536.640E-3	-8.25404E-3
1.55828E-3	65.8281E-12	575.854E-3	4.26107E-3	62.9813E-12	540.190E-3	-8.55334E-3
1.55328E-3	64.9563E-12	566.832E-3	6.03424E-3	62.5177E-12	535.850E-3	-19.3129E-3
1.54827E-3	65.2155E-12	554.612E-3	2.22905E-3	63.2029E-12	527.666E-3	-20.2264E-3
1.54327E-3	65.3702E-12	564.245E-3	-5.15959E-3	64.1392E-12	537.904E-3	-19.8780E-3
1.53827E-3	65.1690E-12	572.666E-3	-11.8586E-3	64.1835E-12	558.091E-3	-12.7545E-3
1.53327E-3	64.3420E-12	556.151E-3	-22.6699E-3	63.8353E-12	563.753E-3	3.60272E-3
1.52826E-3	64.7180E-12	546.732E-3	-17.3155E-3	64.0145E-12	563.082E-3	2.04228E-3
1.52326E-3	65.4508E-12	556.306E-3	-5.96961E-3	64.5289E-12	573.549E-3	-20.8208E-3
1.51826E-3	64.9541E-12	567.369E-3	-13.0050E-3	64.8432E-12	576.668E-3	-46.6730E-3
1.51326E-3	64.0332E-12	562.292E-3	-8.34644E-3	64.0490E-12	562.152E-3	-45.2188E-3
1.50825E-3	64.5269E-12	540.660E-3	5.60883E-3	63.1782E-12	548.849E-3	-20.7828E-3
1.50325E-3	65.3971E-12	536.928E-3	-5.20030E-3	63.5861E-12	548.566E-3	-12.7131E-3
1.49825E-3	64.7301E-12	543.232E-3	-26.8303E-3	63.9934E-12	553.200E-3	-19.0434E-3
1.49325E-3	63.7461E-12	543.734E-3	-34.2529E-3	63.1925E-12	545.539E-3	-23.6609E-3
1.48824E-3	63.4251E-12	554.273E-3	-30.3980E-3	62.1142E-12	531.180E-3	-18.5386E-3
1.48324E-3	63.9165E-12	553.243E-3	-39.3764E-3	61.2913E-12	526.983E-3	-6.01324E-3
1.47824E-3	63.6252E-12	541.367E-3	-50.0495E-3	62.0500E-12	528.843E-3	-5.44875E-3
1.47324E-3	63.5557E-12	536.248E-3	-33.2369E-3	62.3879E-12	525.922E-3	-10.8234E-3
1.46823E-3	62.6044E-12	536.682E-3	-18.8849E-3	60.9865E-12	519.941E-3	-9.84427E-3
1.46323E-3	63.4232E-12	546.784E-3	-18.9330E-3	60.4514E-12	516.678E-3	-21.7350E-3
1.45823E-3	63.5439E-12	551.452E-3	-4.44352E-3	60.9192E-12	517.824E-3	-27.4117E-3
1.45323E-3	63.2526E-12	541.432E-3	4.90226E-3	61.7106E-12	514.988E-3	-15.0227E-3
1.44822E-3	62.0838E-12	524.810E-3	3.54408E-3	62.1788E-12	509.299E-3	-16.1858E-3
1.44322E-3	62.2001E-12	501.941E-3	7.06675E-3	61.0843E-12	520.892E-3	-24.9219E-3
1.43822E-3	63.1544E-12	487.694E-3	9.70428E-3	60.9593E-12	531.404E-3	-16.9555E-3
1.43322E-3	62.8927E-12	483.245E-3	6.69329E-3	61.9957E-12	514.599E-3	-13.1621E-3
1.42821E-3	62.0700E-12	490.852E-3	463.353E-6	63.2574E-12	503.411E-3	-24.8789E-3
1.42321E-3	60.6071E-12	518.839E-3	463.814E-6	62.7699E-12	518.098E-3	-25.9576E-3
1.41821E-3	61.2121E-12	531.478E-3	-9.86664E-3	61.6067E-12	527.113E-3	-20.0529E-3
1.41321E-3	61.4971E-12	515.010E-3	-30.6791E-3	61.7391E-12	517.435E-3	-17.1088E-3
1.40820E-3	60.3444E-12	507.298E-3	-39.5025E-3	62.8832E-12	505.180E-3	-7.43296E-3
1.40320E-3	59.4569E-12	518.165E-3	-32.8284E-3	62.4364E-12	496.600E-3	-3.95025E-3
1.39820E-3	59.1173E-12	523.146E-3	-18.3749E-3	61.0554E-12	483.907E-3	-12.2390E-3
1.39320E-3	59.9848E-12	506.744E-3	-17.3339E-3	60.7122E-12	467.406E-3	-7.44182E-3
1.38819E-3	60.8088E-12	484.410E-3	-24.4905E-3	61.3089E-12	458.574E-3	-1.62805E-3
1.38319E-3	59.3313E-12	471.366E-3	-11.5691E-3	60.9412E-12	441.864E-3	-14.0175E-3
1.37819E-3	57.4645E-12	468.674E-3	5.82506E-3	59.8718E-12	438.997E-3	-13.8264E-3
1.37319E-3	57.7283E-12	479.264E-3	9.78890E-3	58.6780E-12	457.674E-3	-5.28227E-3
1.36818E-3	59.9617E-12	480.644E-3	17.8371E-3	58.6420E-12	443.886E-3	-15.8231E-3
1.36318E-3	60.6275E-12	466.925E-3	20.1000E-3	58.9226E-12	419.849E-3	-10.9128E-3
1.35818E-3	58.6839E-12	465.685E-3	4.84345E-3	58.6767E-12	423.969E-3	5.10451E-3
1.35318E-3	57.4867E-12	472.502E-3	-5.39689E-3	58.0658E-12	431.220E-3	6.67281E-3
1.34817E-3	58.8704E-12	474.398E-3	-5.77551E-3	57.3881E-12	424.611E-3	6.18338E-3
1.34317E-3	60.1748E-12	478.439E-3	-16.8652E-3	57.8904E-12	419.515E-3	-11.0832E-3
1.33817E-3	59.6004E-12	459.656E-3	-35.0506E-3	58.4320E-12	425.265E-3	-31.9614E-3
1.33317E-3	57.4467E-12	427.116E-3	-39.2955E-3	58.3737E-12	433.377E-3	-33.8351E-3
1.32816E-3	57.6291E-12	420.414E-3	-29.4970E-3	58.1953E-12	436.756E-3	-27.7527E-3
1.32316E-3	58.4507E-12	428.241E-3	-23.9190E-3	58.5473E-12	445.585E-3	-28.7958E-3
1.31816E-3	59.1097E-12	427.371E-3	-27.6305E-3	60.1566E-12	445.938E-3	-30.9414E-3
1.31316E-3	57.2456E-12	432.458E-3	-17.7735E-3	60.4503E-12	412.532E-3	-16.9918E-3
1.30815E-3	56.6900E-12	446.377E-3	107.057E-6	59.4610E-12	373.543E-3	3.80796E-3
1.30315E-3	57.3963E-12	425.394E-3	-10.8369E-3	59.0291E-12	371.342E-3	15.2969E-3
1.29815E-3	57.7821E-12	390.479E-3	-35.1744E-3	59.1986E-12	383.160E-3	15.5005E-3
1.29315E-3	57.3813E-12	384.729E-3	-38.8374E-3	58.6227E-12	365.658E-3	1.66206E-3
1.28814E-3	55.2642E-12	374.527E-3	-26.0818E-3	57.1875E-12	337.200E-3	-6.75355E-3
1.28314E-3	55.7831E-12	350.481E-3	-11.4786E-3	56.8013E-12	340.528E-3	12.6836E-3
1.27814E-3	56.8918E-12	340.243E-3	821.464E-6	56.7745E-12	348.586E-3	14.5806E-3
1.27314E-3	58.0242E-12	341.064E-3	-852.181E-6	55.9537E-12	317.763E-3	-11.0309E-3
1.26813E-3	56.4066E-12	344.574E-3	-9.49915E-3	54.9095E-12	300.549E-3	-25.4755E-3
1.26313E-3	55.7538E-12	338.596E-3	-9.45162E-3	53.9098E-12	314.553E-3	-33.1718E-3
1.25813E-3	56.7162E-12	320.672E-3	-3.52908E-3	54.4004E-12	313.929E-3	-35.5172E-3
1.25313E-3	58.7828E-12	314.512E-3	2.16311E-3	54.4009E-12	305.114E-3	-22.3750E-3
1.24812E-3	57.9500E-12	320.966E-3	2.10359E-3	54.0204E-12	296.571E-3	-835.938E-6
1.24312E-3	56.0690E-12	320.287E-3	4.77035E-3	53.1675E-12	286.129E-3	12.7469E-3
1.23812E-3	56.1948E-12	313.042E-3	-12.7629E-3	54.1225E-12	280.035E-3	8.45027E-3
1.23312E-3	56.2086E-12	318.878E-3	-43.0446E-3	54.4988E-12	279.818E-3	-5.94939E-3
1.22811E-3	56.6059E-12	327.186E-3	-45.3127E-3	54.3159E-12	290.727E-3	-13.7290E-3
1.22311E-3	55.0940E-12	318.623E-3	-34.7662E-3	53.8192E-12	302.232E-3	-10.9580E-3
1.21811E-3	54.0816E-12	307.808E-3	-19.9489E-3	54.7687E-12	297.404E-3	-6.96140E-3
1.21311E-3	54.4517E-12	302.271E-3	-2.10549E-3	56.1792E-12	284.864E-3	-7.27821E-3
1.20810E-3	54.8860E-12	283.640E-3	-706.979E-6	55.9926E-12	276.629E-3	-3.54430E-3
1.20310E-3	54.3544E-12	269.351E-3	-4.59115E-3	55.1609E-12	263.065E-3	-3.26486E-3
1.19810E-3	53.0381E-12	268.645E-3	-6.03246E-3	55.1667E-12	242.105E-3	-13.3364E-3
1.19310E-3	53.3852E-12	256.962E-3	-14.1117E-3	55.2781E-12	229.573E-3	-22.1362E-3
1.18809E-3	53.6199E-12	244.805E-3	-19.5861E-3	55.7632E-12	224.482E-3	-24.4465E-3
1.18309E-3	54.5129E-12	234.990E-3	-8.60924E-3	54.3546E-12	213.166E-3	-20.2953E-3
1.17809E-3	54.2470E-12	225.518E-3	-108.887E-6	53.6275E-12	207.670E-3	-18.4614E-3
1.17309E-3	54.6912E-12	226.298E-3	-11.8733E-3	53.8117E-12	210.018E-3	-18.6289E-3
1.16808E-3	54.9007E-12	239.827E-3	-13.9624E-3	53.4322E-12	207.727E-3	-24.5246E-3
1.16308E-3	55.2975E-12	261.820E-3	-12.3438E-3	53.6739E-12	224.814E-3	-27.5516E-3
1.15808E-3	54.9824E-12	263.899E-3	-26.1905E-3	53.0008E-12	242.442E-3	-15.5456E-3
1.15308E-3	54.6077E-12	244.016E-3	-33.4497E-3	52.3282E-12	230.827E-3	-8.31510E-3
1.14807E-3	55.6866E-12	222.996E-3	-33.1460E-3	52.6298E-12	216.237E-3	-19.8938E-3
1.14307E-3	55.5335E-12	213.541E-3	-29.9972E-3	53.0198E-12	205.547E-3	-34.1485E-3
1.13807E-3	54.9577E-12	221.303E-3	-14.8245E-3	52.6110E-12	199.011E-3	-43.7795E-3
1.13307E-3	53.7735E-12	221.943E-3	-1.12747E-3	52.1958E-12	200.741E-3	-47.0151E-3
1.12806E-3	55.0722E-12	220.951E-3	-10.4968E-3	52.5792E-12	193.898E-3	-30.8884E-3
1.12306E-3	54.5259E-12	225.102E-3	-25.7517E-3	53.2372E-12	189.141E-3	-21.6474E-3
1.11806E-3	53.7249E-12	211.149E-3	-22.9648E-3	53.5396E-12	202.679E-3	-33.9546E-3
1.11306E-3	52.7827E-12	195.664E-3	-22.5771E-3	52.9745E-12	224.485E-3	-39.7006E-3
1.10805E-3	52.6581E-12	191.523E-3	-33.7962E-3	53.4215E-12	234.639E-3	-31.4336E-3
1.10305E-3	53.1742E-12	183.529E-3	-38.3578E-3	54.3780E-12	213.709E-3	-21.4533E-3
1.09805E-3	52.3810E-12	175.321E-3	-40.1804E-3	55.6821E-12	182.840E-3	-12.3326E-3
1.09305E-3	52.6004E-12	183.753E-3	-36.5700E-3	54.7990E-12	179.504E-3	-27.4230E-3
1.08804E-3	51.3338E-12	199.022E-3	-10.4352E-3	54.3132E-12	182.948E-3	-47.2781E-3
1.08304E-3	52.2280E-12	189.615E-3	9.49075E-3	54.0606E-12	179.679E-3	-28.5159E-3
1.07804E-3	52.1235E-12	169.536E-3	-3.36947E-3	55.1182E-12	176.160E-3	-6.29634E-3
1.07304E-3	53.0206E-12	172.212E-3	-15.3408E-3	54.3772E-12	164.637E-3	-703.125E-6
1.06803E-3	52.0086E-12	177.003E-3	-18.2747E-3	53.4371E-12	163.363E-3	-3.03776E-3
1.06303E-3	51.9570E-12	170.934E-3	-20.6232E-3	53.3598E-12	167.056E-3	-21.7595E-3
1.05803E-3	52.8091E-12	168.257E-3	-13.7428E-3	53.6246E-12	169.870E-3	-27.5297E-3
1.05303E-3	52.3418E-12	164.521E-3	-10.5277E-3	53.1839E-12	186.234E-3	-7.09234E-3
1.04802E-3	52.7685E-12	165.689E-3	-11.8263E-3	52.2209E-12	203.912E-3	298.113E-6
1.04302E-3	51.6932E-12	174.689E-3	-3.82189E-3	51.8819E-12	203.974E-3	-11.4067E-3
1.03802E-3	52.4001E-12	173.599E-3	1.58753E-3	51.9574E-12	194.693E-3	-22.1999E-3
1.03302E-3	52.1969E-12	167.995E-3	-12.1897E-3	52.4922E-12	192.436E-3	-30.1764E-3
1.02801E-3	51.5582E-12	167.592E-3	-22.3747E-3	52.5963E-12	198.415E-3	-36.8067E-3
1.02301E-3	51.1376E-12	173.171E-3	-15.1949E-3	52.0785E-12	210.975E-3	-37.5216E-3
1.01801E-3	51.3775E-12	179.250E-3	-13.3371E-3	52.4257E-12	216.220E-3	-36.5576E-3
1.01301E-3	52.5350E-12	182.425E-3	-25.3071E-3	52.4356E-12	211.526E-3	-40.1097E-3
1.00800E-3	51.7220E-12	193.834E-3	-29.7127E-3	52.9880E-12	212.348E-3	-33.5086E-3
1.00300E-3	51.7971E-12	200.055E-3	-18.8751E-3	52.7464E-12	216.614E-3	-10.8460E-3
997.999E-6	51.2522E-12	199.929E-3	-16.2954E-3	52.9757E-12	218.364E-3	2.29231E-3
992.997E-6	52.5754E-12	209.633E-3	-16.8273E-3	53.7147E-12	231.237E-3	-4.62953E-3
987.994E-6	51.4638E-12	218.578E-3	-3.50790E-3	53.3544E-12	251.238E-3	-11.7615E-3
982.991E-6	51.2309E-12	220.152E-3	1.64686E-3	52.4303E-12	260.010E-3	-8.27253E-3
977.989E-6	50.6370E-12	222.271E-3	7.72394E-3	52.5356E-12	266.157E-3	-5.00112E-3
972.986E-6	51.1259E-12	223.249E-3	14.0525E-3	52.4482E-12	273.176E-3	-14.6884E-3
967.984E-6	52.3403E-12	235.174E-3	673.462E-6	51.9353E-12	267.917E-3	-18.9715E-3
962.981E-6	51.5481E-12	249.365E-3	-17.3538E-3	50.8756E-12	263.985E-3	-18.6815E-3
957.979E-6	51.3253E-12	252.016E-3	-22.3142E-3	50.7802E-12	270.635E-3	-31.5931E-3
952.976E-6	50.2262E-12	255.585E-3	-11.6179E-3	51.2277E-12	273.400E-3	-29.5705E-3
947.974E-6	51.4972E-12	256.803E-3	-7.36796E-3	50.2637E-12	280.017E-3	-3.03625E-3
942.971E-6	51.4281E-12	255.882E-3	-16.6460E-3	49.1151E-12	296.835E-3	3.22933E-3
937.969E-6	50.8659E-12	262.943E-3	-19.5432E-3	48.7509E-12	308.115E-3	-15.2594E-3
932.966E-6	49.9830E-12	271.135E-3	-14.0446E-3	49.1166E-12	312.055E-3	-32.2521E-3
927.964E-6	50.3364E-12	285.822E-3	-8.85508E-3	48.6071E-12	324.046E-3	-38.3206E-3
922.961E-6	51.0594E-12	306.985E-3	-9.20401E-3	48.2717E-12	334.610E-3	-29.8085E-3
917.959E-6	50.2983E-12	306.861E-3	-23.4748E-3	48.6760E-12	341.453E-3	-16.5494E-3
912.956E-6	50.2432E-12	303.986E-3	-29.8593E-3	49.4925E-12	360.818E-3	-14.3166E-3
907.954E-6	49.5702E-12	323.060E-3	-20.4524E-3	48.6753E-12	385.919E-3	-28.4897E-3
902.951E-6	50.1426E-12	343.243E-3	-15.9431E-3	49.1882E-12	410.163E-3	-34.0808E-3
897.949E-6	50.0575E-12	361.665E-3	-8.72094E-3	49.3567E-12	440.663E-3	-28.4599E-3
892.946E-6	50.3264E-12	386.368E-3	-7.23227E-3	49.9840E-12	467.984E-3	-28.6465E-3
887.944E-6	50.0758E-12	402.915E-3	-12.7224E-3	50.5503E-12	473.008E-3	-26.9252E-3
882.941E-6	49.6801E-12	413.883E-3	-3.02019E-3	50.3136E-12	479.198E-3	-17.8690E-3
877.939E-6	49.7546E-12	426.837E-3	-4.70279E-3	50.6033E-12	502.098E-3	-7.83279E-3
872.936E-6	49.4678E-12	427.617E-3	-22.7511E-3	50.9410E-12	519.455E-3	-7.17391E-3
867.934E-6	49.6315E-12	432.514E-3	-29.0046E-3	50.4690E-12	530.948E-3	-14.1715E-3
862.931E-6	49.5381E-12	454.089E-3	-25.5423E-3	49.8946E-12	541.242E-3	-5.34153E-3
857.929E-6	50.2129E-12	480.094E-3	-24.0374E-3	49.0545E-12	545.225E-3	5.91448E-3
852.926E-6	50.0784E-12	507.478E-3	-38.7782E-3	48.5306E-12	557.698E-3	3.89989E-3
847.924E-6	49.5727E-12	522.395E-3	-49.2267E-3	48.2571E-12	563.819E-3	12.8071E-3
842.921E-6	49.3644E-12	530.218E-3	-22.3538E-3	47.8775E-12	558.308E-3	8.36561E-3
837.919E-6	49.8747E-12	540.214E-3	-3.48578E-3	47.0407E-12	577.875E-3	-18.2673E-3
832.916E-6	49.6507E-12	562.444E-3	-19.0337E-3	46.1191E-12	602.567E-3	-34.6988E-3
827.914E-6	49.4698E-12	600.532E-3	-27.4805E-3	45.7356E-12	620.657E-3	-35.6123E-3
822.911E-6	49.6751E-12	621.744E-3	-27.8800E-3	46.2128E-12	656.734E-3	-37.2498E-3
817.909E-6	49.9210E-12	631.128E-3	-31.0271E-3	45.6415E-12	693.472E-3	-26.3534E-3
812.906E-6	49.1369E-12	652.634E-3	-20.5463E-3	45.1793E-12	714.999E-3	-2.63805E-3
807.904E-6	47.8398E-12	683.112E-3	-13.7265E-3	45.1261E-12	740.936E-3	-225.133E-6
802.901E-6	47.7876E-12	707.666E-3	-35.6268E-3	46.0948E-12	776.663E-3	-10.1056E-3
797.899E-6	47.4925E-12	721.316E-3	-46.7530E-3	46.2085E-12	817.222E-3	-24.1610E-3
792.896E-6	46.7437E-12	732.263E-3	-26.0619E-3	46.2562E-12	849.037E-3	-23.6727E-3
787.894E-6	45.6909E-12	747.963E-3	-2.19784E-3	46.6419E-12	865.167E-3	-10.0802E-3
782.891E-6	45.1580E-12	761.522E-3	7.67534E-3	46.4943E-12	876.786E-3	-11.8458E-3
777.889E-6	45.4211E-12	755.941E-3	-1.81330E-3	47.1336E-12	884.782E-3	-3.77094E-3
772.886E-6	44.8950E-12	758.495E-3	-23.4550E-3	46.2424E-12	905.322E-3	18.8209E-3
767.884E-6	44.2060E-12	785.930E-3	-22.1622E-3	45.7694E-12	929.848E-3	18.0732E-3
762.881E-6	44.1455E-12	811.913E-3	627.625E-6	45.5575E-12	942.757E-3	5.12541E-3
757.879E-6	43.9167E-12	831.395E-3	-1.89668E-3	45.4152E-12	956.316E-3	3.26997E-3
752.876E-6	43.7890E-12	860.110E-3	-20.4912E-3	44.3297E-12	966.523E-3	-419.443E-6
747.874E-6	43.7863E-12	896.979E-3	-31.7137E-3	43.9360E-12	975.668E-3	-10.9965E-3
742.871E-6	43.4840E-12	925.402E-3	-40.4094E-3	43.0266E-12	991.017E-3	-18.2752E-3
737.869E-6	43.7093E-12	945.826E-3	-33.0343E-3	42.6254E-12	1.00202E+0	-15.4886E-3
732.866E-6	43.8463E-12	968.246E-3	-13.8050E-3	42.0508E-12	1.01346E+0	-23.6231E-3
727.864E-6	43.2582E-12	987.856E-3	-13.7396E-3	40.6128E-12	1.03805E+0	-31.3279E-3
722.861E-6	42.0521E-12	1.01027E+0	-31.0820E-3	39.5261E-12	1.06092E+0	-20.8832E-3
717.859E-6	41.9839E-12	1.04374E+0	-32.6915E-3	39.7185E-12	1.07849E+0	-13.9350E-3
712.856E-6	42.0527E-12	1.07565E+0	-25.2194E-3	40.1677E-12	1.11046E+0	-12.8535E-3
707.854E-6	41.8363E-12	1.10892E+0	-21.4717E-3	39.7128E-12	1.15246E+0	-14.0507E-3
702.851E-6	40.6141E-12	1.14273E+0	-6.21796E-3	38.8104E-12	1.17887E+0	-11.0107E-3
697.849E-6	39.9272E-12	1.16018E+0	-226.493E-6	38.6373E-12	1.20737E+0	-1.53815E-3
692.846E-6	40.1044E-12	1.16695E+0	-7.40643E-3	39.2312E-12	1.25264E+0	-4.95922E-3
687.844E-6	39.5341E-12	1.18158E+0	-9.39901E-3	39.2718E-12	1.29092E+0	-19.7124E-3
682.841E-6	38.6914E-12	1.20417E+0	-11.5900E-3	38.8875E-12	1.30812E+0	-16.3690E-3
677.839E-6	37.5243E-12	1.20834E+0	-5.97967E-3	38.5224E-12	1.30900E+0	-3.05189E-3
672.836E-6	37.3221E-12	1.20311E+0	-2.71345E-3	39.0806E-12	1.32218E+0	-1.60999E-3
667.834E-6	37.7511E-12	1.21435E+0	-14.1493E-3	38.4861E-12	1.35011E+0	-14.4622E-3
662.831E-6	37.1526E-12	1.23996E+0	-19.5686E-3	37.2647E-12	1.36499E+0	-38.4266E-3
657.829E-6	36.4636E-12	1.27245E+0	-9.72009E-3	36.9156E-12	1.35656E+0	-38.6690E-3
652.826E-6	35.9133E-12	1.29237E+0	-466.875E-6	36.7300E-12	1.34981E+0	-10.1750E-3
647.824E-6	35.6797E-12	1.30381E+0	-8.51172E-3	36.2612E-12	1.36544E+0	1.59471E-3
642.821E-6	35.2392E-12	1.31731E+0	-22.7098E-3	34.9684E-12	1.37361E+0	-8.86517E-3
637.819E-6	34.7123E-12	1.32004E+0	-21.9264E-3	34.3154E-12	1.36322E+0	-20.3042E-3
632.816E-6	34.5394E-12	1.32941E+0	-15.7694E-3	33.8348E-12	1.35923E+0	-25.8105E-3
627.814E-6	34.4638E-12	1.35629E+0	-14.0453E-3	33.1301E-12	1.36361E+0	-31.0917E-3
622.811E-6	33.1937E-12	1.37927E+0	-19.3486E-3	32.0634E-12	1.36587E+0	-25.2657E-3
617.809E-6	32.5738E-12	1.39334E+0	-26.3711E-3	31.4911E-12	1.37073E+0	-10.3632E-3
612.806E-6	32.6101E-12	1.40402E+0	-13.1227E-3	30.9207E-12	1.38257E+0	-14.6603E-3
607.804E-6	32.5593E-12	1.41339E+0	2.28224E-3	30.5725E-12	1.40180E+0	-14.6987E-3
602.801E-6	31.5741E-12	1.42696E+0	-7.00053E-3	30.3128E-12	1.42599E+0	-9.24961E-3
597.799E-6	30.5271E-12	1.44807E+0	-15.9374E-3	29.7868E-12	1.45130E+0	-27.0090E-3
592.796E-6	30.4891E-12	1.44913E+0	-9.97995E-3	29.5894E-12	1.47412E+0	-38.7718E-3
587.794E-6	30.8702E-12	1.43794E+0	-14.4489E-3	29.2827E-12	1.48919E+0	-21.8240E-3
582.791E-6	29.5371E-12	1.46378E+0	-15.3569E-3	29.4775E-12	1.48546E+0	-8.62730E-3
577.789E-6	28.6754E-12	1.50170E+0	958.374E-6	28.8108E-12	1.48514E+0	-10.2318E-3
572.786E-6	29.0289E-12	1.50375E+0	5.04202E-3	28.3475E-12	1.51131E+0	-14.1417E-3
567.784E-6	28.5227E-12	1.49072E+0	-9.01372E-3	27.7294E-12	1.52355E+0	-22.2428E-3
562.781E-6	27.6624E-12	1.48967E+0	-26.6411E-3	27.4934E-12	1.51206E+0	-26.4386E-3
557.779E-6	27.2279E-12	1.50522E+0	-30.5781E-3	27.6568E-12	1.51192E+0	-18.6036E-3
552.776E-6	27.6023E-12	1.52486E+0	-14.7988E-3	26.7443E-12	1.53118E+0	-4.63414E-3
547.774E-6	26.9958E-12	1.53168E+0	-8.73977E-3	25.9986E-12	1.54659E+0	-7.72673E-3
542.771E-6	25.6433E-12	1.53685E+0	-12.6709E-3	25.2937E-12	1.52084E+0	-26.1793E-3
537.769E-6	25.2400E-12	1.54091E+0	-4.66359E-3	25.6418E-12	1.47730E+0	-29.2582E-3
532.766E-6	25.3062E-12	1.53929E+0	2.49509E-3	24.9264E-12	1.45898E+0	-22.5431E-3
527.764E-6	24.8440E-12	1.54579E+0	-3.03291E-3	23.6454E-12	1.45599E+0	-30.4071E-3
522.761E-6	24.1088E-12	1.56651E+0	-15.1495E-3	23.0839E-12	1.45184E+0	-34.4432E-3
517.759E-6	23.3641E-12	1.57678E+0	-15.8491E-3	22.7541E-12	1.44219E+0	-18.7397E-3
512.756E-6	22.9848E-12	1.55854E+0	-9.50001E-3	22.7496E-12	1.44696E+0	-2.57656E-3
507.754E-6	22.6558E-12	1.53518E+0	-13.6199E-3	21.7259E-12	1.45617E+0	-4.22598E-3
502.751E-6	22.0879E-12	1.52638E+0	-11.1943E-3	21.2512E-12	1.43774E+0	-11.7060E-3
497.749E-6	21.4881E-12	1.52174E+0	-3.95837E-3	20.7655E-12	1.41839E+0	-10.0653E-3
492.746E-6	20.7481E-12	1.51364E+0	-9.43855E-3	20.8068E-12	1.42709E+0	-16.2342E-3
487.744E-6	20.0718E-12	1.49428E+0	-14.1639E-3	20.0654E-12	1.44717E+0	-23.6309E-3
482.741E-6	19.8165E-12	1.46110E+0	-11.6491E-3	19.5393E-12	1.45898E+0	-13.4091E-3
477.739E-6	19.5041E-12	1.45178E+0	-12.4180E-3	19.3466E-12	1.45785E+0	-1.72834E-3
472.736E-6	18.7193E-12	1.46428E+0	-2.10861E-3	19.3185E-12	1.44649E+0	-977.042E-6
467.734E-6	17.8521E-12	1.45620E+0	7.68215E-3	19.0256E-12	1.44372E+0	-6.51277E-3
462.731E-6	17.3866E-12	1.43684E+0	-8.33516E-3	18.3634E-12	1.44895E+0	-10.8414E-3
457.729E-6	17.4306E-12	1.41457E+0	-17.6879E-3	18.0784E-12	1.44264E+0	-6.57506E-3
452.726E-6	16.9993E-12	1.39465E+0	-10.4984E-3	17.8490E-12	1.40919E+0	-6.19542E-3
447.724E-6	16.2926E-12	1.39764E+0	-7.09194E-3	17.4949E-12	1.37163E+0	-21.5760E-3
442.721E-6	15.8146E-12	1.38903E+0	-8.86013E-3	17.1013E-12	1.34928E+0	-31.3866E-3
437.719E-6	15.9775E-12	1.34512E+0	-13.0719E-3	16.2836E-12	1.31933E+0	-25.8011E-3
432.716E-6	15.5239E-12	1.31723E+0	-12.8907E-3	15.9860E-12	1.26844E+0	-26.2047E-3
427.714E-6	14.8548E-12	1.32361E+0	-10.1848E-3	15.2675E-12	1.21995E+0	-33.1436E-3
422.711E-6	14.1627E-12	1.32938E+0	-7.93084E-3	14.5846E-12	1.20801E+0	-28.2755E-3
417.709E-6	14.1041E-12	1.32428E+0	-8.18274E-3	13.6252E-12	1.21403E+0	-16.0059E-3
412.706E-6	14.1624E-12	1.30452E+0	-21.3871E-3	13.3576E-12	1.19361E+0	-3.67637E-3
407.704E-6	13.4249E-12	1.28376E+0	-31.9959E-3	13.0079E-12	1.15227E+0	2.93756E-3
402.701E-6	12.7141E-12	1.28606E+0	-33.2038E-3	12.4644E-12	1.12519E+0	-12.8289E-3
397.699E-6	12.4130E-12	1.27926E+0	-25.6804E-3	11.9478E-12	1.11346E+0	-31.4199E-3
392.696E-6	12.3779E-12	1.23182E+0	-16.8468E-3	11.7279E-12	1.10166E+0	-26.8494E-3
387.694E-6	11.7691E-12	1.19614E+0	-25.6046E-3	11.5606E-12	1.08110E+0	-14.4173E-3
382.691E-6	11.2033E-12	1.19622E+0	-24.5357E-3	11.1496E-12	1.05839E+0	-4.69164E-3
377.689E-6	10.9220E-12	1.16830E+0	-13.4583E-3	10.7330E-12	1.05717E+0	991.333E-6
372.686E-6	10.5921E-12	1.12584E+0	-12.3789E-3	10.4356E-12	1.06055E+0	714.983E-6
367.684E-6	10.3460E-12	1.10929E+0	-8.10602E-3	10.2327E-12	1.03128E+0	-191.528E-6
362.681E-6	9.62711E-12	1.09188E+0	-10.4946E-3	10.1317E-12	996.663E-3	-1.72239E-3
357.679E-6	9.25485E-12	1.06896E+0	-26.7677E-3	9.84782E-12	993.190E-3	-3.96869E-3
352.676E-6	8.87360E-12	1.03745E+0	-36.8143E-3	9.50416E-12	984.075E-3	-12.1989E-3
347.674E-6	8.78067E-12	994.839E-3	-32.3577E-3	9.13368E-12	948.717E-3	-16.3152E-3
342.671E-6	8.47509E-12	965.962E-3	-26.8591E-3	9.08960E-12	905.599E-3	-11.0464E-3
337.669E-6	8.03867E-12	957.382E-3	-29.2928E-3	8.67799E-12	868.600E-3	-13.8563E-3
332.666E-6	7.58981E-12	927.138E-3	-36.0488E-3	8.19820E-12	843.395E-3	-13.6510E-3
327.664E-6	7.32282E-12	873.146E-3	-35.3964E-3	7.74861E-12	806.749E-3	-3.97038E-3
322.661E-6	7.32851E-12	845.983E-3	-16.1880E-3	7.54242E-12	760.845E-3	-2.24610E-3
317.659E-6	7.01059E-12	841.729E-3	-1.20414E-3	7.24042E-12	735.680E-3	-6.32415E-3
312.656E-6	6.48689E-12	833.856E-3	-17.2946E-3	6.75139E-12	726.693E-3	-8.93345E-3
307.654E-6	6.24069E-12	813.235E-3	-35.4585E-3	6.45973E-12	704.415E-3	-10.4346E-3
302.651E-6	6.23432E-12	772.187E-3	-26.9885E-3	6.29301E-12	655.610E-3	-9.69833E-3
297.649E-6	6.07103E-12	728.872E-3	-11.8990E-3	5.95289E-12	611.910E-3	-16.5105E-3
292.646E-6	5.65941E-12	710.215E-3	-6.15592E-3	5.65134E-12	597.741E-3	-22.9936E-3
287.644E-6	5.40567E-12	695.764E-3	-2.98500E-3	5.30319E-12	590.458E-3	-13.1771E-3
282.641E-6	5.35758E-12	669.594E-3	-9.88391E-3	5.03942E-12	584.364E-3	-8.56376E-3
277.639E-6	5.30090E-12	650.763E-3	-26.4687E-3	5.03997E-12	571.788E-3	-19.9910E-3
272.636E-6	4.82332E-12	643.334E-3	-28.7264E-3	4.76609E-12	541.908E-3	-30.4883E-3
267.634E-6	4.61158E-12	629.699E-3	-24.0305E-3	4.52114E-12	521.592E-3	-24.6935E-3
262.631E-6	4.47572E-12	609.202E-3	-18.5206E-3	4.30656E-12	511.031E-3	-8.64117E-3
257.629E-6	4.44823E-12	587.352E-3	-9.90922E-3	4.31373E-12	499.335E-3	1.03372E-3
252.626E-6	4.20925E-12	553.700E-3	-6.58385E-3	4.22224E-12	492.784E-3	1.87484E-3
247.624E-6	3.90815E-12	522.174E-3	-3.99240E-3	3.96901E-12	485.279E-3	-5.37359E-3
242.621E-6	3.76387E-12	509.751E-3	-1.75938E-3	3.87951E-12	463.366E-3	-11.7111E-3
237.619E-6	3.71120E-12	493.456E-3	-9.02575E-3	3.84660E-12	439.264E-3	-6.62741E-3
232.616E-6	3.67150E-12	473.920E-3	-14.5863E-3	3.72959E-12	421.944E-3	-7.38470E-3
227.614E-6	3.36405E-12	476.639E-3	-796.413E-6	3.42417E-12	394.756E-3	-19.2972E-3
222.611E-6	3.17405E-12	475.355E-3	7.86629E-3	3.17633E-12	371.109E-3	-25.8122E-3
217.609E-6	2.99254E-12	449.745E-3	-6.09650E-3	3.06592E-12	360.422E-3	-28.7994E-3
212.606E-6	2.97111E-12	419.720E-3	-17.5610E-3	2.99286E-12	342.624E-3	-29.5560E-3
207.604E-6	2.89985E-12	394.699E-3	-23.0417E-3	2.80515E-12	332.777E-3	-19.0752E-3
202.601E-6	2.60959E-12	378.305E-3	-32.1591E-3	2.56483E-12	329.660E-3	-4.24246E-3
197.599E-6	2.49409E-12	370.616E-3	-25.2623E-3	2.47281E-12	302.334E-3	-234.358E-6
192.596E-6	2.40435E-12	361.903E-3	-5.45388E-3	2.44314E-12	275.519E-3	-2.14977E-3
187.594E-6	2.37809E-12	353.590E-3	-7.83863E-3	2.30747E-12	279.759E-3	-9.32644E-3
182.591E-6	2.15508E-12	354.056E-3	-21.6755E-3	2.09691E-12	293.111E-3	-10.1313E-3
177.589E-6	2.02779E-12	343.765E-3	-18.7322E-3	1.95970E-12	289.156E-3	3.84499E-3
172.586E-6	1.94142E-12	314.813E-3	-13.4880E-3	1.95345E-12	270.750E-3	609.759E-6
167.584E-6	1.93921E-12	295.162E-3	-20.1999E-3	1.89651E-12	248.789E-3	-14.1765E-3
162.581E-6	1.86304E-12	281.309E-3	-27.9617E-3	1.79359E-12	246.498E-3	-5.71951E-3
157.579E-6	1.68384E-12	265.973E-3	-30.8267E-3	1.66054E-12	257.232E-3	8.73875E-3
152.576E-6	1.50328E-12	258.510E-3	-28.7709E-3	1.61548E-12	250.465E-3	-3.29185E-3
147.574E-6	1.51349E-12	243.420E-3	-13.1776E-3	1.56513E-12	225.805E-3	-24.2141E-3
142.571E-6	1.49464E-12	225.643E-3	-1.25303E-3	1.50768E-12	213.450E-3	-33.8355E-3
137.569E-6	1.33067E-12	222.815E-3	-11.2858E-3	1.41617E-12	215.136E-3	-30.3344E-3
132.566E-6	1.23477E-12	217.700E-3	-28.2502E-3	1.28087E-12	204.979E-3	-11.6221E-3
127.564E-6	1.20324E-12	206.653E-3	-36.7117E-3	1.23053E-12	191.982E-3	6.72023E-3
122.561E-6	1.18736E-12	210.038E-3	-24.9874E-3	1.21670E-12	176.958E-3	922.494E-6
117.559E-6	1.14091E-12	208.657E-3	-980.521E-6	1.09990E-12	163.356E-3	-17.2329E-3
112.556E-6	1.00304E-12	195.484E-3	5.17875E-3	1.01203E-12	166.473E-3	-21.7029E-3
107.554E-6	910.041E-15	195.337E-3	-10.5827E-3	955.128E-15	173.262E-3	-20.5910E-3
102.551E-6	895.009E-15	190.562E-3	-25.1586E-3	876.594E-15	162.791E-3	-16.5737E-3
97.5488E-6	842.039E-15	176.671E-3	-29.5129E-3	874.701E-15	156.314E-3	-4.15321E-3
92.5463E-6	805.636E-15	174.054E-3	-33.0642E-3	769.442E-15	156.353E-3	-2.85807E-3
87.5438E-6	674.393E-15	168.739E-3	-29.5867E-3	621.763E-15	142.066E-3	-14.6918E-3
82.5413E-6	631.537E-15	155.391E-3	-21.5243E-3	633.447E-15	133.907E-3	-19.3517E-3
77.5388E-6	627.832E-15	154.620E-3	-21.0689E-3	660.137E-15	140.931E-3	-20.9559E-3
72.5363E-6	562.097E-15	162.220E-3	-16.3054E-3	537.918E-15	148.753E-3	-20.0264E-3
67.5338E-6	530.332E-15	158.084E-3	-8.97664E-3	483.841E-15	144.476E-3	-16.7980E-3
62.5313E-6	390.248E-15	149.280E-3	-19.7934E-3	396.848E-15	144.517E-3	-23.2693E-3
57.5288E-6	379.663E-15	148.124E-3	-30.5008E-3	391.033E-15	147.718E-3	-24.6629E-3
52.5263E-6	364.073E-15	142.447E-3	-22.4838E-3	383.639E-15	139.918E-3	-15.0529E-3
47.5238E-6	297.954E-15	137.239E-3	-12.3238E-3	281.788E-15	132.581E-3	-26.5611E-3
42.5213E-6	245.359E-15	149.521E-3	8.84188E-6	275.929E-15	123.166E-3	-43.8542E-3
37.5188E-6	179.249E-15	161.713E-3	5.22511E-3	227.755E-15	118.708E-3	-38.2695E-3
32.5163E-6	216.211E-15	164.368E-3	-4.79513E-3	201.205E-15	133.481E-3	-28.7106E-3
27.5138E-6	137.807E-15	154.351E-3	-3.00615E-3	72.3246E-15	146.497E-3	-22.3676E-3
22.5113E-6	59.7077E-15	135.034E-3	12.7534E-3	55.7230E-15	145.917E-3	-17.2775E-3
17.5088E-6	-21.4865E-15	137.217E-3	15.3055E-3	-12.8631E-15	150.510E-3	-18.8413E-3
12.5063E-6	-56.2068E-15	155.106E-3	-1.25924E-3	-38.7943E-15	151.969E-3	-28.0665E-3
7.50375E-6	-72.7735E-15	155.056E-3	-24.3397E-3	-90.0202E-15	138.198E-3	-27.1331E-3
2.50125E-6	-103.256E-15	137.417E-3	-44.2427E-3	-112.612E-15	131.738E-3	-18.2871E-3
-2.50125E-6	-228.744E-15	120.382E-3	-38.5165E-3	-196.718E-15	140.280E-3	-22.4910E-3
-7.50375E-6	-240.420E-15	116.537E-3	-20.0882E-3	-279.377E-15	144.386E-3	-27.7275E-3
-12.5063E-6	-266.595E-15	128.370E-3	-18.2704E-3	-303.530E-15	143.551E-3	-26.8494E-3
-17.5088E-6	-305.274E-15	141.348E-3	-4.60259E-3	-295.526E-15	145.940E-3	-25.1418E-3
-22.5113E-6	-415.495E-15	141.636E-3	13.6334E-3	-428.530E-15	151.337E-3	-21.9740E-3
-27.5138E-6	-510.788E-15	140.190E-3	3.97069E-3	-499.688E-15	158.279E-3	-24.0736E-3
-32.5163E-6	-512.968E-15	145.789E-3	-9.14120E-3	-525.916E-15	161.671E-3	-33.3300E-3
-37.5188E-6	-523.126E-15	141.452E-3	-11.8157E-3	-518.801E-15	166.352E-3	-32.9591E-3
-42.5213E-6	-578.380E-15	140.505E-3	-12.4165E-3	-572.285E-15	177.527E-3	-24.5523E-3
-47.5238E-6	-692.664E-15	156.524E-3	-6.05348E-3	-659.086E-15	189.911E-3	-21.8720E-3
-52.5263E-6	-738.153E-15	171.844E-3	5.36448E-3	-694.870E-15	194.249E-3	-15.8982E-3
-57.5288E-6	-795.421E-15	181.477E-3	2.52605E-3	-784.007E-15	195.784E-3	-5.96561E-3
-62.5313E-6	-832.182E-15	182.141E-3	-8.26702E-3	-854.564E-15	199.369E-3	-8.37832E-3
-67.5338E-6	-879.562E-15	177.975E-3	-9.36079E-3	-912.844E-15	206.352E-3	-14.7275E-3
-72.5363E-6	-1.06192E-12	179.249E-3	-18.3983E-3	-986.025E-15	225.301E-3	-10.5049E-3
-77.5388E-6	-1.06541E-12	188.806E-3	-28.2880E-3	-1.07570E-12	241.685E-3	-5.30627E-3
-82.5413E-6	-1.10547E-12	199.489E-3	-15.6768E-3	-1.17026E-12	237.653E-3	-2.27706E-3
-87.5438E-6	-1.19979E-12	203.768E-3	-6.66589E-3	-1.22294E-12	238.411E-3	-1.35668E-3
-92.5463E-6	-1.29530E-12	208.003E-3	-13.8110E-3	-1.26233E-12	254.969E-3	-1.44396E-3
-97.5488E-6	-1.39785E-12	222.880E-3	-13.9861E-3	-1.44534E-12	261.364E-3	-3.76208E-3
-102.551E-6	-1.43108E-12	237.426E-3	-11.7187E-3	-1.53904E-12	263.058E-3	-7.50115E-3
-107.554E-6	-1.49347E-12	236.348E-3	-13.8637E-3	-1.62643E-12	272.843E-3	-7.42864E-3
-112.556E-6	-1.63159E-12	226.568E-3	-8.34923E-3	-1.62513E-12	291.667E-3	-7.34894E-3
-117.559E-6	-1.76360E-12	230.483E-3	-5.99640E-3	-1.72860E-12	315.720E-3	-7.83968E-3
-122.561E-6	-1.87355E-12	260.333E-3	-15.7347E-3	-1.89583E-12	331.053E-3	-10.2383E-3
-127.564E-6	-1.91542E-12	285.702E-3	-14.5315E-3	-1.97247E-12	333.800E-3	-12.1426E-3
-132.566E-6	-2.00741E-12	288.981E-3	-8.01641E-3	-2.01437E-12	345.450E-3	-10.7197E-3
-137.569E-6	-2.21304E-12	300.527E-3	-15.8666E-3	-2.14555E-12	367.393E-3	-13.0751E-3
-142.571E-6	-2.31291E-12	330.344E-3	-19.6923E-3	-2.30340E-12	387.922E-3	-8.57369E-3
-147.574E-6	-2.41896E-12	345.409E-3	-15.0481E-3	-2.43262E-12	411.195E-3	703.378E-6
-152.576E-6	-2.51190E-12	343.228E-3	-19.0127E-3	-2.45567E-12	432.297E-3	-11.8341E-3
-157.579E-6	-2.67231E-12	350.778E-3	-15.1285E-3	-2.61471E-12	450.474E-3	-23.2939E-3
-162.581E-6	-2.82318E-12	367.514E-3	-3.78926E-3	-2.80772E-12	468.607E-3	-19.7623E-3
-167.584E-6	-2.99004E-12	388.641E-3	-13.4023E-3	-3.00869E-12	486.833E-3	-24.5833E-3
-172.586E-6	-3.15906E-12	415.115E-3	-27.3687E-3	-3.16376E-12	511.866E-3	-29.3311E-3
-177.589E-6	-3.34625E-12	437.582E-3	-24.3484E-3	-3.41774E-12	545.528E-3	-27.6730E-3
-182.591E-6	-3.50987E-12	460.614E-3	-21.2866E-3	-3.59280E-12	566.200E-3	-21.2019E-3
-187.594E-6	-3.63364E-12	491.457E-3	-24.0091E-3	-3.75571E-12	578.665E-3	-12.9882E-3
-192.596E-6	-3.86511E-12	509.925E-3	-25.0768E-3	-3.95141E-12	610.553E-3	-16.9082E-3
-197.599E-6	-4.03707E-12	520.552E-3	-34.6709E-3	-4.12267E-12	652.593E-3	-29.8765E-3
-202.601E-6	-4.20806E-12	548.690E-3	-39.2483E-3	-4.41018E-12	680.280E-3	-38.0459E-3
-207.604E-6	-4.42019E-12	577.282E-3	-21.3278E-3	-4.56895E-12	694.914E-3	-31.6829E-3
-212.606E-6	-4.66013E-12	596.754E-3	-5.24193E-3	-4.74542E-12	711.660E-3	-16.2394E-3
-217.609E-6	-4.92571E-12	622.462E-3	-6.58137E-3	-5.06578E-12	741.043E-3	-9.67502E-3
-222.611E-6	-5.16310E-12	647.489E-3	-15.8969E-3	-5.22875E-12	779.694E-3	-15.4157E-3
-227.614E-6	-5.35334E-12	678.288E-3	-10.5637E-3	-5.34718E-12	812.478E-3	-22.4521E-3
-232.616E-6	-5.61031E-12	718.343E-3	9.36697E-3	-5.58606E-12	831.700E-3	-20.6921E-3
-237.619E-6	-5.90877E-12	744.112E-3	17.4262E-3	-5.91071E-12	851.510E-3	-18.3839E-3
-242.621E-6	-6.08447E-12	761.400E-3	6.32568E-3	-6.07403E-12	883.891E-3	-15.7730E-3
-247.624E-6	-6.34410E-12	786.283E-3	-6.78014E-3	-6.23987E-12	919.142E-3	-6.79973E-3
-252.626E-6	-6.66426E-12	810.491E-3	-7.95892E-3	-6.53278E-12	964.094E-3	1.64361E-3
-257.629E-6	-6.89670E-12	831.788E-3	-11.9856E-3	-6.95665E-12	1.00549E+0	8.62258E-3
-262.631E-6	-7.17161E-12	862.452E-3	-17.5275E-3	-7.20393E-12	1.03141E+0	-1.40539E-3
-267.634E-6	-7.54592E-12	890.490E-3	-5.35579E-3	-7.42924E-12	1.06627E+0	-15.9588E-3
-272.636E-6	-8.01959E-12	917.894E-3	-1.29748E-3	-7.86568E-12	1.11249E+0	-10.5567E-3
-277.639E-6	-8.24518E-12	963.796E-3	-10.6957E-3	-8.33561E-12	1.15313E+0	2.00440E-3
-282.641E-6	-8.47854E-12	999.780E-3	-13.2392E-3	-8.70360E-12	1.19414E+0	1.54125E-3
-287.644E-6	-9.06252E-12	1.01888E+0	-23.5090E-3	-8.95978E-12	1.25452E+0	-12.3439E-3
-292.646E-6	-9.51722E-12	1.06694E+0	-28.5277E-3	-9.49190E-12	1.31862E+0	-25.9469E-3
-297.649E-6	-9.86613E-12	1.13148E+0	-18.1405E-3	-10.0644E-12	1.36780E+0	-22.0549E-3
-302.651E-6	-10.2420E-12	1.17314E+0	-19.8183E-3	-10.5068E-12	1.40589E+0	-8.55858E-3
-307.654E-6	-10.8527E-12	1.21096E+0	-24.6993E-3	-10.9081E-12	1.43856E+0	-7.35102E-3
-312.656E-6	-11.6032E-12	1.25606E+0	-11.2794E-3	-11.4078E-12	1.46307E+0	-1.14677E-3
-317.659E-6	-11.8756E-12	1.30748E+0	-5.84002E-3	-11.7275E-12	1.49200E+0	15.4257E-3
-322.661E-6	-12.1216E-12	1.37005E+0	-18.4526E-3	-12.0850E-12	1.53700E+0	18.5285E-3
-327.664E-6	-12.6419E-12	1.41601E+0	-15.0929E-3	-12.5533E-12	1.58150E+0	5.38205E-3
-332.666E-6	-13.3467E-12	1.43879E+0	-3.81838E-3	-13.2676E-12	1.62222E+0	-12.1228E-3
-337.669E-6	-13.7983E-12	1.47610E+0	-3.20827E-3	-13.7178E-12	1.67170E+0	-24.4846E-3
-342.671E-6	-14.0333E-12	1.52932E+0	-4.17373E-3	-13.9149E-12	1.71617E+0	-21.7193E-3
-347.674E-6	-14.6651E-12	1.57621E+0	-14.4976E-3	-14.4571E-12	1.74837E+0	-14.3215E-3
-352.676E-6	-15.4153E-12	1.62271E+0	-27.1668E-3	-15.2083E-12	1.79004E+0	-21.3779E-3
-357.679E-6	-15.8431E-12	1.67953E+0	-27.3379E-3	-15.5242E-12	1.83741E+0	-34.1623E-3
-362.681E-6	-16.1214E-12	1.72949E+0	-26.6672E-3	-16.0260E-12	1.88840E+0	-38.4526E-3
-367.684E-6	-16.7234E-12	1.76467E+0	-26.5157E-3	-16.7544E-12	1.94722E+0	-31.4894E-3
-372.686E-6	-17.5717E-12	1.79445E+0	-14.5466E-3	-17.6293E-12	2.00770E+0	-20.6349E-3
-377.689E-6	-18.1897E-12	1.82542E+0	-4.89902E-3	-18.1445E-12	2.07161E+0	-14.3748E-3
-382.691E-6	-18.5350E-12	1.86850E+0	-12.6260E-3	-18.7679E-12	2.13480E+0	-11.5879E-3
-387.694E-6	-19.1798E-12	1.91544E+0	-19.5351E-3	-19.6898E-12	2.18589E+0	-14.2753E-3
-392.696E-6	-19.8446E-12	1.94339E+0	-20.6922E-3	-20.6903E-12	2.23950E+0	-14.9401E-3
-397.699E-6	-20.8754E-12	1.96363E+0	-28.8150E-3	-21.3915E-12	2.30203E+0	-7.79645E-3
-402.701E-6	-21.6445E-12	2.02194E+0	-26.0633E-3	-21.9425E-12	2.34513E+0	-16.7372E-3
-407.704E-6	-21.9677E-12	2.10527E+0	-16.0534E-3	-23.0962E-12	2.38072E+0	-31.4270E-3
-412.706E-6	-22.6361E-12	2.16339E+0	-21.1452E-3	-24.1836E-12	2.41716E+0	-23.5439E-3
-417.709E-6	-23.8241E-12	2.18815E+0	-28.6603E-3	-24.7326E-12	2.45422E+0	-12.0887E-3
-422.711E-6	-24.9783E-12	2.21595E+0	-26.7850E-3	-25.2495E-12	2.49458E+0	-13.6659E-3
-427.714E-6	-25.5303E-12	2.27949E+0	-23.9461E-3	-26.2023E-12	2.51665E+0	-17.4841E-3
-432.716E-6	-26.0753E-12	2.34928E+0	-14.7991E-3	-27.1546E-12	2.53174E+0	-7.54628E-3
-437.719E-6	-27.4195E-12	2.38413E+0	-8.58759E-3	-27.4413E-12	2.55454E+0	3.30222E-3
-442.721E-6	-28.5513E-12	2.40964E+0	-20.0381E-3	-27.9455E-12	2.58001E+0	-6.86926E-3
-447.724E-6	-29.1149E-12	2.47141E+0	-23.8722E-3	-28.7471E-12	2.61496E+0	-21.6683E-3
-452.726E-6	-29.4427E-12	2.54254E+0	-14.3853E-3	-29.5776E-12	2.65201E+0	-22.6964E-3
-457.729E-6	-30.0714E-12	2.57576E+0	-8.08882E-3	-30.3561E-12	2.68016E+0	-29.5947E-3
-462.731E-6	-31.3606E-12	2.57518E+0	-8.25017E-3	-31.1086E-12	2.70558E+0	-37.4499E-3
-467.734E-6	-32.4751E-12	2.57952E+0	-9.09504E-3	-32.3213E-12	2.73168E+0	-15.8875E-3
-472.736E-6	-32.9236E-12	2.60238E+0	-20.0441E-3	-32.9232E-12	2.77564E+0	10.7030E-3
-477.739E-6	-33.3027E-12	2.64383E+0	-30.7562E-3	-33.6045E-12	2.83155E+0	7.41647E-3
-482.741E-6	-34.6551E-12	2.68268E+0	-24.9638E-3	-34.6898E-12	2.87025E+0	-1.70467E-3
-487.744E-6	-36.1253E-12	2.68070E+0	-26.1183E-3	-36.4277E-12	2.89152E+0	7.44848E-3
-492.746E-6	-36.4586E-12	2.69902E+0	-33.8672E-3	-37.7512E-12	2.90811E+0	6.08313E-3
-497.749E-6	-36.8247E-12	2.75795E+0	-32.2261E-3	-38.2634E-12	2.93343E+0	-16.0016E-3
-502.751E-6	-37.8085E-12	2.78078E+0	-29.3282E-3	-39.2176E-12	2.95767E+0	-23.5099E-3
-507.754E-6	-39.6980E-12	2.77068E+0	-23.8592E-3	-40.7930E-12	2.97172E+0	-14.5542E-3
-512.756E-6	-40.4485E-12	2.78612E+0	-12.2235E-3	-41.8265E-12	2.98391E+0	-20.6388E-3
-517.759E-6	-40.9781E-12	2.83008E+0	-15.5703E-3	-42.2458E-12	2.99320E+0	-31.6724E-3
-522.761E-6	-41.9406E-12	2.86347E+0	-29.0517E-3	-43.3225E-12	2.98332E+0	-26.3869E-3
-527.764E-6	-43.6325E-12	2.87340E+0	-18.8859E-3	-44.6378E-12	2.95364E+0	-19.4313E-3
-532.766E-6	-45.1535E-12	2.87581E+0	2.10710E-3	-45.2038E-12	2.93004E+0	-19.0899E-3
-537.769E-6	-45.5384E-12	2.90904E+0	-4.48601E-3	-45.5778E-12	2.91093E+0	-17.4746E-3
-542.771E-6	-46.2382E-12	2.95827E+0	-28.6810E-3	-46.3938E-12	2.88748E+0	-12.9576E-3
-547.774E-6	-47.0197E-12	2.95802E+0	-42.3926E-3	-47.1900E-12	2.88780E+0	-7.06365E-3
-552.776E-6	-47.8366E-12	2.92980E+0	-44.5580E-3	-47.5548E-12	2.89279E+0	-7.49361E-3
-557.779E-6	-48.4279E-12	2.93701E+0	-31.6756E-3	-47.8513E-12	2.87618E+0	-21.5155E-3
-562.781E-6	-49.8417E-12	2.94967E+0	-11.9503E-3	-49.4608E-12	2.86063E+0	-31.9105E-3
-567.784E-6	-50.8708E-12	2.93635E+0	-11.7988E-3	-50.7963E-12	2.84656E+0	-23.5433E-3
-572.786E-6	-52.4109E-12	2.92068E+0	-21.7595E-3	-51.4593E-12	2.82720E+0	-7.00270E-3
-577.789E-6	-53.5608E-12	2.90398E+0	-14.0887E-3	-52.6961E-12	2.81469E+0	-1.91792E-3
-582.791E-6	-54.4223E-12	2.89867E+0	3.72595E-3	-53.6809E-12	2.83470E+0	-1.00323E-3
-587.794E-6	-55.0314E-12	2.91372E+0	10.2761E-3	-54.9788E-12	2.86336E+0	2.18667E-3
-592.796E-6	-56.5947E-12	2.91468E+0	-933.934E-6	-55.4763E-12	2.87215E+0	-1.57616E-3
-597.799E-6	-57.5198E-12	2.89231E+0	-11.0475E-3	-56.8236E-12	2.86168E+0	-16.4498E-3
-602.801E-6	-58.7845E-12	2.88765E+0	-4.72631E-3	-58.0713E-12	2.84304E+0	-24.5336E-3
-607.804E-6	-59.5002E-12	2.88782E+0	13.7498E-3	-59.5314E-12	2.83548E+0	-23.4107E-3
-612.806E-6	-60.4451E-12	2.86881E+0	11.5092E-3	-59.8101E-12	2.83128E+0	-22.4490E-3
-617.809E-6	-62.0752E-12	2.85173E+0	-14.9285E-3	-61.2908E-12	2.80866E+0	-10.8282E-3
-622.811E-6	-63.2785E-12	2.82873E+0	-22.5413E-3	-62.9501E-12	2.76134E+0	-4.53174E-3
-627.814E-6	-64.0683E-12	2.81040E+0	-27.3682E-3	-64.1272E-12	2.71065E+0	-14.2942E-3
-632.816E-6	-65.3344E-12	2.81853E+0	-29.6220E-3	-64.5169E-12	2.66770E+0	-33.0242E-3
-637.819E-6	-66.6512E-12	2.81514E+0	-2.89370E-3	-64.7768E-12	2.62502E+0	-34.9853E-3
-642.821E-6	-67.4168E-12	2.79756E+0	9.95574E-3	-65.5278E-12	2.57705E+0	-11.0709E-3
-647.824E-6	-67.6171E-12	2.78511E+0	-11.9794E-3	-66.2550E-12	2.53216E+0	-14.5060E-3
-652.826E-6	-68.2403E-12	2.75006E+0	-27.7392E-3	-66.0706E-12	2.48638E+0	-39.5346E-3
-657.829E-6	-69.4130E-12	2.69978E+0	-27.9551E-3	-66.5428E-12	2.44115E+0	-34.9856E-3
-662.831E-6	-69.9123E-12	2.66875E+0	-26.0211E-3	-67.9048E-12	2.39481E+0	-22.5902E-3
-667.834E-6	-69.6918E-12	2.64873E+0	-9.75545E-3	-68.1071E-12	2.34332E+0	-21.5610E-3
-672.836E-6	-70.4553E-12	2.60726E+0	11.5851E-3	-68.6639E-12	2.31406E+0	-18.3252E-3
-677.839E-6	-71.6678E-12	2.55540E+0	9.62693E-3	-69.2604E-12	2.30525E+0	-6.33428E-3
-682.841E-6	-71.9872E-12	2.50832E+0	-5.04771E-3	-70.3755E-12	2.28400E+0	-174.282E-6
-687.844E-6	-71.4732E-12	2.46159E+0	-17.3583E-3	-71.0388E-12	2.25823E+0	-7.86463E-3
-692.846E-6	-72.2082E-12	2.42164E+0	-33.8482E-3	-71.2229E-12	2.24743E+0	-17.5349E-3
-697.849E-6	-73.5490E-12	2.38467E+0	-32.6409E-3	-73.0380E-12	2.22562E+0	-18.1803E-3
-702.851E-6	-75.1788E-12	2.32446E+0	-1.05282E-3	-75.1727E-12	2.18677E+0	-4.67217E-3
-707.854E-6	-74.8271E-12	2.26985E+0	28.7629E-3	-76.0530E-12	2.16054E+0	-867.022E-6
-712.856E-6	-74.5820E-12	2.24787E+0	28.9169E-3	-75.7722E-12	2.14223E+0	-9.17507E-3
-717.859E-6	-76.1235E-12	2.20622E+0	9.46962E-3	-77.6761E-12	2.10146E+0	-19.6750E-3
-722.861E-6	-78.0972E-12	2.15510E+0	-11.3194E-3	-79.5047E-12	2.03839E+0	-15.5844E-3
-727.864E-6	-78.4448E-12	2.12232E+0	-19.1527E-3	-79.8160E-12	1.98521E+0	2.95724E-3
-732.866E-6	-78.0919E-12	2.09092E+0	-5.95246E-3	-79.7919E-12	1.96300E+0	-4.36875E-3
-737.869E-6	-79.2841E-12	2.06268E+0	9.73273E-3	-80.1245E-12	1.92131E+0	-16.2785E-3
-742.871E-6	-81.3770E-12	2.04224E+0	21.5829E-3	-81.8926E-12	1.85700E+0	-14.2701E-3
-747.874E-6	-82.6819E-12	2.00829E+0	25.8623E-3	-82.2974E-12	1.80793E+0	-20.3781E-3
-752.876E-6	-82.3776E-12	1.96922E+0	7.96931E-3	-82.0576E-12	1.75244E+0	-31.1446E-3
-757.879E-6	-82.6038E-12	1.94193E+0	-4.18456E-3	-81.6102E-12	1.71083E+0	-47.6753E-3
-762.881E-6	-83.1482E-12	1.90068E+0	16.7297E-3	-83.2120E-12	1.68098E+0	-52.5190E-3
-767.884E-6	-84.9165E-12	1.85609E+0	19.0061E-3	-84.4756E-12	1.62761E+0	-36.1622E-3
-772.886E-6	-84.9646E-12	1.82783E+0	-11.2569E-3	-84.7611E-12	1.58467E+0	-19.5873E-3
-777.889E-6	-84.3066E-12	1.78634E+0	-25.9504E-3	-84.9290E-12	1.56450E+0	-12.8388E-3
-782.891E-6	-84.4973E-12	1.72121E+0	-22.7796E-3	-85.7037E-12	1.53474E+0	-20.2631E-3
-787.894E-6	-85.2520E-12	1.66964E+0	-25.8509E-3	-87.3484E-12	1.49312E+0	-23.3092E-3
-792.896E-6	-85.5980E-12	1.63272E+0	-36.6448E-3	-87.3909E-12	1.45858E+0	-10.3305E-3
-797.899E-6	-85.4106E-12	1.59204E+0	-34.5164E-3	-88.0178E-12	1.42567E+0	-7.88472E-3
-802.901E-6	-85.5518E-12	1.53811E+0	-18.9813E-3	-87.8855E-12	1.38677E+0	-15.9773E-3
-807.904E-6	-86.5253E-12	1.46917E+0	2.77302E-3	-89.1688E-12	1.35392E+0	-6.58207E-3
-812.906E-6	-87.5662E-12	1.41652E+0	15.3116E-3	-90.5662E-12	1.31775E+0	14.3308E-3
-817.909E-6	-87.5712E-12	1.38338E+0	4.64566E-3	-91.5522E-12	1.27573E+0	4.86720E-3
-822.911E-6	-86.9108E-12	1.35436E+0	-9.41771E-3	-92.0996E-12	1.24171E+0	-25.4350E-3
-827.914E-6	-87.5472E-12	1.31649E+0	-3.61124E-3	-92.0261E-12	1.20243E+0	-29.9669E-3
-832.916E-6	-89.3655E-12	1.27795E+0	3.16509E-3	-92.5607E-12	1.15676E+0	-14.6167E-3
-837.919E-6	-91.0747E-12	1.25139E+0	7.92190E-3	-93.0923E-12	1.12141E+0	1.28569E-3
-842.921E-6	-89.8307E-12	1.23045E+0	12.7801E-3	-93.3774E-12	1.08401E+0	9.04578E-3
-847.924E-6	-90.1644E-12	1.21082E+0	3.42245E-3	-92.6505E-12	1.03481E+0	6.56431E-3
-852.926E-6	-91.9981E-12	1.17652E+0	-31.0351E-3	-92.8225E-12	995.209E-3	-2.85384E-3
-857.929E-6	-94.0621E-12	1.13469E+0	-69.6478E-3	-93.5864E-12	983.064E-3	-10.6708E-3
-862.931E-6	-94.8863E-12	1.10700E+0	-60.8751E-3	-93.9082E-12	967.024E-3	-14.7070E-3
-867.934E-6	-93.7154E-12	1.08376E+0	-35.1770E-3	-92.8988E-12	920.468E-3	-17.7836E-3
-872.936E-6	-94.4718E-12	1.04902E+0	-25.1805E-3	-92.7454E-12	875.913E-3	-21.3714E-3
-877.939E-6	-95.7461E-12	998.571E-3	-12.7410E-3	-94.7927E-12	844.169E-3	-20.1393E-3
-882.941E-6	-96.3878E-12	960.416E-3	-11.1188E-3	-93.7646E-12	816.651E-3	-17.5211E-3
-887.944E-6	-95.6256E-12	954.804E-3	-24.0286E-3	-92.6343E-12	798.916E-3	-14.1668E-3
-892.946E-6	-95.2884E-12	939.634E-3	-18.5091E-3	-92.9836E-12	775.632E-3	-10.1698E-3
-897.949E-6	-96.8880E-12	897.526E-3	-1.73745E-3	-94.0237E-12	743.831E-3	-19.3816E-3
-902.951E-6	-97.5987E-12	847.028E-3	-4.82922E-3	-94.4278E-12	719.530E-3	-30.8950E-3
-907.954E-6	-98.3610E-12	806.017E-3	-12.4777E-3	-94.7797E-12	699.549E-3	-43.4806E-3
-912.956E-6	-97.6501E-12	780.012E-3	-13.4710E-3	-95.3577E-12	677.059E-3	-56.2401E-3
-917.959E-6	-97.9435E-12	759.763E-3	-15.5656E-3	-95.7141E-12	649.128E-3	-55.5093E-3
-922.961E-6	-98.6173E-12	751.420E-3	-5.96502E-3	-96.3728E-12	622.286E-3	-38.5935E-3
-927.964E-6	-100.101E-12	740.178E-3	9.82872E-3	-96.5293E-12	603.135E-3	-18.8787E-3
-932.966E-6	-100.593E-12	704.443E-3	1.10071E-3	-97.2068E-12	581.351E-3	-6.23339E-3
-937.969E-6	-98.9179E-12	674.303E-3	-22.4368E-3	-97.1271E-12	554.281E-3	1.46641E-3
-942.971E-6	-98.9121E-12	662.855E-3	-17.5127E-3	-97.9644E-12	531.384E-3	-4.55540E-3
-947.974E-6	-100.324E-12	639.311E-3	-3.06165E-3	-98.2408E-12	512.541E-3	-11.5709E-3
-952.976E-6	-102.499E-12	616.722E-3	-7.50823E-3	-98.5480E-12	500.801E-3	78.2983E-6
-957.979E-6	-101.215E-12	601.734E-3	-3.84592E-3	-97.9603E-12	505.739E-3	2.62589E-3
-962.981E-6	-99.1601E-12	565.261E-3	-7.30909E-3	-96.9449E-12	502.423E-3	-16.2774E-3
-967.984E-6	-99.9665E-12	528.170E-3	-14.8941E-3	-96.9761E-12	469.538E-3	-16.1019E-3
-972.986E-6	-102.207E-12	519.163E-3	3.86512E-3	-96.6001E-12	442.112E-3	3.86924E-3
-977.989E-6	-101.415E-12	518.448E-3	-5.68025E-3	-96.4166E-12	427.010E-3	-1.78972E-3
-982.991E-6	-98.2348E-12	518.890E-3	-27.1622E-3	-95.4416E-12	406.563E-3	-26.6085E-3
-987.994E-6	-98.2529E-12	507.833E-3	-8.28902E-3	-96.0148E-12	377.837E-3	-38.3152E-3
-992.997E-6	-98.9376E-12	465.232E-3	6.69189E-3	-96.2933E-12	358.444E-3	-38.2106E-3
-997.999E-6	-100.762E-12	425.567E-3	-15.8360E-3	-97.2314E-12	368.290E-3	-34.6588E-3
-1.00300E-3	-98.7637E-12	406.470E-3	-29.3569E-3	-96.4205E-12	382.132E-3	-33.8982E-3
-1.00800E-3	-98.1039E-12	394.539E-3	-13.4406E-3	-96.5177E-12	383.293E-3	-29.6265E-3
-1.01301E-3	-99.2454E-12	384.643E-3	-13.8031E-3	-96.7613E-12	378.337E-3	-16.6850E-3
-1.01801E-3	-100.955E-12	374.465E-3	-26.5982E-3	-98.2442E-12	360.895E-3	13.7378E-3
-1.02301E-3	-100.871E-12	376.273E-3	-27.3509E-3	-98.8419E-12	340.440E-3	40.3665E-3
-1.02801E-3	-99.1866E-12	379.708E-3	-18.2682E-3	-98.6380E-12	334.268E-3	31.5713E-3
-1.03302E-3	-100.155E-12	368.095E-3	-20.8322E-3	-100.141E-12	338.917E-3	13.2539E-3
-1.03802E-3	-101.342E-12	356.412E-3	-37.3757E-3	-100.779E-12	341.258E-3	-2.23853E-3
-1.04302E-3	-102.701E-12	340.264E-3	-36.4095E-3	-100.978E-12	326.205E-3	-14.7717E-3
-1.04802E-3	-101.126E-12	335.923E-3	-23.6062E-3	-100.357E-12	311.928E-3	-18.1748E-3
-1.05303E-3	-100.753E-12	347.587E-3	-10.8583E-3	-100.890E-12	294.591E-3	-19.8258E-3
-1.05803E-3	-100.558E-12	331.350E-3	2.55169E-3	-101.425E-12	267.093E-3	-25.6497E-3
-1.06303E-3	-101.824E-12	305.720E-3	3.91991E-3	-100.572E-12	266.296E-3	-14.8684E-3
-1.06803E-3	-101.845E-12	305.962E-3	1.38614E-3	-100.538E-12	285.839E-3	-548.105E-6
-1.07304E-3	-101.804E-12	316.076E-3	-17.0760E-3	-100.065E-12	292.767E-3	-12.4086E-3
-1.07804E-3	-101.477E-12	324.140E-3	-38.5986E-3	-101.060E-12	283.829E-3	-15.5272E-3
-1.08304E-3	-101.762E-12	314.492E-3	-21.0967E-3	-99.8996E-12	286.752E-3	-10.8682E-3
-1.08804E-3	-102.661E-12	289.887E-3	-1.87965E-3	-99.2310E-12	299.790E-3	-16.9707E-3
-1.09305E-3	-101.274E-12	285.586E-3	-8.33411E-3	-98.6372E-12	292.563E-3	-10.6253E-3
-1.09805E-3	-100.854E-12	306.792E-3	-4.68835E-3	-100.061E-12	286.141E-3	-4.88495E-3
-1.10305E-3	-100.552E-12	322.014E-3	1.21290E-3	-100.387E-12	298.673E-3	-1.24512E-3
-1.10805E-3	-101.356E-12	315.632E-3	-4.12936E-3	-99.3534E-12	300.469E-3	8.55926E-3
-1.11306E-3	-101.254E-12	300.760E-3	7.63577E-3	-99.5352E-12	294.212E-3	15.2800E-3
-1.11806E-3	-100.338E-12	297.322E-3	20.4384E-3	-100.642E-12	302.594E-3	3.77596E-3
-1.12306E-3	-100.762E-12	292.326E-3	2.69938E-3	-102.247E-12	296.605E-3	-27.6263E-3
-1.12806E-3	-100.288E-12	270.894E-3	-24.3068E-3	-102.123E-12	286.544E-3	-31.7526E-3
-1.13307E-3	-101.473E-12	253.423E-3	-31.3193E-3	-102.316E-12	294.899E-3	-12.9228E-3
-1.13807E-3	-101.995E-12	261.332E-3	-22.4617E-3	-103.163E-12	304.321E-3	865.636E-6
-1.14307E-3	-101.440E-12	280.741E-3	1.91810E-3	-105.034E-12	305.057E-3	4.29973E-3
-1.14807E-3	-101.075E-12	284.644E-3	25.8355E-3	-104.866E-12	300.453E-3	-11.2497E-3
-1.15308E-3	-102.754E-12	279.146E-3	6.07089E-3	-104.343E-12	301.474E-3	-21.2911E-3
-1.15808E-3	-103.287E-12	282.686E-3	-15.7536E-3	-104.322E-12	311.186E-3	-23.6236E-3
-1.16308E-3	-103.013E-12	284.795E-3	-1.15273E-3	-105.885E-12	313.049E-3	-25.6935E-3
-1.16808E-3	-102.915E-12	282.023E-3	3.37334E-3	-106.627E-12	310.321E-3	-22.2185E-3
-1.17309E-3	-103.000E-12	295.490E-3	-4.82173E-3	-104.611E-12	325.442E-3	-32.7026E-3
-1.17809E-3	-103.848E-12	312.382E-3	-198.521E-6	-103.307E-12	331.136E-3	-52.8344E-3
-1.18309E-3	-103.836E-12	327.784E-3	3.26445E-3	-103.251E-12	324.933E-3	-44.5797E-3
-1.18809E-3	-104.118E-12	333.359E-3	-8.82046E-3	-104.793E-12	326.757E-3	-21.8751E-3
-1.19310E-3	-104.275E-12	315.264E-3	-21.5124E-3	-103.487E-12	328.534E-3	-29.5161E-3
-1.19810E-3	-104.106E-12	295.006E-3	-17.0493E-3	-102.081E-12	343.284E-3	-41.9216E-3
-1.20310E-3	-104.377E-12	296.995E-3	-1.66522E-3	-101.953E-12	365.403E-3	-29.0458E-3
-1.20810E-3	-104.396E-12	328.455E-3	3.84586E-3	-103.458E-12	375.369E-3	-16.3123E-3
-1.21311E-3	-103.528E-12	354.953E-3	5.20367E-3	-104.420E-12	385.690E-3	2.63068E-3
-1.21811E-3	-103.093E-12	338.456E-3	8.40367E-3	-103.197E-12	401.223E-3	29.6982E-3
-1.22311E-3	-103.454E-12	313.390E-3	-4.75124E-3	-102.881E-12	398.977E-3	21.9310E-3
-1.22811E-3	-103.940E-12	316.052E-3	-29.9201E-3	-103.535E-12	389.255E-3	-1.56837E-3
-1.23312E-3	-102.754E-12	334.409E-3	-39.3526E-3	-104.891E-12	400.345E-3	1.67126E-3
-1.23812E-3	-102.734E-12	361.671E-3	-23.0323E-3	-105.014E-12	410.845E-3	13.4678E-3
-1.24312E-3	-102.940E-12	375.540E-3	29.7504E-6	-104.849E-12	407.670E-3	11.2751E-3
-1.24812E-3	-104.045E-12	383.623E-3	1.55338E-3	-104.764E-12	421.757E-3	598.519E-6
-1.25313E-3	-104.024E-12	410.413E-3	-3.16457E-3	-105.437E-12	438.519E-3	-20.2536E-3
-1.25813E-3	-103.802E-12	429.404E-3	5.39705E-3	-106.218E-12	428.159E-3	-38.6582E-3
-1.26313E-3	-103.849E-12	424.071E-3	8.30248E-3	-105.574E-12	419.957E-3	-32.8513E-3
-1.26813E-3	-104.247E-12	421.193E-3	2.90716E-3	-105.190E-12	440.310E-3	-38.9164E-3
-1.27314E-3	-104.814E-12	425.016E-3	935.120E-6	-105.654E-12	456.138E-3	-49.7927E-3
-1.27814E-3	-105.517E-12	435.757E-3	3.58998E-3	-105.565E-12	455.036E-3	-23.7902E-3
-1.28314E-3	-105.717E-12	449.866E-3	4.04653E-3	-104.405E-12	443.776E-3	-8.43821E-3
-1.28814E-3	-106.504E-12	444.843E-3	-16.9446E-3	-103.666E-12	418.444E-3	-28.3601E-3
-1.29315E-3	-106.740E-12	451.193E-3	-38.5796E-3	-103.765E-12	423.496E-3	-29.5143E-3
-1.29815E-3	-106.052E-12	483.004E-3	-19.4234E-3	-103.604E-12	466.152E-3	-12.9766E-3
-1.30315E-3	-106.320E-12	488.963E-3	-2.94080E-3	-103.141E-12	493.753E-3	-16.1480E-3
-1.30815E-3	-106.619E-12	472.937E-3	-17.6788E-3	-103.583E-12	498.213E-3	-19.2334E-3
-1.31316E-3	-106.587E-12	480.459E-3	-20.9118E-3	-103.904E-12	504.480E-3	-2.53025E-3
-1.31816E-3	-107.270E-12	495.299E-3	-20.7863E-3	-103.731E-12	507.844E-3	-5.87721E-3
-1.32316E-3	-107.798E-12	500.568E-3	-37.2874E-3	-104.027E-12	507.348E-3	-41.1242E-3
-1.32816E-3	-107.808E-12	506.689E-3	-27.3815E-3	-105.471E-12	525.905E-3	-56.8112E-3
-1.33317E-3	-107.690E-12	517.005E-3	4.78199E-3	-105.943E-12	541.219E-3	-46.5248E-3
-1.33817E-3	-107.665E-12	523.028E-3	7.53023E-3	-106.149E-12	524.350E-3	-31.8007E-3
-1.34317E-3	-107.931E-12	513.418E-3	-8.73685E-3	-107.094E-12	519.379E-3	-23.7843E-3
-1.34817E-3	-108.530E-12	505.169E-3	-19.1442E-3	-109.025E-12	536.277E-3	-27.6004E-3
-1.35318E-3	-108.644E-12	514.824E-3	-24.9245E-3	-110.011E-12	546.481E-3	-12.7155E-3
-1.35818E-3	-109.319E-12	526.694E-3	-18.7101E-3	-109.362E-12	561.089E-3	-106.018E-6
-1.36318E-3	-109.900E-12	534.641E-3	-15.9839E-3	-108.754E-12	577.801E-3	-16.3466E-3
-1.36818E-3	-109.951E-12	561.371E-3	-18.7367E-3	-109.537E-12	594.480E-3	-13.2624E-3
-1.37319E-3	-110.751E-12	593.759E-3	-6.12914E-3	-109.965E-12	607.342E-3	2.20305E-3
-1.37819E-3	-111.086E-12	591.085E-3	-9.88701E-3	-108.887E-12	606.076E-3	-16.2483E-3
-1.38319E-3	-111.062E-12	576.690E-3	-22.1981E-3	-109.310E-12	593.791E-3	-26.3606E-3
-1.38819E-3	-111.035E-12	575.491E-3	-19.2399E-3	-109.377E-12	588.459E-3	-11.0057E-3
-1.39320E-3	-110.572E-12	572.147E-3	-22.2858E-3	-110.074E-12	591.646E-3	-23.9440E-3
-1.39820E-3	-110.152E-12	572.931E-3	-23.5842E-3	-109.270E-12	570.981E-3	-41.5146E-3
-1.40320E-3	-109.787E-12	585.854E-3	-19.0045E-3	-108.729E-12	567.673E-3	-34.4736E-3
-1.40820E-3	-109.624E-12	589.346E-3	-15.1917E-3	-109.141E-12	611.836E-3	-29.3485E-3
-1.41321E-3	-109.231E-12	574.045E-3	-15.1014E-3	-109.581E-12	638.493E-3	-15.0238E-3
-1.41821E-3	-109.287E-12	572.128E-3	-15.7368E-3	-109.997E-12	634.063E-3	7.77024E-3
-1.42321E-3	-108.672E-12	597.007E-3	-13.5486E-3	-109.671E-12	631.158E-3	4.28232E-3
-1.42821E-3	-109.207E-12	613.160E-3	-29.2465E-3	-110.558E-12	627.181E-3	-25.8455E-3
-1.43322E-3	-109.420E-12	620.071E-3	-32.7079E-3	-112.374E-12	617.872E-3	-21.7678E-3
-1.43822E-3	-110.285E-12	625.010E-3	-14.9123E-3	-113.338E-12	629.396E-3	17.5008E-3
-1.44322E-3	-111.222E-12	620.526E-3	-18.6371E-3	-113.097E-12	656.198E-3	23.9384E-3
-1.44822E-3	-109.935E-12	621.214E-3	-23.1784E-3	-113.023E-12	672.053E-3	3.13519E-3
-1.45323E-3	-110.416E-12	624.135E-3	-11.2112E-3	-113.015E-12	672.810E-3	-16.8072E-3
-1.45823E-3	-111.582E-12	634.310E-3	-12.0566E-3	-115.276E-12	666.287E-3	-31.4148E-3
-1.46323E-3	-113.326E-12	644.972E-3	-20.7890E-3	-115.797E-12	672.182E-3	-19.4530E-3
-1.46823E-3	-112.969E-12	643.886E-3	-15.5930E-3	-116.231E-12	683.784E-3	-9.93389E-3
-1.47324E-3	-112.942E-12	646.595E-3	-19.6033E-3	-115.275E-12	669.937E-3	-30.1902E-3
-1.47824E-3	-114.205E-12	649.115E-3	-34.8715E-3	-116.039E-12	663.169E-3	-15.6953E-3
-1.48324E-3	-115.026E-12	650.536E-3	-30.1610E-3	-115.289E-12	686.509E-3	18.8301E-3
-1.48824E-3	-114.664E-12	653.128E-3	-12.5801E-3	-115.500E-12	689.467E-3	-276.402E-6
-1.49325E-3	-114.397E-12	647.590E-3	-10.7068E-3	-114.312E-12	676.199E-3	-21.8801E-3
-1.49825E-3	-114.268E-12	642.011E-3	-21.2076E-3	-114.454E-12	678.410E-3	-17.5334E-3
-1.50325E-3	-115.043E-12	646.544E-3	-14.2692E-3	-113.860E-12	659.162E-3	-22.4561E-3
-1.50825E-3	-115.853E-12	656.780E-3	-1.75453E-3	-113.798E-12	620.409E-3	-26.4231E-3
-1.51326E-3	-115.963E-12	668.120E-3	3.81113E-3	-113.368E-12	630.389E-3	-22.9454E-3
-1.51826E-3	-115.740E-12	667.494E-3	10.4459E-3	-113.204E-12	669.409E-3	-36.1743E-3
-1.52326E-3	-115.401E-12	642.316E-3	2.74940E-3	-113.247E-12	664.274E-3	-49.2254E-3
-1.52826E-3	-115.082E-12	619.602E-3	-8.70415E-3	-113.772E-12	647.451E-3	-33.9047E-3
-1.53327E-3	-116.220E-12	610.695E-3	-9.51363E-3	-113.636E-12	653.545E-3	-11.6440E-3
-1.53827E-3	-115.929E-12	604.412E-3	-6.13979E-3	-113.230E-12	651.447E-3	16.9169E-3
-1.54327E-3	-114.890E-12	624.164E-3	-1.88329E-3	-113.385E-12	660.473E-3	5.63668E-3
-1.54827E-3	-115.215E-12	657.016E-3	1.69432E-3	-114.054E-12	672.337E-3	-54.9948E-3
-1.55328E-3	-116.529E-12	666.384E-3	-15.3725E-3	-114.579E-12	669.195E-3	-66.0433E-3
-1.55828E-3	-115.928E-12	669.559E-3	-38.4423E-3	-115.266E-12	683.216E-3	-21.4455E-3
-1.56328E-3	-115.870E-12	691.645E-3	-39.6242E-3	-116.007E-12	677.598E-3	10.5322E-3
-1.56828E-3	-116.096E-12	693.211E-3	-30.8049E-3	-116.760E-12	653.802E-3	32.4717E-3
-1.57329E-3	-117.608E-12	662.826E-3	-16.3332E-3	-117.164E-12	675.976E-3	47.4569E-3
-1.57829E-3	-117.658E-12	644.269E-3	-9.48279E-3	-117.806E-12	710.305E-3	35.1754E-3
-1.58329E-3	-117.182E-12	646.190E-3	-2.84318E-3	-118.124E-12	708.637E-3	11.3496E-3
-1.58829E-3	-116.291E-12	651.736E-3	5.13396E-3	-118.545E-12	702.155E-3	-14.9287E-3
-1.59330E-3	-117.840E-12	643.343E-3	-7.48939E-3	-118.593E-12	696.453E-3	-29.1817E-3
-1.59830E-3	-118.894E-12	630.752E-3	-14.6329E-3	-118.170E-12	669.861E-3	-22.6273E-3
-1.60330E-3	-119.537E-12	636.952E-3	-11.7839E-3	-118.003E-12	646.319E-3	-13.9641E-3
-1.60830E-3	-119.484E-12	662.625E-3	-12.4191E-3	-117.418E-12	653.085E-3	-35.1278E-3
-1.61331E-3	-119.347E-12	666.070E-3	-887.024E-6	-118.065E-12	671.673E-3	-67.4966E-3
-1.61831E-3	-120.495E-12	647.659E-3	2.55307E-3	-117.465E-12	663.019E-3	-47.8957E-3
-1.62331E-3	-121.027E-12	634.132E-3	-14.2203E-3	-117.515E-12	640.988E-3	-7.35325E-3
-1.62831E-3	-120.662E-12	632.377E-3	-38.0737E-3	-117.195E-12	628.644E-3	2.41310E-3
-1.63332E-3	-120.786E-12	650.008E-3	-50.5699E-3	-117.831E-12	634.492E-3	9.52391E-3
-1.63832E-3	-120.995E-12	663.734E-3	-30.6190E-3	-119.028E-12	654.041E-3	7.49445E-3
-1.64332E-3	-122.476E-12	666.139E-3	-12.9637E-3	-120.305E-12	650.434E-3	-12.6657E-3
-1.64832E-3	-121.775E-12	663.169E-3	-11.7184E-3	-119.538E-12	643.598E-3	-11.3062E-3
-1.65333E-3	-120.693E-12	639.461E-3	-14.2158E-3	-120.324E-12	654.968E-3	-2.34832E-3
-1.65833E-3	-121.184E-12	616.076E-3	-19.8351E-3	-121.520E-12	654.764E-3	-13.4185E-3
-1.66333E-3	-121.895E-12	627.047E-3	-31.9935E-3	-122.602E-12	653.621E-3	-24.6216E-3
-1.66833E-3	-122.156E-12	657.337E-3	-40.9385E-3	-123.328E-12	669.120E-3	-36.5582E-3
-1.67334E-3	-121.669E-12	678.239E-3	-18.7987E-3	-122.743E-12	663.465E-3	-31.0182E-3
-1.67834E-3	-121.634E-12	683.026E-3	-2.30311E-3	-123.767E-12	643.140E-3	-9.22677E-3
-1.68334E-3	-122.976E-12	700.824E-3	-15.3133E-3	-124.286E-12	660.265E-3	-25.9134E-3
-1.68834E-3	-123.438E-12	710.981E-3	-22.4857E-3	-124.817E-12	669.257E-3	-43.2017E-3
-1.69335E-3	-122.728E-12	680.378E-3	-24.6131E-3	-123.397E-12	649.905E-3	-24.8689E-3
-1.69835E-3	-122.175E-12	662.840E-3	-30.4344E-3	-122.582E-12	659.154E-3	-10.6934E-3
-1.70335E-3	-122.530E-12	666.341E-3	-29.9551E-3	-122.793E-12	660.743E-3	-25.8826E-3
-1.70835E-3	-124.373E-12	659.933E-3	-15.7380E-3	-123.333E-12	631.703E-3	-32.4395E-3
-1.71336E-3	-123.435E-12	667.272E-3	-14.1769E-3	-121.962E-12	630.335E-3	-15.1770E-3
-1.71836E-3	-122.654E-12	683.796E-3	-40.2032E-3	-120.642E-12	644.649E-3	4.15889E-3
-1.72336E-3	-123.281E-12	670.857E-3	-51.2225E-3	-122.605E-12	634.903E-3	33.4962E-3
-1.72836E-3	-123.988E-12	646.826E-3	-36.5869E-3	-123.816E-12	639.639E-3	32.3548E-3
-1.73337E-3	-124.533E-12	661.341E-3	-23.8222E-3	-123.621E-12	650.218E-3	-12.8019E-3
-1.73837E-3	-122.685E-12	685.785E-3	-24.1836E-3	-123.086E-12	634.682E-3	-34.2954E-3
-1.74337E-3	-122.980E-12	670.393E-3	-24.7165E-3	-123.491E-12	645.117E-3	-20.8239E-3
-1.74837E-3	-123.607E-12	636.185E-3	-10.6394E-3	-125.207E-12	668.256E-3	-36.5871E-3
-1.75338E-3	-125.169E-12	624.670E-3	-5.50539E-3	-126.564E-12	651.110E-3	-53.1292E-3
-1.75838E-3	-125.186E-12	640.772E-3	-28.9355E-3	-125.798E-12	651.124E-3	-20.5612E-3
-1.76338E-3	-123.840E-12	655.298E-3	-30.2481E-3	-127.898E-12	673.464E-3	-6.95987E-3
-1.76838E-3	-123.838E-12	655.133E-3	-4.12222E-3	-128.952E-12	652.839E-3	-22.9499E-3
-1.77339E-3	-125.784E-12	651.949E-3	-1.44216E-3	-129.090E-12	628.370E-3	-10.7700E-3
-1.77839E-3	-127.399E-12	636.664E-3	-11.2602E-3	-129.531E-12	633.544E-3	-14.4378E-3
-1.78339E-3	-126.271E-12	613.704E-3	-24.2788E-3	-130.982E-12	642.400E-3	-37.3664E-3
-1.78839E-3	-125.795E-12	609.371E-3	-32.7456E-3	-131.899E-12	649.456E-3	-36.3830E-3
-1.79340E-3	-126.004E-12	634.331E-3	-19.8656E-3	-131.081E-12	638.997E-3	-37.3229E-3
-1.79840E-3	-128.354E-12	665.123E-3	-7.75168E-3	-130.946E-12	626.583E-3	-39.3838E-3
-1.80340E-3	-128.861E-12	666.679E-3	2.59917E-3	-130.770E-12	640.310E-3	-31.9699E-3
-1.80840E-3	-128.085E-12	645.784E-3	9.77251E-3	-131.765E-12	665.078E-3	-25.8054E-3
-1.81341E-3	-126.602E-12	642.905E-3	-1.28441E-3	-130.508E-12	678.881E-3	-36.5901E-3
-1.81841E-3	-127.228E-12	666.744E-3	-22.6548E-3	-128.677E-12	676.116E-3	-55.1134E-3
-1.82341E-3	-128.192E-12	684.832E-3	-25.1108E-3	-129.320E-12	657.882E-3	-59.9506E-3
-1.82841E-3	-127.450E-12	678.628E-3	-17.9907E-3	-129.099E-12	625.956E-3	-45.5002E-3
-1.83342E-3	-125.716E-12	655.433E-3	-25.0287E-3	-129.222E-12	620.727E-3	-9.95193E-3
-1.83842E-3	-125.697E-12	646.526E-3	-20.0012E-3	-128.052E-12	639.959E-3	17.2584E-3
-1.84342E-3	-126.339E-12	648.162E-3	5.51373E-3	-128.494E-12	632.969E-3	8.91524E-3
-1.84842E-3	-126.000E-12	640.519E-3	15.0262E-3	-128.095E-12	608.130E-3	-464.452E-6
-1.85343E-3	-124.861E-12	629.252E-3	1.60734E-3	-129.392E-12	614.741E-3	-11.5438E-3
-1.85843E-3	-124.809E-12	613.735E-3	4.33257E-3	-130.113E-12	636.639E-3	-44.1817E-3
-1.86343E-3	-126.254E-12	602.635E-3	20.7871E-3	-129.520E-12	623.137E-3	-43.6822E-3
-1.86843E-3	-127.906E-12	601.489E-3	15.4764E-3	-129.807E-12	630.874E-3	-17.0691E-3
-1.87344E-3	-126.788E-12	612.051E-3	-20.0777E-3	-130.119E-12	674.807E-3	-16.0254E-3
-1.87844E-3	-126.087E-12	620.656E-3	-53.6173E-3	-131.475E-12	683.127E-3	3.86549E-3
-1.88344E-3	-127.473E-12	621.666E-3	-61.0763E-3	-131.381E-12	673.843E-3	29.8341E-3
-1.88844E-3	-130.227E-12	636.071E-3	-54.9735E-3	-132.249E-12	666.239E-3	4.79629E-3
-1.89345E-3	-130.723E-12	644.249E-3	-37.7646E-3	-132.779E-12	653.586E-3	-15.1007E-3
-1.89845E-3	-129.853E-12	650.030E-3	-16.2294E-3	-131.868E-12	646.877E-3	-5.72227E-3
-1.90345E-3	-130.088E-12	662.351E-3	-4.80314E-3	-132.365E-12	643.833E-3	-1.27849E-3
-1.90845E-3	-132.049E-12	642.229E-3	-20.6478E-3	-132.573E-12	647.604E-3	3.68583E-3
-1.91346E-3	-133.005E-12	626.411E-3	-50.3607E-3	-132.875E-12	664.930E-3	4.55845E-3
-1.91846E-3	-133.709E-12	662.280E-3	-42.0387E-3	-131.687E-12	670.978E-3	7.32211E-3
-1.92346E-3	-132.871E-12	685.378E-3	-6.99254E-3	-132.531E-12	655.299E-3	20.0878E-3
-1.92846E-3	-133.169E-12	668.216E-3	3.57468E-3	-131.245E-12	654.436E-3	18.5164E-3
-1.93347E-3	-133.728E-12	650.900E-3	2.12669E-3	-132.282E-12	656.648E-3	5.59236E-3
-1.93847E-3	-134.085E-12	646.283E-3	4.47961E-3	-130.791E-12	645.524E-3	3.38565E-3
-1.94347E-3	-134.200E-12	650.143E-3	-5.69863E-3	-131.869E-12	634.192E-3	4.77043E-3
-1.94847E-3	-133.295E-12	648.013E-3	-12.6860E-3	-133.081E-12	629.987E-3	75.2647E-6
-1.95348E-3	-134.040E-12	632.771E-3	-4.06149E-3	-132.711E-12	630.474E-3	-1.81687E-3
-1.95848E-3	-134.641E-12	617.971E-3	-5.34600E-3	-132.370E-12	649.559E-3	-2.66670E-3
-1.96348E-3	-135.681E-12	621.203E-3	-24.9127E-3	-132.170E-12	673.890E-3	-22.4391E-3
-1.96848E-3	-134.817E-12	646.607E-3	-24.4974E-3	-134.332E-12	660.034E-3	-43.6236E-3
-1.97349E-3	-135.367E-12	674.329E-3	-7.23736E-3	-134.794E-12	648.588E-3	-41.2230E-3
-1.97849E-3	-135.992E-12	680.023E-3	-26.0187E-3	-134.104E-12	670.481E-3	-44.9320E-3
-1.98349E-3	-136.921E-12	669.520E-3	-52.7856E-3	-133.687E-12	678.367E-3	-46.2053E-3
-1.98849E-3	-135.770E-12	666.318E-3	-45.1112E-3	-135.746E-12	662.072E-3	-31.1802E-3
-1.99350E-3	-136.654E-12	660.610E-3	-44.2667E-3	-138.288E-12	639.126E-3	-30.5659E-3
-1.99850E-3	-137.506E-12	647.281E-3	-61.9102E-3	-137.172E-12	636.696E-3	-32.2694E-3
-2.00350E-3	-137.632E-12	651.975E-3	-67.2489E-3	-136.506E-12	659.124E-3	-6.55723E-3
-2.00850E-3	-137.967E-12	663.826E-3	-59.9584E-3	-136.238E-12	675.501E-3	10.9175E-3
-2.01351E-3	-136.565E-12	650.979E-3	-37.4352E-3	-138.425E-12	686.549E-3	16.2673E-3
-2.01851E-3	-138.278E-12	645.323E-3	-1.56791E-3	-138.004E-12	681.073E-3	18.1360E-3
-2.02351E-3	-139.659E-12	675.137E-3	5.54126E-3	-137.854E-12	655.824E-3	-17.6192E-3
-2.02851E-3	-139.083E-12	679.929E-3	-22.6889E-3	-136.886E-12	644.127E-3	-36.2370E-3
-2.03352E-3	-137.837E-12	670.586E-3	-38.8299E-3	-137.106E-12	660.299E-3	-11.5361E-3
-2.03852E-3	-138.663E-12	673.559E-3	-18.6575E-3	-138.090E-12	679.831E-3	5.46127E-3
-2.04352E-3	-139.269E-12	672.388E-3	-8.17244E-3	-136.301E-12	672.122E-3	-5.61291E-3
-2.04852E-3	-139.295E-12	669.876E-3	-28.7158E-3	-136.177E-12	650.676E-3	-2.73136E-3
-2.05353E-3	-138.481E-12	663.421E-3	-32.0568E-3	-135.958E-12	615.127E-3	23.8936E-3
-2.05853E-3	-139.066E-12	668.572E-3	-29.8701E-3	-138.216E-12	573.233E-3	12.6245E-3
-2.06353E-3	-139.440E-12	672.716E-3	-28.0388E-3	-139.589E-12	584.203E-3	-15.1889E-3
-2.06853E-3	-139.688E-12	654.314E-3	-23.6573E-3	-139.633E-12	641.730E-3	-35.7690E-3
-2.07354E-3	-140.513E-12	626.189E-3	-36.8814E-3	-139.105E-12	673.639E-3	-48.6187E-3
-2.07854E-3	-141.052E-12	625.603E-3	-38.0415E-3	-139.173E-12	675.937E-3	-30.9396E-3
-2.08354E-3	-141.040E-12	649.251E-3	-9.91635E-3	-141.760E-12	683.794E-3	-21.3445E-3
-2.08854E-3	-140.279E-12	651.577E-3	-1.53429E-3	-143.131E-12	680.432E-3	-30.8001E-3
-2.09355E-3	-140.880E-12	651.068E-3	-27.4783E-3	-143.608E-12	652.894E-3	-20.5136E-3
-2.09855E-3	-141.366E-12	663.426E-3	-49.2033E-3	-142.501E-12	649.594E-3	-10.6337E-3
-2.10355E-3	-142.001E-12	658.675E-3	-59.9261E-3	-143.862E-12	676.707E-3	-16.2727E-3
-2.10855E-3	-140.540E-12	644.372E-3	-61.4709E-3	-146.293E-12	703.487E-3	-12.4280E-3
-2.11356E-3	-140.441E-12	638.996E-3	-44.9604E-3	-145.195E-12	719.971E-3	-12.6702E-3
-2.11856E-3	-141.179E-12	650.258E-3	-13.0028E-3	-143.741E-12	687.397E-3	-27.8227E-3
-2.12356E-3	-142.397E-12	662.940E-3	7.01394E-3	-142.313E-12	642.855E-3	-20.7893E-3
-2.12856E-3	-142.067E-12	677.312E-3	-10.2079E-3	-143.358E-12	663.153E-3	-8.21907E-3
-2.13357E-3	-140.239E-12	698.926E-3	-39.2385E-3	-142.386E-12	691.810E-3	-44.8579E-3
-2.13857E-3	-140.941E-12	693.283E-3	-36.6784E-3	-142.716E-12	682.820E-3	-73.4335E-3
-2.14357E-3	-142.465E-12	677.445E-3	-24.2193E-3	-141.828E-12	679.770E-3	-53.0756E-3
-2.14857E-3	-143.050E-12	657.278E-3	-31.3423E-3	-141.216E-12	682.109E-3	-39.0641E-3
-2.15358E-3	-140.894E-12	625.450E-3	-35.0547E-3	-140.151E-12	674.809E-3	-41.7000E-3
-2.15858E-3	-140.425E-12	629.544E-3	-27.8078E-3	-139.969E-12	668.759E-3	-41.5702E-3
-2.16358E-3	-141.393E-12	657.143E-3	-26.5702E-3	-141.018E-12	662.509E-3	-29.0807E-3
-2.16858E-3	-142.903E-12	669.743E-3	-27.1973E-3	-140.686E-12	660.602E-3	-9.83732E-3
-2.17359E-3	-142.590E-12	678.226E-3	-35.4545E-3	-141.869E-12	675.685E-3	-10.5911E-3
-2.17859E-3	-142.315E-12	688.391E-3	-39.4347E-3	-143.015E-12	693.408E-3	-28.4635E-3
-2.18359E-3	-142.443E-12	680.314E-3	-28.8299E-3	-146.196E-12	694.508E-3	-30.1488E-3
-2.18859E-3	-143.569E-12	649.619E-3	-34.6996E-3	-145.512E-12	686.225E-3	-6.36683E-3
-2.19360E-3	-142.776E-12	624.099E-3	-41.6725E-3	-145.030E-12	675.176E-3	-2.90404E-3
-2.19860E-3	-143.813E-12	622.322E-3	-20.8150E-3	-145.977E-12	659.772E-3	-26.1761E-3
-2.20360E-3	-142.993E-12	638.648E-3	-3.62499E-3	-146.461E-12	656.590E-3	-17.9593E-3
-2.20860E-3	-145.384E-12	656.040E-3	-8.33025E-3	-147.857E-12	668.255E-3	-15.9622E-3
-2.21361E-3	-146.361E-12	651.089E-3	-14.5588E-3	-147.078E-12	646.619E-3	-32.8928E-3
-2.21861E-3	-146.882E-12	640.933E-3	-22.7920E-3	-147.686E-12	630.355E-3	-14.6885E-3
-2.22361E-3	-147.212E-12	642.251E-3	-19.3138E-3	-145.243E-12	647.948E-3	-21.7712E-3
-2.22861E-3	-147.126E-12	657.686E-3	-9.56428E-3	-145.968E-12	643.446E-3	-39.1116E-3
-2.23362E-3	-149.397E-12	678.204E-3	-10.3895E-3	-145.066E-12	649.164E-3	-5.20852E-3
-2.23862E-3	-149.415E-12	679.054E-3	-11.3351E-3	-144.954E-12	670.921E-3	-555.315E-6
-2.24362E-3	-147.731E-12	667.779E-3	-15.9287E-3	-144.336E-12	657.721E-3	-27.0736E-3
-2.24862E-3	-146.996E-12	670.036E-3	-10.8142E-3	-144.019E-12	631.645E-3	-8.15614E-3
-2.25363E-3	-148.566E-12	691.440E-3	4.79310E-3	-145.543E-12	633.014E-3	16.0058E-3
-2.25863E-3	-150.040E-12	688.617E-3	22.6412E-3	-145.087E-12	636.729E-3	16.7265E-3
-2.26363E-3	-148.485E-12	677.474E-3	31.5754E-3	-145.818E-12	629.935E-3	25.1038E-3
-2.26863E-3	-146.727E-12	679.246E-3	3.39090E-3	-143.535E-12	628.028E-3	21.6425E-3
-2.27364E-3	-146.485E-12	670.382E-3	-37.3466E-3	-146.819E-12	633.407E-3	7.94137E-3
-2.27864E-3	-146.927E-12	671.791E-3	-41.3545E-3	-146.997E-12	663.056E-3	-615.757E-6
-2.28364E-3	-147.615E-12	677.482E-3	-22.9617E-3	-146.597E-12	692.026E-3	-18.7387E-3
-2.28864E-3	-147.135E-12	671.488E-3	-12.9000E-3	-147.294E-12	671.076E-3	-29.4196E-3
-2.29365E-3	-146.991E-12	661.666E-3	-14.7332E-3	-147.815E-12	627.381E-3	-30.5558E-3
-2.29865E-3	-147.033E-12	651.955E-3	-28.3094E-3	-150.394E-12	610.251E-3	-16.1411E-3
-2.30365E-3	-147.911E-12	644.230E-3	-34.1171E-3	-148.829E-12	621.906E-3	-9.40204E-3
-2.30865E-3	-149.295E-12	652.656E-3	-32.8044E-3	-149.396E-12	644.087E-3	-12.9602E-3
-2.31366E-3	-149.841E-12	649.976E-3	-34.7524E-3	-149.505E-12	659.708E-3	5.89546E-3
-2.31866E-3	-150.926E-12	633.758E-3	-37.8643E-3	-151.470E-12	670.381E-3	-6.98502E-3
-2.32366E-3	-152.092E-12	655.820E-3	-24.8212E-3	-150.924E-12	677.291E-3	-33.6022E-3
-2.32866E-3	-153.195E-12	677.855E-3	-19.1483E-3	-149.414E-12	672.629E-3	-29.1431E-3
-2.33367E-3	-153.378E-12	673.894E-3	-49.3961E-3	-149.880E-12	664.521E-3	-14.6115E-3
-2.33867E-3	-153.812E-12	662.479E-3	-44.0251E-3	-151.018E-12	660.420E-3	9.12389E-3
-2.34367E-3	-152.704E-12	644.743E-3	-5.00347E-3	-151.912E-12	668.496E-3	13.6133E-3
-2.34867E-3	-153.259E-12	639.558E-3	6.64815E-3	-149.617E-12	667.282E-3	-20.5832E-3
-2.35368E-3	-152.731E-12	658.038E-3	13.4443E-3	-150.986E-12	661.717E-3	-42.8165E-3
-2.35868E-3	-152.732E-12	674.453E-3	15.0245E-3	-153.341E-12	671.640E-3	-29.4134E-3
-2.36368E-3	-151.947E-12	653.795E-3	-6.26224E-3	-155.523E-12	671.096E-3	-23.8776E-3
-2.36868E-3	-152.740E-12	617.192E-3	-29.4877E-3	-154.058E-12	636.993E-3	-27.3463E-3
-2.37369E-3	-152.339E-12	598.244E-3	-37.1160E-3	-152.905E-12	607.864E-3	-2.42092E-3
-2.37869E-3	-152.335E-12	605.960E-3	-33.9214E-3	-155.253E-12	631.022E-3	9.57024E-3
-2.38369E-3	-150.792E-12	631.024E-3	-26.6435E-3	-157.696E-12	665.574E-3	-7.71043E-3
-2.38869E-3	-151.301E-12	640.882E-3	-31.6472E-3	-158.336E-12	693.599E-3	-8.66328E-3
-2.39370E-3	-153.222E-12	627.195E-3	-35.5368E-3	-157.319E-12	696.223E-3	-22.9187E-3
-2.39870E-3	-153.401E-12	612.649E-3	-32.5460E-3	-157.497E-12	657.851E-3	-26.4628E-3
-2.40370E-3	-151.166E-12	613.803E-3	-28.5803E-3	-158.352E-12	652.521E-3	5.18383E-3
-2.40870E-3	-152.322E-12	604.915E-3	-13.7808E-3	-159.667E-12	686.286E-3	-6.00391E-3
-2.41371E-3	-154.803E-12	602.856E-3	-4.10784E-3	-160.823E-12	698.503E-3	-23.9212E-3
-2.41871E-3	-155.935E-12	637.487E-3	-13.3441E-3	-158.659E-12	688.827E-3	-1.65807E-3
-2.42371E-3	-154.410E-12	676.203E-3	-21.7461E-3	-156.539E-12	675.786E-3	12.7440E-3
-2.42871E-3	-153.944E-12	690.000E-3	-12.3017E-3	-157.575E-12	665.347E-3	18.5113E-3
-2.43372E-3	-155.245E-12	666.990E-3	-12.2692E-3	-159.277E-12	647.136E-3	15.9925E-3
-2.43872E-3	-155.876E-12	642.713E-3	-24.0378E-3	-157.802E-12	642.033E-3	-5.65165E-3
-2.44372E-3	-154.438E-12	641.913E-3	-27.6136E-3	-155.353E-12	660.828E-3	-16.6932E-3
-2.44872E-3	-152.381E-12	646.406E-3	-28.6390E-3	-155.467E-12	680.009E-3	-5.70020E-3
-2.45373E-3	-153.685E-12	637.255E-3	-18.0651E-3	-157.976E-12	681.245E-3	-15.0271E-3
-2.45873E-3	-154.347E-12	627.901E-3	-4.02435E-3	-158.662E-12	673.441E-3	-46.0928E-3
-2.46373E-3	-154.523E-12	621.432E-3	-6.57165E-3	-156.627E-12	678.344E-3	-42.6833E-3
-2.46873E-3	-154.044E-12	628.121E-3	-2.18714E-3	-155.792E-12	678.874E-3	-10.8988E-3
-2.47374E-3	-153.559E-12	643.408E-3	7.03538E-3	-156.955E-12	650.880E-3	-13.1650E-3
-2.47874E-3	-154.074E-12	629.272E-3	6.21872E-3	-158.036E-12	626.059E-3	-30.2356E-3
-2.48374E-3	-153.873E-12	619.354E-3	3.36718E-3	-156.150E-12	648.185E-3	-30.8978E-3
-2.48874E-3	-155.448E-12	628.650E-3	-2.38840E-3	-156.124E-12	660.664E-3	-33.1683E-3
-2.49375E-3	-154.303E-12	619.909E-3	-22.9670E-3	-157.969E-12	629.642E-3	-19.5345E-3
-2.49875E-3	-155.497E-12	600.621E-3	-31.9471E-3	-159.551E-12	629.981E-3	-21.0725E-3
-2.50375E-3	-155.431E-12	619.547E-3	-17.9972E-3	-159.054E-12	677.147E-3	-62.2226E-3
-2.50875E-3	-156.076E-12	639.124E-3	-7.39259E-3	-158.983E-12	705.034E-3	-65.2222E-3
-2.51376E-3	-156.403E-12	619.632E-3	-13.1169E-3	-159.750E-12	702.832E-3	-36.6716E-3
-2.51876E-3	-156.831E-12	607.641E-3	-25.6066E-3	-161.045E-12	688.155E-3	-42.6677E-3
-2.52376E-3	-159.341E-12	633.540E-3	-24.0699E-3	-161.463E-12	667.093E-3	-49.7483E-3
-2.52876E-3	-159.628E-12	649.484E-3	-20.2208E-3	-159.948E-12	666.597E-3	-38.1278E-3
-2.53377E-3	-160.439E-12	621.997E-3	-22.1500E-3	-158.849E-12	650.963E-3	-42.7651E-3
-2.53877E-3	-158.950E-12	610.355E-3	-19.9730E-3	-160.014E-12	628.065E-3	-40.7499E-3
-2.54377E-3	-159.364E-12	640.338E-3	-15.5428E-3	-158.399E-12	642.368E-3	-12.6254E-3
-2.54877E-3	-159.407E-12	676.222E-3	-12.9129E-3	-158.314E-12	649.624E-3	11.3227E-3
-2.55378E-3	-160.605E-12	681.071E-3	-10.9953E-3	-157.886E-12	628.683E-3	23.5072E-3
-2.55878E-3	-160.502E-12	673.022E-3	-36.0558E-3	-157.533E-12	625.533E-3	14.1935E-3
-2.56378E-3	-158.992E-12	679.165E-3	-61.8415E-3	-157.487E-12	644.103E-3	-12.5270E-3
-2.56878E-3	-159.791E-12	675.987E-3	-52.7653E-3	-157.531E-12	652.807E-3	-18.2906E-3
-2.57379E-3	-159.906E-12	654.359E-3	-50.1179E-3	-157.181E-12	654.141E-3	-10.9615E-3
-2.57879E-3	-159.851E-12	630.821E-3	-52.9820E-3	-155.495E-12	641.765E-3	-22.8659E-3
-2.58379E-3	-159.163E-12	633.170E-3	-47.9184E-3	-155.687E-12	633.961E-3	-28.8723E-3
-2.58879E-3	-159.284E-12	658.183E-3	-32.1184E-3	-157.686E-12	650.773E-3	-7.42494E-3
-2.59380E-3	-160.896E-12	664.091E-3	-13.5269E-3	-159.016E-12	667.208E-3	-4.24703E-3
-2.59880E-3	-160.153E-12	655.137E-3	-5.82131E-3	-159.006E-12	672.852E-3	-31.4364E-3
-2.60380E-3	-161.359E-12	642.310E-3	-1.94151E-3	-160.321E-12	659.316E-3	-44.7899E-3
-2.60880E-3	-161.016E-12	651.443E-3	-1.14907E-3	-163.201E-12	630.287E-3	-26.0519E-3
-2.61381E-3	-162.818E-12	670.135E-3	2.58455E-3	-164.183E-12	604.427E-3	3.99200E-3
-2.61881E-3	-162.359E-12	665.980E-3	10.7305E-3	-162.720E-12	605.795E-3	14.3731E-3
-2.62381E-3	-163.319E-12	671.156E-3	12.2052E-3	-162.778E-12	632.225E-3	3.20135E-3
-2.62881E-3	-163.552E-12	677.890E-3	6.52618E-3	-163.629E-12	644.734E-3	-9.65010E-3
-2.63382E-3	-164.063E-12	693.987E-3	-8.78969E-3	-165.468E-12	649.875E-3	-17.9630E-3
-2.63882E-3	-165.028E-12	715.326E-3	-29.6428E-3	-165.961E-12	658.647E-3	-27.0686E-3
-2.64382E-3	-165.147E-12	709.252E-3	-30.5773E-3	-163.930E-12	651.451E-3	-25.2968E-3
-2.64882E-3	-166.985E-12	699.058E-3	-29.1417E-3	-164.232E-12	655.629E-3	-2.94700E-3
-2.65383E-3	-165.629E-12	680.509E-3	-35.6753E-3	-164.165E-12	670.148E-3	6.62545E-3
-2.65883E-3	-165.404E-12	651.637E-3	-21.9980E-3	-166.568E-12	662.643E-3	-2.28659E-3
-2.66383E-3	-164.627E-12	651.978E-3	-5.95166E-3	-165.189E-12	656.834E-3	9.87079E-3
-2.66883E-3	-166.431E-12	685.591E-3	-12.6240E-3	-163.741E-12	692.518E-3	2.09758E-3
-2.67384E-3	-165.653E-12	708.053E-3	-28.4210E-3	-163.519E-12	727.819E-3	-34.5590E-3
-2.67884E-3	-165.247E-12	690.428E-3	-38.1269E-3	-165.338E-12	703.415E-3	-23.4195E-3
-2.68384E-3	-163.529E-12	670.683E-3	-35.5271E-3	-168.050E-12	687.260E-3	-233.214E-6
-2.68884E-3	-164.721E-12	671.314E-3	-25.4093E-3	-168.198E-12	696.029E-3	-15.4770E-3
-2.69385E-3	-165.405E-12	668.740E-3	-25.6937E-3	-168.771E-12	682.285E-3	-28.2886E-3
-2.69885E-3	-165.112E-12	669.380E-3	-23.1313E-3	-169.709E-12	677.656E-3	-24.7495E-3
-2.70385E-3	-163.463E-12	664.700E-3	-14.0926E-3	-172.395E-12	673.689E-3	-30.5013E-3
-2.70885E-3	-164.327E-12	631.753E-3	-7.90981E-3	-171.904E-12	669.104E-3	-32.6167E-3
-2.71386E-3	-165.938E-12	606.809E-3	-3.44085E-3	-171.354E-12	676.987E-3	-14.0596E-3
-2.71886E-3	-165.733E-12	621.619E-3	8.43718E-3	-172.150E-12	670.278E-3	-19.1469E-3
-2.72386E-3	-164.986E-12	660.717E-3	3.22718E-3	-173.998E-12	662.427E-3	-45.2035E-3
-2.72886E-3	-165.742E-12	694.171E-3	-27.4113E-3	-173.774E-12	666.378E-3	-52.4105E-3
-2.73387E-3	-167.107E-12	689.112E-3	-23.4239E-3	-171.108E-12	654.802E-3	-49.7062E-3
-2.73887E-3	-169.094E-12	650.350E-3	-88.5454E-6	-169.745E-12	635.006E-3	-38.0058E-3
-2.74387E-3	-169.339E-12	631.259E-3	6.77702E-3	-169.262E-12	640.524E-3	-26.0622E-3
-2.74887E-3	-169.876E-12	637.435E-3	-2.54211E-3	-169.636E-12	656.922E-3	-27.7735E-3
-2.75388E-3	-169.640E-12	645.314E-3	-14.5472E-3	-168.437E-12	655.788E-3	-19.4612E-3
-2.75888E-3	-170.063E-12	662.213E-3	-21.1758E-3	-167.772E-12	660.002E-3	-14.3931E-3
-2.76388E-3	-169.747E-12	680.807E-3	-20.5823E-3	-166.763E-12	685.676E-3	-34.7055E-3
-2.76888E-3	-169.965E-12	669.809E-3	-18.0601E-3	-166.470E-12	690.643E-3	-32.0350E-3
-2.77389E-3	-169.313E-12	653.613E-3	-31.4963E-3	-167.554E-12	676.581E-3	-17.2508E-3
-2.77889E-3	-169.758E-12	676.356E-3	-33.2588E-3	-169.492E-12	672.617E-3	-51.3217E-3
-2.78389E-3	-169.234E-12	684.895E-3	-8.87726E-3	-170.433E-12	672.367E-3	-81.9697E-3
-2.78889E-3	-169.429E-12	664.843E-3	-6.60144E-3	-169.158E-12	665.689E-3	-49.4228E-3
-2.79390E-3	-169.279E-12	665.116E-3	-35.1160E-3	-171.492E-12	655.829E-3	-27.3213E-3
-2.79890E-3	-169.689E-12	669.071E-3	-42.0142E-3	-172.415E-12	656.539E-3	-38.1791E-3
-2.80390E-3	-170.787E-12	648.162E-3	-34.8688E-3	-173.816E-12	657.920E-3	-37.8036E-3
-2.80890E-3	-171.427E-12	651.445E-3	-42.4630E-3	-172.397E-12	640.700E-3	-52.2901E-3
-2.81391E-3	-170.972E-12	675.633E-3	-59.1914E-3	-173.206E-12	622.590E-3	-49.6025E-3
-2.81891E-3	-169.744E-12	670.309E-3	-52.6081E-3	-174.983E-12	641.778E-3	-3.33469E-3
-2.82391E-3	-171.757E-12	667.961E-3	-20.5295E-3	-175.049E-12	667.643E-3	2.71524E-3
-2.82891E-3	-172.681E-12	674.116E-3	-12.0270E-3	-173.470E-12	637.036E-3	-21.1539E-3
-2.83392E-3	-173.466E-12	673.801E-3	-23.6590E-3	-171.068E-12	617.722E-3	-11.0682E-3
-2.83892E-3	-172.116E-12	682.235E-3	-27.5271E-3	-172.269E-12	661.858E-3	-9.12066E-3
-2.84392E-3	-172.240E-12	672.834E-3	-9.87363E-3	-172.763E-12	701.734E-3	-39.9582E-3
-2.84892E-3	-172.940E-12	641.956E-3	-13.0913E-3	-171.047E-12	684.320E-3	-30.3288E-3
-2.85393E-3	-174.092E-12	637.200E-3	-61.0591E-3	-170.187E-12	635.213E-3	6.89146E-3
-2.85893E-3	-174.049E-12	676.479E-3	-77.6487E-3	-168.806E-12	611.458E-3	-1.40615E-3
-2.86393E-3	-173.348E-12	714.594E-3	-45.9856E-3	-169.454E-12	626.672E-3	-33.1648E-3
-2.86893E-3	-174.251E-12	716.607E-3	-24.4866E-3	-168.713E-12	653.708E-3	-44.6345E-3
-2.87394E-3	-174.785E-12	695.887E-3	-5.92472E-3	-169.451E-12	657.329E-3	-34.6166E-3
-2.87894E-3	-174.130E-12	660.311E-3	12.7798E-3	-168.389E-12	643.811E-3	-17.5030E-3
-2.88394E-3	-173.107E-12	652.505E-3	994.725E-6	-169.714E-12	646.479E-3	-9.36496E-3
-2.88894E-3	-173.767E-12	683.965E-3	-197.824E-6	-170.637E-12	655.538E-3	-19.1293E-3
-2.89395E-3	-174.253E-12	675.683E-3	14.1637E-3	-170.399E-12	657.410E-3	-23.1812E-3
-2.89895E-3	-174.024E-12	636.898E-3	17.9924E-3	-170.393E-12	661.323E-3	-7.38300E-3
-2.90395E-3	-172.216E-12	623.663E-3	22.8368E-3	-171.710E-12	639.141E-3	-216.605E-6
-2.90895E-3	-172.852E-12	622.429E-3	6.46539E-3	-173.528E-12	617.814E-3	-24.6891E-3
-2.91396E-3	-174.943E-12	605.167E-3	-21.3945E-3	-174.856E-12	635.340E-3	-63.2147E-3
-2.91896E-3	-175.169E-12	604.754E-3	-29.1169E-3	-174.656E-12	657.788E-3	-71.8302E-3
-2.92396E-3	-175.289E-12	635.658E-3	-14.0353E-3	-176.466E-12	658.116E-3	-41.0888E-3
-2.92896E-3	-176.117E-12	637.152E-3	9.17635E-3	-177.633E-12	646.408E-3	-7.18824E-3
-2.93397E-3	-175.748E-12	624.321E-3	16.5896E-3	-179.921E-12	651.683E-3	1.13312E-3
-2.93897E-3	-176.451E-12	647.370E-3	19.2508E-3	-178.676E-12	669.142E-3	3.15683E-3
-2.94397E-3	-177.162E-12	676.073E-3	20.0953E-3	-178.655E-12	691.675E-3	-155.082E-6
-2.94897E-3	-178.518E-12	684.717E-3	22.8650E-3	-179.078E-12	697.908E-3	-9.98013E-3
-2.95398E-3	-177.791E-12	682.752E-3	32.1959E-3	-181.271E-12	673.542E-3	10.4688E-3
-2.95898E-3	-178.835E-12	690.321E-3	18.0436E-3	-180.990E-12	653.584E-3	17.6126E-3
-2.96398E-3	-179.273E-12	705.104E-3	-14.1367E-3	-179.276E-12	660.168E-3	-16.2655E-3
-2.96898E-3	-180.412E-12	690.112E-3	-24.9351E-3	-179.009E-12	678.370E-3	-18.2302E-3
-2.97399E-3	-179.214E-12	668.814E-3	-27.0837E-3	-179.336E-12	675.681E-3	20.5837E-3
-2.97899E-3	-178.721E-12	653.972E-3	-41.2486E-3	-179.214E-12	658.869E-3	35.7731E-3
-2.98399E-3	-178.687E-12	639.552E-3	-37.2618E-3	-177.846E-12	656.191E-3	29.7123E-3
-2.98899E-3	-177.882E-12	644.904E-3	-24.3517E-3	-178.947E-12	657.231E-3	22.9796E-3
-2.99400E-3	-178.279E-12	640.969E-3	-38.1406E-3	-178.976E-12	650.779E-3	-18.5182E-3
-2.99900E-3	-178.977E-12	645.733E-3	-42.8797E-3	-180.994E-12	650.299E-3	-70.5020E-3
-3.00400E-3	-178.695E-12	670.343E-3	-22.5724E-3	-179.693E-12	662.499E-3	-51.6303E-3
-3.00900E-3	-176.683E-12	680.552E-3	-19.6177E-3	-180.135E-12	670.085E-3	10.9807E-3
-3.01401E-3	-176.092E-12	662.680E-3	-31.4497E-3	-181.794E-12	672.130E-3	29.2737E-3
-3.01901E-3	-177.413E-12	665.316E-3	-42.6058E-3	-183.870E-12	686.234E-3	11.7649E-3
-3.02401E-3	-178.138E-12	691.239E-3	-48.1045E-3	-183.318E-12	700.848E-3	-595.329E-6
-3.02901E-3	-178.267E-12	665.226E-3	-33.0514E-3	-182.644E-12	687.131E-3	-12.6273E-3
-3.03402E-3	-178.320E-12	634.561E-3	-18.3979E-3	-184.332E-12	661.296E-3	-22.1307E-3
-3.03902E-3	-180.190E-12	660.866E-3	-6.45387E-3	-185.898E-12	658.881E-3	-19.1693E-3
-3.04402E-3	-180.474E-12	688.884E-3	6.26841E-3	-188.981E-12	660.558E-3	-21.1638E-3
-3.04902E-3	-181.972E-12	668.045E-3	-21.8700E-3	-187.382E-12	664.835E-3	-7.72745E-3
-3.05403E-3	-184.274E-12	646.590E-3	-72.6775E-3	-184.647E-12	681.462E-3	27.0721E-3
-3.05903E-3	-183.530E-12	655.193E-3	-85.6526E-3	-185.748E-12	684.000E-3	30.1053E-3
-3.06403E-3	-184.810E-12	667.580E-3	-60.8006E-3	-188.114E-12	680.294E-3	4.50694E-3
-3.06903E-3	-184.086E-12	681.798E-3	-26.5518E-3	-186.307E-12	678.361E-3	-23.9483E-3
-3.07404E-3	-186.369E-12	689.706E-3	5.27262E-3	-181.023E-12	683.491E-3	-27.2091E-3
-3.07904E-3	-184.629E-12	688.363E-3	23.2293E-3	-182.530E-12	688.481E-3	2.10385E-3
-3.08404E-3	-184.761E-12	704.478E-3	22.9123E-3	-184.230E-12	684.234E-3	20.5043E-3
-3.08904E-3	-183.755E-12	718.649E-3	16.4593E-3	-184.375E-12	681.063E-3	4.77499E-3
-3.09405E-3	-185.070E-12	713.526E-3	9.46190E-3	-181.543E-12	675.840E-3	-14.6171E-3
-3.09905E-3	-184.737E-12	705.289E-3	-6.12674E-3	-181.639E-12	703.692E-3	-2.14781E-3
-3.10405E-3	-183.185E-12	675.663E-3	-21.0110E-3	-184.089E-12	728.509E-3	-15.4528E-3
-3.10905E-3	-182.563E-12	633.246E-3	-27.0397E-3	-186.296E-12	709.543E-3	-66.7754E-3
-3.11406E-3	-182.485E-12	626.883E-3	-27.8159E-3	-186.091E-12	700.052E-3	-82.0964E-3
-3.11906E-3	-183.915E-12	645.364E-3	-25.9371E-3	-184.555E-12	692.499E-3	-64.4999E-3
-3.12406E-3	-183.129E-12	646.566E-3	-29.8333E-3	-187.826E-12	696.425E-3	-34.2757E-3
-3.12906E-3	-183.480E-12	614.227E-3	-37.2536E-3	-190.327E-12	730.275E-3	-19.3617E-3
-3.13407E-3	-184.751E-12	582.268E-3	-32.5816E-3	-190.966E-12	719.045E-3	-30.2045E-3
-3.13907E-3	-185.793E-12	614.556E-3	-16.4391E-3	-188.397E-12	674.543E-3	2.19963E-3
-3.14407E-3	-187.562E-12	642.299E-3	-7.04108E-3	-189.222E-12	671.024E-3	43.0209E-3
-3.14907E-3	-186.708E-12	617.742E-3	-687.509E-6	-191.349E-12	669.159E-3	21.1757E-3
-3.15408E-3	-187.492E-12	623.353E-3	2.90708E-3	-190.732E-12	650.976E-3	2.19655E-3
-3.15908E-3	-187.537E-12	650.948E-3	15.6780E-3	-186.394E-12	659.957E-3	14.7107E-3
-3.16408E-3	-190.424E-12	671.015E-3	33.3105E-3	-184.363E-12	651.477E-3	6.47314E-3
-3.16908E-3	-189.134E-12	685.973E-3	8.43658E-3	-184.674E-12	617.903E-3	-12.0006E-3
-3.17409E-3	-188.472E-12	709.074E-3	-39.4610E-3	-185.154E-12	629.789E-3	-14.9484E-3
-3.17909E-3	-189.472E-12	744.073E-3	-46.4715E-3	-183.753E-12	664.256E-3	-16.0822E-3
-3.18409E-3	-190.162E-12	734.680E-3	-11.9177E-3	-181.336E-12	658.722E-3	-31.3499E-3
-3.18909E-3	-192.474E-12	698.655E-3	14.6799E-3	-180.953E-12	652.307E-3	-41.8872E-3
-3.19410E-3	-189.557E-12	679.363E-3	27.0024E-3	-183.859E-12	693.084E-3	-51.6048E-3
-3.19910E-3	-190.032E-12	659.797E-3	41.1928E-3	-184.135E-12	691.051E-3	-68.9851E-3
-3.20410E-3	-189.179E-12	647.248E-3	30.4970E-3	-184.586E-12	649.314E-3	-38.0457E-3
-3.20910E-3	-192.363E-12	669.625E-3	2.78031E-3	-184.670E-12	667.873E-3	2.49130E-3
-3.21411E-3	-191.533E-12	684.782E-3	-13.0288E-3	-188.112E-12	675.920E-3	1.89788E-3
-3.21911E-3	-190.190E-12	667.037E-3	-32.7208E-3	-189.813E-12	671.055E-3	9.40700E-3
-3.22411E-3	-188.952E-12	673.133E-3	-47.6517E-3	-192.256E-12	698.153E-3	10.1964E-3
-3.22911E-3	-190.276E-12	702.463E-3	-25.1385E-3	-193.312E-12	658.079E-3	-31.6556E-3
-3.23412E-3	-192.282E-12	699.001E-3	2.46356E-3	-194.428E-12	612.800E-3	-46.8417E-3
-3.23912E-3	-190.243E-12	674.830E-3	-13.3162E-3	-195.375E-12	637.167E-3	-32.3962E-3
-3.24412E-3	-191.004E-12	665.726E-3	-55.2363E-3	-195.267E-12	649.716E-3	-36.0924E-3
-3.24912E-3	-190.203E-12	653.703E-3	-64.8804E-3	-195.613E-12	660.960E-3	-32.4003E-3
-3.25413E-3	-192.136E-12	637.620E-3	-28.8064E-3	-192.727E-12	688.546E-3	-20.1223E-3
-3.25913E-3	-192.100E-12	641.832E-3	4.46367E-3	-193.536E-12	692.273E-3	-13.8607E-3
-3.26413E-3	-192.114E-12	656.533E-3	13.3156E-3	-193.310E-12	676.239E-3	-32.9995E-3
-3.26913E-3	-192.380E-12	692.269E-3	4.16884E-3	-194.127E-12	665.645E-3	-73.3033E-3
-3.27414E-3	-191.618E-12	719.282E-3	7.05782E-3	-192.182E-12	662.574E-3	-65.2372E-3
-3.27914E-3	-194.144E-12	687.792E-3	16.4693E-3	-190.240E-12	650.000E-3	-7.35091E-3
-3.28414E-3	-191.523E-12	657.827E-3	1.36582E-3	-191.072E-12	648.746E-3	31.2726E-3
-3.28914E-3	-191.576E-12	659.592E-3	5.07104E-3	-192.979E-12	663.741E-3	18.3767E-3
-3.29415E-3	-191.026E-12	651.379E-3	17.9795E-3	-195.596E-12	660.995E-3	-29.7480E-3
-3.29915E-3	-193.540E-12	655.404E-3	-3.44435E-3	-192.694E-12	671.375E-3	-67.5808E-3
-3.30415E-3	-192.029E-12	672.764E-3	-14.0957E-3	-193.351E-12	699.091E-3	-58.9686E-3
-3.30915E-3	-191.985E-12	663.381E-3	-11.9075E-3	-195.431E-12	686.873E-3	-13.2497E-3
-3.31416E-3	-192.392E-12	676.201E-3	-12.7420E-3	-199.569E-12	646.963E-3	29.3049E-3
-3.31916E-3	-190.990E-12	704.054E-3	-4.42828E-3	-198.619E-12	645.944E-3	60.5694E-3
-3.32416E-3	-191.227E-12	679.564E-3	-8.35408E-3	-196.723E-12	676.523E-3	58.5006E-3
-3.32916E-3	-191.268E-12	657.675E-3	-37.9307E-3	-197.296E-12	692.766E-3	8.35291E-3
-3.33417E-3	-191.094E-12	676.029E-3	-62.1975E-3	-198.570E-12	686.591E-3	-15.6872E-3
-3.33917E-3	-192.184E-12	659.748E-3	-46.8583E-3	-201.042E-12	662.479E-3	-3.16295E-3
-3.34417E-3	-193.495E-12	616.923E-3	-24.9862E-3	-198.717E-12	654.781E-3	-2.68382E-3
-3.34917E-3	-192.346E-12	625.126E-3	-26.3435E-3	-197.228E-12	682.022E-3	-14.0816E-3
-3.35418E-3	-191.848E-12	639.446E-3	-34.2185E-3	-197.681E-12	694.853E-3	-30.8209E-3
-3.35918E-3	-194.278E-12	620.250E-3	-36.5615E-3	-198.687E-12	668.426E-3	-31.5831E-3
-3.36418E-3	-196.776E-12	620.422E-3	-18.5935E-3	-198.425E-12	631.970E-3	-1.42267E-3
-3.36918E-3	-198.161E-12	630.463E-3	12.6341E-3	-196.074E-12	623.063E-3	25.6097E-3
-3.37419E-3	-198.290E-12	622.453E-3	2.09637E-3	-197.321E-12	638.143E-3	14.8305E-3
-3.37919E-3	-198.722E-12	629.323E-3	-36.8359E-3	-197.995E-12	653.368E-3	-32.3279E-3
-3.38419E-3	-200.630E-12	648.278E-3	-41.7112E-3	-199.659E-12	648.113E-3	-61.5198E-3
-3.38919E-3	-200.906E-12	659.939E-3	-30.6972E-3	-197.614E-12	648.929E-3	-35.3783E-3
-3.39420E-3	-200.951E-12	656.529E-3	-14.9894E-3	-197.352E-12	669.880E-3	5.56930E-3
-3.39920E-3	-200.408E-12	629.624E-3	16.5756E-3	-197.790E-12	653.136E-3	13.3773E-3
-3.40420E-3	-199.976E-12	617.091E-3	14.3278E-3	-199.205E-12	616.062E-3	-12.1142E-3
-3.40920E-3	-199.702E-12	648.189E-3	-7.75758E-3	-198.962E-12	632.875E-3	-20.1376E-3
-3.41421E-3	-199.457E-12	686.696E-3	6.78551E-3	-197.675E-12	681.542E-3	6.22226E-3
-3.41921E-3	-199.223E-12	694.620E-3	220.544E-6	-197.402E-12	686.997E-3	7.33418E-3
-3.42421E-3	-199.504E-12	687.116E-3	-51.4161E-3	-200.217E-12	652.838E-3	-41.0927E-3
-3.42921E-3	-198.687E-12	679.124E-3	-69.1496E-3	-200.983E-12	630.463E-3	-78.9243E-3
-3.43422E-3	-198.831E-12	672.720E-3	-44.6838E-3	-199.287E-12	643.264E-3	-65.1080E-3
-3.43922E-3	-199.247E-12	675.942E-3	-30.5920E-3	-197.162E-12	650.548E-3	-32.2289E-3
-3.44422E-3	-199.932E-12	685.801E-3	-17.6072E-3	-199.981E-12	633.048E-3	-35.8447E-3
-3.44922E-3	-198.700E-12	687.102E-3	-12.4532E-3	-201.060E-12	627.294E-3	-69.0080E-3
-3.45423E-3	-197.576E-12	687.041E-3	-13.4522E-3	-199.781E-12	647.877E-3	-59.3680E-3
-3.45923E-3	-199.125E-12	696.889E-3	11.9796E-3	-198.018E-12	653.203E-3	-17.5838E-3
-3.46423E-3	-201.633E-12	687.607E-3	23.5283E-3	-199.058E-12	624.460E-3	4.95961E-3
-3.46923E-3	-203.215E-12	662.654E-3	14.0969E-3	-200.553E-12	615.567E-3	12.7889E-3
-3.47424E-3	-202.618E-12	649.561E-3	14.9692E-3	-200.998E-12	622.071E-3	-7.38296E-3
-3.47924E-3	-202.733E-12	656.337E-3	-2.75931E-3	-199.988E-12	616.593E-3	-20.8552E-3
-3.48424E-3	-204.668E-12	670.119E-3	-26.2915E-3	-198.822E-12	655.359E-3	-12.1270E-3
-3.48924E-3	-204.323E-12	679.308E-3	-25.4174E-3	-200.402E-12	692.235E-3	-30.6042E-3
-3.49425E-3	-204.034E-12	691.299E-3	-22.8251E-3	-202.380E-12	654.348E-3	-38.0749E-3
-3.49925E-3	-202.633E-12	693.617E-3	-28.4604E-3	-201.760E-12	618.326E-3	-43.7840E-3
-3.50425E-3	-201.889E-12	681.784E-3	-52.8460E-3	-199.262E-12	625.609E-3	-84.5586E-3
-3.50925E-3	-202.445E-12	668.941E-3	-54.8554E-3	-196.929E-12	652.371E-3	-84.4103E-3
-3.51426E-3	-202.652E-12	652.446E-3	-17.1629E-3	-199.241E-12	681.186E-3	-44.3739E-3
-3.51926E-3	-202.849E-12	652.828E-3	-3.42773E-3	-200.791E-12	663.779E-3	-21.2514E-3
-3.52426E-3	-201.377E-12	676.850E-3	-23.1992E-3	-200.392E-12	652.802E-3	-7.55900E-3
-3.52926E-3	-200.705E-12	671.140E-3	-63.4354E-3	-200.783E-12	703.578E-3	-15.4857E-3
-3.53427E-3	-201.519E-12	624.178E-3	-84.8207E-3	-202.438E-12	726.045E-3	-23.4134E-3
-3.53927E-3	-203.248E-12	599.725E-3	-54.9805E-3	-204.443E-12	691.837E-3	2.18241E-3
-3.54427E-3	-201.402E-12	612.726E-3	-21.0812E-3	-205.275E-12	658.859E-3	36.8640E-3
-3.54927E-3	-200.368E-12	641.946E-3	-19.9830E-3	-204.391E-12	655.086E-3	52.9225E-3
-3.55428E-3	-203.117E-12	662.104E-3	-18.6270E-3	-205.002E-12	661.118E-3	39.4736E-3
-3.55928E-3	-207.138E-12	640.727E-3	-14.7309E-3	-206.445E-12	671.211E-3	23.1568E-3
-3.56428E-3	-208.277E-12	621.525E-3	-27.5513E-3	-207.209E-12	668.779E-3	18.8808E-3
-3.56928E-3	-205.612E-12	629.633E-3	-26.1264E-3	-206.531E-12	633.650E-3	23.4155E-3
-3.57429E-3	-203.802E-12	638.927E-3	-17.1096E-3	-203.786E-12	639.846E-3	37.8077E-3
-3.57929E-3	-206.787E-12	635.985E-3	-41.2094E-3	-204.035E-12	681.717E-3	11.5656E-3
-3.58429E-3	-209.729E-12	622.702E-3	-44.7934E-3	-205.588E-12	663.661E-3	-40.2333E-3
-3.58929E-3	-206.955E-12	611.691E-3	626.229E-6	-204.118E-12	642.496E-3	-47.8448E-3
-3.59430E-3	-204.123E-12	622.959E-3	19.7120E-3	-202.816E-12	657.627E-3	-33.9842E-3
-3.59930E-3	-204.677E-12	650.548E-3	19.4649E-3	-201.683E-12	643.355E-3	-13.6567E-3
-3.60430E-3	-206.863E-12	673.969E-3	14.1080E-3	-202.552E-12	617.975E-3	16.1322E-3
-3.60930E-3	-207.236E-12	682.735E-3	-25.5863E-3	-201.222E-12	615.728E-3	12.6641E-3
-3.61431E-3	-203.746E-12	675.770E-3	-58.2914E-3	-201.437E-12	654.292E-3	-9.31533E-3
-3.61931E-3	-203.434E-12	641.939E-3	-58.1167E-3	-201.931E-12	702.519E-3	-20.6366E-3
-3.62431E-3	-204.644E-12	606.405E-3	-53.7114E-3	-205.764E-12	708.366E-3	-15.5244E-3
-3.62931E-3	-207.405E-12	620.126E-3	-79.3186E-3	-207.206E-12	707.980E-3	-4.83066E-3
-3.63432E-3	-205.647E-12	655.262E-3	-100.056E-3	-208.865E-12	704.669E-3	-653.199E-6
-3.63932E-3	-204.707E-12	675.970E-3	-79.5253E-3	-210.430E-12	689.434E-3	22.7955E-3
-3.64432E-3	-205.788E-12	665.734E-3	-42.5680E-3	-213.972E-12	674.219E-3	36.9256E-3
-3.64932E-3	-208.448E-12	625.407E-3	-24.1310E-3	-212.557E-12	661.108E-3	37.9746E-3
-3.65433E-3	-206.662E-12	600.824E-3	-47.4502E-3	-212.360E-12	686.988E-3	46.6530E-3
-3.65933E-3	-207.378E-12	602.612E-3	-48.7695E-3	-212.435E-12	714.785E-3	38.6971E-3
-3.66433E-3	-207.998E-12	608.641E-3	-30.2597E-3	-214.484E-12	687.494E-3	49.2309E-3
-3.66933E-3	-209.621E-12	631.999E-3	-35.8112E-3	-213.363E-12	678.108E-3	54.5137E-3
-3.67434E-3	-210.002E-12	671.469E-3	-20.5433E-3	-212.856E-12	671.196E-3	5.01590E-3
-3.67934E-3	-208.372E-12	684.195E-3	10.4542E-3	-210.264E-12	621.498E-3	-22.4340E-3
-3.68434E-3	-209.415E-12	677.958E-3	-3.57121E-3	-210.392E-12	629.127E-3	-28.6522E-3
-3.68934E-3	-210.568E-12	687.537E-3	-31.0095E-3	-211.035E-12	670.168E-3	-55.8930E-3
-3.69435E-3	-213.044E-12	703.732E-3	-41.2380E-3	-209.377E-12	661.320E-3	-60.9886E-3
-3.69935E-3	-210.900E-12	689.624E-3	-60.2514E-3	-207.585E-12	646.763E-3	-51.9761E-3
-3.70435E-3	-209.673E-12	671.636E-3	-66.8432E-3	-207.178E-12	654.144E-3	-32.5445E-3
-3.70935E-3	-210.271E-12	680.985E-3	-54.7832E-3	-209.720E-12	659.798E-3	-2.77223E-3
-3.71436E-3	-213.024E-12	678.053E-3	-35.3220E-3	-209.997E-12	671.534E-3	-144.331E-6
-3.71936E-3	-213.717E-12	663.584E-3	-9.09918E-3	-209.154E-12	673.674E-3	-1.18486E-3
-3.72436E-3	-211.019E-12	672.680E-3	30.0250E-3	-208.606E-12	635.687E-3	-2.33235E-3
-3.72936E-3	-212.000E-12	682.144E-3	22.3895E-3	-211.869E-12	610.905E-3	-25.5467E-3
-3.73437E-3	-212.848E-12	690.164E-3	-12.5979E-3	-214.117E-12	652.729E-3	-38.8496E-3
-3.73937E-3	-214.948E-12	692.967E-3	802.105E-6	-213.236E-12	702.850E-3	-34.8682E-3
-3.74437E-3	-211.655E-12	679.221E-3	4.11318E-3	-211.329E-12	706.432E-3	-40.8672E-3
-3.74937E-3	-210.076E-12	684.945E-3	-16.1836E-3	-212.141E-12	677.869E-3	-54.4220E-3
-3.75438E-3	-211.152E-12	695.409E-3	-16.0266E-3	-213.195E-12	653.207E-3	-52.4752E-3
-3.75938E-3	-213.332E-12	700.342E-3	-4.84850E-3	-213.639E-12	661.324E-3	-37.9314E-3
-3.76438E-3	-213.741E-12	717.570E-3	-21.5570E-3	-211.380E-12	651.823E-3	-10.7117E-3
-3.76938E-3	-211.762E-12	731.227E-3	-14.0438E-3	-209.643E-12	632.652E-3	-5.39604E-3
-3.77439E-3	-213.318E-12	699.234E-3	30.6853E-3	-210.727E-12	651.925E-3	-44.5713E-3
-3.77939E-3	-213.951E-12	657.538E-3	29.5345E-3	-213.106E-12	682.476E-3	-65.0111E-3
-3.78439E-3	-216.631E-12	665.023E-3	-5.64580E-3	-211.837E-12	684.378E-3	-42.3054E-3
-3.78939E-3	-215.326E-12	663.311E-3	-37.2898E-3	-208.884E-12	659.940E-3	-17.0752E-3
-3.79440E-3	-216.282E-12	634.869E-3	-35.7584E-3	-210.832E-12	647.185E-3	-15.2273E-3
-3.79940E-3	-217.149E-12	622.692E-3	4.77587E-3	-213.463E-12	659.743E-3	-25.3171E-3
-3.80440E-3	-218.666E-12	612.342E-3	19.1983E-3	-213.263E-12	683.538E-3	-50.8326E-3
-3.80940E-3	-218.510E-12	618.641E-3	7.16863E-3	-213.259E-12	715.307E-3	-77.3516E-3
-3.81441E-3	-217.872E-12	649.563E-3	5.42598E-3	-214.237E-12	733.760E-3	-64.2159E-3
-3.81941E-3	-218.550E-12	644.756E-3	4.35994E-3	-216.188E-12	698.122E-3	-35.1244E-3
-3.82441E-3	-218.303E-12	648.403E-3	-28.8050E-3	-218.241E-12	653.364E-3	-29.0076E-3
-3.82941E-3	-218.026E-12	682.762E-3	-52.0232E-3	-218.176E-12	647.069E-3	-29.4857E-3
-3.83442E-3	-216.581E-12	675.167E-3	-32.8200E-3	-217.143E-12	660.945E-3	-41.3841E-3
-3.83942E-3	-216.787E-12	674.244E-3	-44.3088E-3	-216.991E-12	672.445E-3	-51.9439E-3
-3.84442E-3	-217.061E-12	685.438E-3	-59.0874E-3	-218.265E-12	659.449E-3	-41.7093E-3
-3.84942E-3	-215.213E-12	665.362E-3	-29.4979E-3	-222.020E-12	631.665E-3	-27.6890E-3
-3.85443E-3	-216.065E-12	654.548E-3	-5.03807E-3	-220.777E-12	625.946E-3	-26.1096E-3
-3.85943E-3	-216.322E-12	643.363E-3	-32.4959E-3	-218.951E-12	633.937E-3	-17.2234E-3
-3.86443E-3	-217.202E-12	619.465E-3	-49.9226E-3	-217.960E-12	643.627E-3	15.8558E-3
-3.86943E-3	-216.806E-12	624.917E-3	-39.7800E-3	-220.348E-12	651.982E-3	53.6668E-3
-3.87444E-3	-216.197E-12	643.548E-3	-28.0322E-3	-218.203E-12	623.180E-3	54.7667E-3
-3.87944E-3	-216.820E-12	646.923E-3	-5.32718E-3	-216.561E-12	588.542E-3	33.4980E-3
-3.88444E-3	-218.904E-12	659.437E-3	-26.8072E-3	-217.668E-12	615.078E-3	29.2099E-3
-3.88944E-3	-221.096E-12	696.266E-3	-12.6936E-3	-219.062E-12	668.213E-3	19.2911E-3
-3.89445E-3	-220.307E-12	702.782E-3	63.6953E-3	-218.580E-12	695.735E-3	21.0570E-3
-3.89945E-3	-220.283E-12	666.491E-3	71.8115E-3	-216.355E-12	690.879E-3	32.9924E-3
-3.90445E-3	-221.418E-12	640.306E-3	46.7866E-3	-218.213E-12	666.453E-3	13.4219E-3
-3.90945E-3	-223.003E-12	632.164E-3	40.8472E-3	-221.094E-12	641.739E-3	-31.0451E-3
-3.91446E-3	-222.549E-12	647.353E-3	697.440E-6	-221.528E-12	616.904E-3	-53.0210E-3
-3.91946E-3	-220.333E-12	685.552E-3	-34.3943E-3	-217.638E-12	623.253E-3	-20.2050E-3
-3.92446E-3	-220.928E-12	690.424E-3	-13.4528E-3	-216.989E-12	648.380E-3	24.5944E-3
-3.92946E-3	-220.747E-12	662.439E-3	21.0082E-3	-220.277E-12	653.412E-3	9.89020E-3
-3.93447E-3	-221.493E-12	666.187E-3	39.6553E-3	-221.598E-12	632.864E-3	-27.6861E-3
-3.93947E-3	-219.604E-12	674.987E-3	14.8066E-3	-219.041E-12	626.538E-3	-29.5951E-3
-3.94447E-3	-219.979E-12	668.334E-3	-29.3300E-3	-217.936E-12	645.867E-3	-17.6693E-3
-3.94947E-3	-219.550E-12	704.211E-3	-30.3295E-3	-219.118E-12	639.248E-3	-6.37705E-3
-3.95448E-3	-220.636E-12	716.137E-3	5.97655E-3	-222.370E-12	637.094E-3	327.689E-6
-3.95948E-3	-220.218E-12	665.072E-3	46.2630E-3	-221.804E-12	671.411E-3	-30.6337E-3
-3.96448E-3	-220.091E-12	662.882E-3	51.2380E-3	-221.358E-12	673.705E-3	-57.7866E-3
-3.96948E-3	-220.090E-12	674.511E-3	31.7251E-3	-222.589E-12	636.681E-3	-38.1823E-3
-3.97449E-3	-222.752E-12	640.177E-3	-8.85771E-3	-223.992E-12	615.569E-3	-17.7311E-3
-3.97949E-3	-224.440E-12	665.526E-3	-54.9956E-3	-226.762E-12	619.750E-3	-29.8375E-3
-3.98449E-3	-223.570E-12	711.763E-3	-38.5672E-3	-226.998E-12	630.302E-3	-23.5470E-3
-3.98949E-3	-224.115E-12	686.013E-3	-14.5273E-3	-225.664E-12	653.574E-3	14.1485E-3
-3.99450E-3	-225.458E-12	652.264E-3	-34.8967E-3	-225.865E-12	708.144E-3	-7.04044E-3
-3.99950E-3	-229.027E-12	650.424E-3	-32.2367E-3	-225.943E-12	733.405E-3	-45.1106E-3
-4.00450E-3	-229.646E-12	652.049E-3	-19.4952E-3	-226.549E-12	711.905E-3	-29.6009E-3
-4.00950E-3	-227.845E-12	645.740E-3	-31.8978E-3	-225.537E-12	702.597E-3	-10.6161E-3
-4.01451E-3	-227.750E-12	639.728E-3	-33.0378E-3	-223.783E-12	716.269E-3	-17.5587E-3
-4.01951E-3	-230.488E-12	638.915E-3	-14.0855E-3	-222.653E-12	709.604E-3	-18.3083E-3
-4.02451E-3	-232.113E-12	650.008E-3	-14.3597E-3	-223.480E-12	700.028E-3	-11.3797E-3
-4.02951E-3	-228.788E-12	655.082E-3	-36.3986E-3	-224.406E-12	694.666E-3	-12.0822E-3
-4.03452E-3	-226.449E-12	641.061E-3	-25.2855E-3	-221.756E-12	670.809E-3	-16.6096E-3
-4.03952E-3	-225.368E-12	661.957E-3	3.56093E-3	-221.123E-12	668.680E-3	-37.5705E-3
-4.04452E-3	-227.989E-12	717.783E-3	2.11026E-3	-223.964E-12	655.108E-3	-64.4295E-3
-4.04952E-3	-227.456E-12	722.426E-3	-4.22675E-3	-226.423E-12	612.613E-3	-42.6770E-3
-4.05453E-3	-226.687E-12	675.498E-3	-7.10379E-3	-226.439E-12	638.002E-3	5.93944E-3
-4.05953E-3	-224.965E-12	637.989E-3	-30.1219E-3	-224.934E-12	694.794E-3	-10.5960E-3
-4.06453E-3	-227.052E-12	655.461E-3	-48.4327E-3	-228.881E-12	671.124E-3	-56.8024E-3
-4.06953E-3	-228.400E-12	712.602E-3	-43.3721E-3	-231.764E-12	635.815E-3	-50.3274E-3
-4.07454E-3	-227.898E-12	732.065E-3	-32.6159E-3	-232.578E-12	636.540E-3	-8.59794E-3
-4.07954E-3	-228.008E-12	696.181E-3	-22.8778E-3	-231.488E-12	618.285E-3	20.2737E-3
-4.08454E-3	-227.128E-12	662.458E-3	-21.2034E-3	-230.555E-12	618.873E-3	-12.9207E-3
-4.08954E-3	-229.864E-12	676.092E-3	-24.1227E-3	-231.833E-12	655.976E-3	-55.3935E-3
-4.09455E-3	-230.678E-12	668.494E-3	-38.7543E-3	-232.969E-12	674.910E-3	-39.1480E-3
-4.09955E-3	-231.583E-12	636.284E-3	-92.3223E-3	-232.968E-12	657.373E-3	-2.05403E-3
-4.10455E-3	-228.925E-12	646.213E-3	-97.7784E-3	-229.045E-12	643.669E-3	19.8779E-3
-4.10955E-3	-231.196E-12	655.301E-3	-28.0143E-3	-227.624E-12	659.680E-3	-994.001E-6
-4.11456E-3	-232.516E-12	657.289E-3	62.8943E-6	-227.549E-12	687.460E-3	-21.7440E-3
-4.11956E-3	-233.432E-12	681.798E-3	12.3364E-3	-228.413E-12	705.174E-3	-24.2535E-3
-4.12456E-3	-232.907E-12	680.910E-3	32.0946E-3	-227.558E-12	679.556E-3	-36.6759E-3
-4.12956E-3	-230.719E-12	654.812E-3	5.24388E-3	-226.689E-12	639.421E-3	-21.4444E-3
-4.13457E-3	-231.473E-12	647.352E-3	-21.6159E-3	-227.577E-12	639.758E-3	-24.4701E-3
-4.13957E-3	-230.269E-12	658.158E-3	-29.9479E-3	-228.899E-12	668.321E-3	-64.7701E-3
-4.14457E-3	-230.823E-12	675.585E-3	-46.4066E-3	-228.971E-12	682.071E-3	-79.2049E-3
-4.14957E-3	-228.979E-12	689.736E-3	-36.9116E-3	-228.491E-12	637.150E-3	-77.0086E-3
-4.15458E-3	-227.877E-12	673.297E-3	1.73824E-3	-228.109E-12	575.571E-3	-34.4413E-3
-4.15958E-3	-227.725E-12	630.096E-3	16.7572E-3	-228.992E-12	581.052E-3	17.6838E-3
-4.16458E-3	-229.251E-12	630.190E-3	-1.85023E-3	-232.090E-12	622.688E-3	8.16261E-3
-4.16958E-3	-229.554E-12	643.226E-3	4.87173E-3	-233.051E-12	659.127E-3	-27.3026E-3
-4.17459E-3	-227.246E-12	615.838E-3	28.6122E-3	-229.492E-12	678.689E-3	-23.4487E-3
-4.17959E-3	-227.978E-12	596.119E-3	16.5439E-3	-229.689E-12	662.867E-3	5.31618E-3
-4.18459E-3	-230.712E-12	596.924E-3	19.3660E-3	-230.856E-12	658.595E-3	-2.93005E-3
-4.18959E-3	-234.310E-12	601.857E-3	26.6089E-3	-234.048E-12	671.212E-3	-17.7946E-3
-4.19460E-3	-232.177E-12	643.500E-3	32.4586E-3	-229.870E-12	654.435E-3	-7.41864E-3
-4.19960E-3	-231.974E-12	702.964E-3	35.5018E-3	-226.862E-12	642.309E-3	3.23232E-3
-4.20460E-3	-231.311E-12	688.760E-3	1.99581E-3	-226.223E-12	632.823E-3	15.9184E-3
-4.20960E-3	-234.431E-12	662.538E-3	-20.7436E-3	-229.166E-12	587.606E-3	30.9583E-3
-4.21461E-3	-235.926E-12	686.150E-3	-26.9590E-3	-230.241E-12	580.881E-3	28.3074E-3
-4.21961E-3	-234.712E-12	719.265E-3	-49.2805E-3	-228.344E-12	628.516E-3	-6.81618E-3
-4.22461E-3	-232.181E-12	745.940E-3	-64.8064E-3	-227.688E-12	661.410E-3	-22.9908E-3
-4.22961E-3	-232.821E-12	715.659E-3	-42.9434E-3	-230.633E-12	664.288E-3	-13.8972E-3
-4.23462E-3	-237.657E-12	649.468E-3	-12.9375E-3	-235.731E-12	649.811E-3	-7.49512E-3
-4.23962E-3	-235.404E-12	642.631E-3	-25.7424E-3	-234.836E-12	664.073E-3	9.86737E-3
-4.24462E-3	-233.815E-12	683.690E-3	-64.9498E-3	-233.594E-12	679.109E-3	6.18467E-3
-4.24962E-3	-232.133E-12	695.125E-3	-71.2712E-3	-236.707E-12	663.790E-3	21.5541E-3
-4.25463E-3	-237.702E-12	690.735E-3	-70.9888E-3	-240.137E-12	659.585E-3	39.9566E-3
-4.25963E-3	-235.525E-12	707.097E-3	-61.6163E-3	-241.665E-12	685.097E-3	3.12277E-3
-4.26463E-3	-232.703E-12	708.154E-3	-19.0115E-3	-237.790E-12	715.102E-3	-9.17815E-3
-4.26963E-3	-232.210E-12	711.151E-3	2.62592E-3	-239.438E-12	725.297E-3	15.3407E-3
-4.27464E-3	-233.554E-12	726.313E-3	-12.0342E-3	-241.025E-12	706.708E-3	40.8930E-3
-4.27964E-3	-234.642E-12	671.224E-3	-32.9569E-3	-242.964E-12	668.491E-3	53.2921E-3
-4.28464E-3	-233.405E-12	623.254E-3	-58.8662E-3	-239.729E-12	637.034E-3	47.1591E-3
-4.28964E-3	-234.212E-12	655.233E-3	-98.5355E-3	-237.732E-12	609.182E-3	49.7269E-3
-4.29465E-3	-236.526E-12	671.884E-3	-94.4133E-3	-239.564E-12	614.338E-3	28.9498E-3
-4.29965E-3	-237.254E-12	673.648E-3	-65.8378E-3	-240.542E-12	649.347E-3	-31.3458E-3
-4.30465E-3	-237.231E-12	673.636E-3	-59.4697E-3	-240.361E-12	643.903E-3	-25.6382E-3
-4.30965E-3	-236.176E-12	649.594E-3	-22.4299E-3	-238.334E-12	630.803E-3	16.2258E-3
-4.31466E-3	-238.268E-12	633.517E-3	-7.69111E-3	-239.250E-12	652.521E-3	14.6501E-3
-4.31966E-3	-238.124E-12	630.096E-3	-46.4434E-3	-242.325E-12	681.569E-3	-852.592E-6
-4.32466E-3	-238.395E-12	636.629E-3	-84.3167E-3	-243.273E-12	692.769E-3	-16.6921E-3
-4.32966E-3	-238.416E-12	638.618E-3	-89.3199E-3	-241.424E-12	686.219E-3	-4.89001E-3
-4.33467E-3	-240.715E-12	612.990E-3	-36.3290E-3	-239.088E-12	675.321E-3	-732.458E-6
-4.33967E-3	-237.592E-12	604.364E-3	23.8978E-3	-240.848E-12	638.246E-3	-43.8931E-3
-4.34467E-3	-236.069E-12	623.379E-3	37.8634E-3	-242.351E-12	601.966E-3	-67.4009E-3
-4.34967E-3	-235.111E-12	618.511E-3	-2.16591E-3	-243.052E-12	613.590E-3	-22.1815E-3
-4.35468E-3	-237.204E-12	602.721E-3	-55.1424E-3	-240.323E-12	641.377E-3	30.9460E-3
-4.35968E-3	-237.337E-12	617.893E-3	-57.9258E-3	-241.590E-12	658.073E-3	32.9853E-3
-4.36468E-3	-236.603E-12	641.678E-3	-20.8100E-3	-243.320E-12	642.563E-3	15.1257E-3
-4.36968E-3	-236.013E-12	626.503E-3	9.24718E-3	-244.053E-12	616.680E-3	6.98695E-3
-4.37469E-3	-235.689E-12	615.122E-3	-10.4785E-3	-240.729E-12	632.266E-3	12.6722E-3
-4.37969E-3	-238.418E-12	648.161E-3	-21.6165E-3	-239.661E-12	645.623E-3	33.6526E-3
-4.38469E-3	-237.759E-12	652.891E-3	20.2623E-3	-240.111E-12	659.867E-3	21.5309E-3
-4.38969E-3	-237.602E-12	649.725E-3	13.8556E-3	-241.828E-12	699.832E-3	-29.1081E-3
-4.39470E-3	-238.588E-12	693.600E-3	-27.6034E-3	-243.155E-12	709.336E-3	-32.8922E-3
-4.39970E-3	-240.923E-12	707.099E-3	-38.0890E-3	-242.209E-12	700.039E-3	-7.66878E-3
-4.40470E-3	-242.042E-12	659.696E-3	-43.8950E-3	-242.842E-12	689.557E-3	9.62873E-3
-4.40970E-3	-242.248E-12	621.501E-3	-45.2273E-3	-245.330E-12	673.352E-3	56.5918E-3
-4.41471E-3	-245.245E-12	599.929E-3	-28.2087E-3	-246.838E-12	682.902E-3	69.2110E-3
-4.41971E-3	-247.967E-12	603.819E-3	-3.16535E-3	-249.396E-12	674.192E-3	23.2622E-3
-4.42471E-3	-250.357E-12	652.725E-3	-719.351E-6	-246.884E-12	654.327E-3	10.3399E-3
-4.42971E-3	-249.452E-12	664.694E-3	-55.5183E-3	-245.527E-12	669.783E-3	828.430E-6
-4.43472E-3	-248.987E-12	630.206E-3	-67.2410E-3	-246.203E-12	656.164E-3	-13.3301E-3
-4.43972E-3	-250.789E-12	631.982E-3	4.83939E-3	-249.164E-12	625.546E-3	4.90907E-3
-4.44472E-3	-251.276E-12	684.869E-3	45.1237E-3	-247.259E-12	626.855E-3	6.35462E-3
-4.44972E-3	-252.310E-12	697.280E-3	20.1231E-3	-243.783E-12	648.974E-3	16.5214E-3
-4.45473E-3	-250.289E-12	655.351E-3	-33.2993E-3	-243.508E-12	663.516E-3	25.9873E-3
-4.45973E-3	-249.294E-12	662.887E-3	-31.6402E-3	-244.244E-12	639.151E-3	-9.68541E-3
-4.46473E-3	-250.089E-12	645.708E-3	15.8264E-3	-243.667E-12	603.604E-3	-37.0944E-3
-4.46973E-3	-249.512E-12	610.840E-3	15.0849E-3	-240.859E-12	604.631E-3	-32.5961E-3
-4.47474E-3	-248.854E-12	669.701E-3	6.89898E-3	-240.683E-12	635.144E-3	-22.4033E-3
-4.47974E-3	-249.316E-12	689.574E-3	9.57011E-3	-240.397E-12	647.059E-3	-3.47539E-3
-4.48474E-3	-247.461E-12	677.823E-3	-35.1621E-3	-242.927E-12	636.694E-3	18.5370E-3
-4.48974E-3	-245.163E-12	699.271E-3	-41.2623E-3	-243.044E-12	638.057E-3	22.2720E-3
-4.49475E-3	-247.392E-12	685.197E-3	14.1047E-3	-243.638E-12	650.079E-3	15.0252E-3
-4.49975E-3	-248.781E-12	690.030E-3	21.9841E-3	-245.373E-12	648.825E-3	12.0050E-3
-4.50475E-3	-251.136E-12	700.456E-3	-28.2659E-3	-245.559E-12	650.608E-3	17.3158E-3
-4.50975E-3	-247.563E-12	638.706E-3	-69.0155E-3	-246.627E-12	669.569E-3	-2.70771E-3
-4.51476E-3	-248.470E-12	594.301E-3	-61.3876E-3	-246.263E-12	650.012E-3	-36.9967E-3
-4.51976E-3	-251.924E-12	618.279E-3	-35.9230E-3	-247.141E-12	617.663E-3	-15.0152E-3
-4.52476E-3	-252.136E-12	661.440E-3	-21.6329E-3	-247.386E-12	650.535E-3	23.1836E-3
-4.52976E-3	-251.693E-12	684.029E-3	-31.4970E-3	-247.811E-12	684.202E-3	-1.53424E-3
-4.53477E-3	-250.187E-12	666.905E-3	-45.7676E-3	-248.984E-12	657.036E-3	-41.0749E-3
-4.53977E-3	-253.673E-12	666.180E-3	-20.4751E-3	-248.449E-12	622.986E-3	-48.0941E-3
-4.54477E-3	-254.676E-12	693.582E-3	9.11037E-3	-248.477E-12	614.487E-3	-43.1850E-3
-4.54977E-3	-251.083E-12	713.011E-3	-2.26028E-3	-247.035E-12	604.338E-3	-26.8446E-3
-4.55478E-3	-249.953E-12	674.928E-3	-16.3153E-3	-247.295E-12	618.428E-3	7.99701E-3
-4.55978E-3	-250.934E-12	610.103E-3	-16.9619E-3	-246.518E-12	650.887E-3	38.2454E-3
-4.56478E-3	-251.673E-12	604.894E-3	-16.9660E-3	-246.682E-12	646.101E-3	33.4793E-3
-4.56978E-3	-248.820E-12	622.778E-3	-9.03261E-3	-246.933E-12	638.432E-3	12.8378E-3
-4.57479E-3	-247.751E-12	652.129E-3	-16.8432E-3	-247.861E-12	640.777E-3	-12.9595E-3
-4.57979E-3	-248.102E-12	690.698E-3	-52.4430E-3	-248.676E-12	626.777E-3	-31.2289E-3
-4.58479E-3	-250.863E-12	688.593E-3	-67.3193E-3	-248.097E-12	621.329E-3	-21.2537E-3
-4.58979E-3	-246.461E-12	674.991E-3	-52.5324E-3	-251.395E-12	632.184E-3	-24.4651E-3
-4.59480E-3	-246.098E-12	684.288E-3	-45.7831E-3	-251.381E-12	639.067E-3	-48.3187E-3
-4.59980E-3	-248.247E-12	662.246E-3	-22.1806E-3	-251.056E-12	651.945E-3	-56.8746E-3
-4.60480E-3	-249.118E-12	601.866E-3	-5.79306E-3	-251.149E-12	656.674E-3	-45.7538E-3
-4.60980E-3	-249.470E-12	596.313E-3	-55.9126E-3	-252.332E-12	655.655E-3	-10.7928E-3
-4.61481E-3	-247.306E-12	625.885E-3	-73.4409E-3	-251.347E-12	657.678E-3	29.9455E-3
-4.61981E-3	-248.536E-12	626.352E-3	-12.4445E-3	-250.861E-12	662.637E-3	17.8519E-3
-4.62481E-3	-251.142E-12	636.128E-3	30.4341E-3	-251.416E-12	674.160E-3	-13.2682E-3
-4.62981E-3	-253.780E-12	666.719E-3	21.5233E-3	-250.550E-12	660.336E-3	947.178E-6
-4.63482E-3	-251.163E-12	686.136E-3	-2.48893E-3	-252.615E-12	660.379E-3	49.1559E-3
-4.63982E-3	-251.880E-12	672.821E-3	-17.1011E-3	-251.862E-12	680.938E-3	42.7637E-3
-4.64482E-3	-252.534E-12	624.328E-3	-11.3691E-3	-252.675E-12	659.212E-3	-179.853E-6
-4.64982E-3	-257.106E-12	610.154E-3	-11.1185E-3	-253.433E-12	632.687E-3	-5.27073E-3
-4.65483E-3	-254.730E-12	625.243E-3	-59.7845E-3	-254.187E-12	658.480E-3	-21.9313E-3
-4.65983E-3	-251.490E-12	608.711E-3	-96.6861E-3	-255.464E-12	680.880E-3	-9.83568E-3
-4.66483E-3	-252.171E-12	595.031E-3	-67.1654E-3	-255.043E-12	682.242E-3	42.2922E-3
-4.66983E-3	-253.935E-12	611.133E-3	-28.0879E-3	-256.946E-12	677.887E-3	52.8096E-3
-4.67484E-3	-255.988E-12	627.743E-3	-36.0248E-3	-258.753E-12	677.388E-3	56.3811E-3
-4.67984E-3	-252.627E-12	606.338E-3	-88.1406E-3	-260.535E-12	733.644E-3	76.5314E-3
-4.68484E-3	-253.423E-12	587.882E-3	-113.808E-3	-259.119E-12	766.914E-3	86.4979E-3
-4.68984E-3	-254.364E-12	610.730E-3	-74.2193E-3	-258.193E-12	718.706E-3	74.9060E-3
-4.69485E-3	-254.559E-12	631.527E-3	-12.7493E-3	-259.868E-12	649.759E-3	17.9579E-3
-4.69985E-3	-255.527E-12	668.158E-3	25.2846E-3	-260.522E-12	579.432E-3	-32.3361E-3
-4.70485E-3	-253.288E-12	727.253E-3	19.0400E-3	-259.282E-12	588.124E-3	-25.5746E-3
-4.70985E-3	-254.450E-12	718.188E-3	-16.1510E-3	-256.878E-12	677.036E-3	-4.58648E-3
-4.71486E-3	-255.222E-12	629.526E-3	-14.1139E-3	-257.023E-12	696.672E-3	8.51775E-3
-4.71986E-3	-257.272E-12	555.320E-3	51.9658E-3	-257.826E-12	650.814E-3	18.5558E-3
-4.72486E-3	-257.916E-12	533.157E-3	94.9018E-3	-257.978E-12	641.244E-3	23.3339E-3
-4.72986E-3	-257.920E-12	560.924E-3	75.7885E-3	-256.355E-12	647.909E-3	11.6248E-3
-4.73487E-3	-256.581E-12	617.759E-3	50.1855E-3	-254.369E-12	649.521E-3	-7.55132E-3
-4.73987E-3	-258.969E-12	638.883E-3	9.93839E-3	-257.998E-12	653.625E-3	-20.5755E-3
-4.74487E-3	-259.020E-12	626.640E-3	-24.0119E-3	-257.199E-12	617.600E-3	-14.9367E-3
-4.74988E-3	-256.774E-12	628.566E-3	-19.5339E-3	-255.301E-12	592.375E-3	567.314E-6
-4.75488E-3	-256.711E-12	622.898E-3	-23.0537E-3	-253.097E-12	638.374E-3	-27.9833E-3
-4.75988E-3	-258.404E-12	633.535E-3	-28.9495E-3	-257.431E-12	652.455E-3	-68.2094E-3
-4.76488E-3	-259.185E-12	676.353E-3	-9.62463E-3	-259.318E-12	621.254E-3	-66.3456E-3
-4.76988E-3	-258.722E-12	670.197E-3	4.08212E-3	-257.801E-12	627.066E-3	-66.2628E-3
-4.77489E-3	-257.570E-12	656.225E-3	-28.6246E-3	-255.596E-12	659.573E-3	-74.7509E-3
-4.77989E-3	-257.712E-12	679.449E-3	-52.5837E-3	-257.862E-12	656.710E-3	-47.6024E-3
-4.78489E-3	-259.061E-12	654.817E-3	-22.4894E-3	-259.954E-12	609.581E-3	-4.38936E-3
-4.78989E-3	-257.411E-12	599.289E-3	-4.36286E-3	-258.962E-12	563.899E-3	42.0434E-3
-4.79490E-3	-257.362E-12	601.384E-3	-762.138E-6	-256.286E-12	531.245E-3	73.9847E-3
-4.79990E-3	-256.759E-12	605.077E-3	14.6000E-3	-254.684E-12	535.502E-3	41.8303E-3
-4.80490E-3	-255.257E-12	600.083E-3	19.0790E-3	-255.958E-12	596.927E-3	-34.7278E-3
-4.80990E-3	-257.272E-12	656.795E-3	28.6934E-3	-257.190E-12	663.569E-3	-72.5185E-3
-4.81491E-3	-258.453E-12	678.819E-3	18.3365E-3	-255.922E-12	697.957E-3	-39.6684E-3
-4.81991E-3	-259.961E-12	624.375E-3	-17.6512E-3	-257.418E-12	683.868E-3	-15.7508E-3
-4.82491E-3	-260.459E-12	623.237E-3	-13.0541E-3	-256.534E-12	647.769E-3	-44.6541E-3
-4.82991E-3	-261.549E-12	660.455E-3	1.19796E-3	-260.493E-12	646.739E-3	-38.6678E-3
-4.83492E-3	-262.524E-12	659.895E-3	-20.6634E-3	-261.012E-12	630.845E-3	-26.8277E-3
-4.83992E-3	-260.202E-12	661.205E-3	-26.1383E-3	-261.011E-12	588.646E-3	-73.6126E-3
-4.84492E-3	-262.995E-12	664.907E-3	-18.6975E-3	-262.257E-12	611.371E-3	-84.5852E-3
-4.84992E-3	-264.282E-12	634.736E-3	-16.8487E-3	-264.430E-12	670.082E-3	-63.5807E-3
-4.85493E-3	-265.683E-12	605.031E-3	-5.98482E-3	-266.617E-12	686.912E-3	-86.8961E-3
-4.85993E-3	-263.081E-12	617.278E-3	-810.696E-6	-265.534E-12	690.307E-3	-89.6899E-3
-4.86493E-3	-264.994E-12	620.761E-3	-7.18940E-3	-263.179E-12	695.144E-3	-36.3053E-3
-4.86993E-3	-266.098E-12	640.292E-3	-18.1016E-3	-262.755E-12	677.827E-3	-4.49832E-3
-4.87494E-3	-268.450E-12	707.323E-3	-1.05055E-3	-264.524E-12	666.108E-3	1.53115E-3
-4.87994E-3	-265.702E-12	737.529E-3	38.7842E-3	-265.602E-12	670.620E-3	-14.4773E-3
-4.88494E-3	-262.082E-12	712.632E-3	22.6584E-3	-262.246E-12	701.056E-3	-50.8013E-3
-4.88995E-3	-261.829E-12	655.325E-3	-26.7915E-3	-262.719E-12	720.447E-3	-43.6548E-3
-4.89495E-3	-263.806E-12	575.295E-3	-25.6548E-3	-262.193E-12	682.690E-3	-2.99393E-3
-4.89995E-3	-263.610E-12	563.606E-3	-13.0785E-3	-266.323E-12	640.276E-3	9.67365E-3
-4.90495E-3	-259.654E-12	635.019E-3	-17.5604E-3	-263.714E-12	660.098E-3	-10.5860E-3
-4.90995E-3	-257.957E-12	648.999E-3	-20.5826E-3	-262.992E-12	690.995E-3	-86.7833E-3
-4.91496E-3	-260.005E-12	612.032E-3	-46.2907E-3	-264.854E-12	636.733E-3	-167.394E-3
-4.91996E-3	-261.020E-12	613.371E-3	-49.9001E-3	-266.458E-12	575.281E-3	-124.278E-3
-4.92496E-3	-259.397E-12	617.055E-3	-19.4517E-3	-266.013E-12	597.383E-3	-35.4609E-3
-4.92996E-3	-258.632E-12	642.872E-3	-10.0871E-3	-265.559E-12	659.282E-3	-5.86856E-3
-4.93497E-3	-260.874E-12	695.929E-3	32.0004E-3	-267.476E-12	696.254E-3	-20.1509E-3
-4.93997E-3	-263.352E-12	703.417E-3	85.4416E-3	-270.767E-12	652.951E-3	-18.1487E-3
-4.94497E-3	-265.401E-12	649.180E-3	33.1144E-3	-271.767E-12	591.080E-3	17.3321E-3
-4.94997E-3	-265.117E-12	613.921E-3	-40.8022E-3	-268.678E-12	586.281E-3	28.1698E-3
-4.95498E-3	-264.700E-12	630.019E-3	-25.9912E-3	-268.363E-12	610.064E-3	5.55819E-3
-4.95998E-3	-269.579E-12	627.417E-3	-9.66168E-3	-269.740E-12	657.623E-3	-27.5152E-3
-4.96498E-3	-271.124E-12	653.717E-3	-23.3032E-3	-270.751E-12	704.972E-3	-46.1568E-3
-4.96998E-3	-273.530E-12	692.183E-3	-17.2332E-3	-269.149E-12	683.788E-3	-52.7200E-3
-4.97499E-3	-269.944E-12	669.258E-3	-22.1714E-3	-268.798E-12	615.786E-3	-71.3038E-3
-4.97999E-3	-271.374E-12	652.592E-3	-45.5244E-3	-268.972E-12	608.795E-3	-62.9597E-3
-4.98499E-3	-270.644E-12	646.897E-3	-48.0081E-3	-267.947E-12	679.825E-3	-19.6972E-3
-4.98999E-3	-271.346E-12	603.651E-3	-64.3126E-3	-268.845E-12	704.485E-3	5.93346E-3
-4.99500E-3	-270.266E-12	594.157E-3	-114.583E-3	-267.239E-12	654.313E-3	19.3467E-3
-5.00000E-3	-269.222E-12	646.932E-3	-99.5901E-3	-269.371E-12	651.760E-3	-17.6991E-3
