Experiment	bias spectroscopy	
Date	19.01.2016 20:34:58	
User		
X (m)	50.1687E-9	
Y (m)	257.045E-9	
Z (m)	-132.498E-9	
Z offset (m)	0E+0	
Settling time (s)	200E-6	
Integration time (s)	5E-3	
Z-Ctrl hold	TRUE	
Final Z (m)	N/A	
Filter type	None	
Order		
Cutoff frq		
Comment01	MnPc/Pb(111)	
Comment02	dz =00pm	
Comment03	7 Sweeps	
Comment04	MagField =0.T	
Comment05	Divider 1:10	
Comment06	Setpoint:5mV,200 pA	
Comment07	Lockin: 50uVrms,5ms,5mV	
Comment08	Gain:9; 912Hz modulation	
Comment09	T=1.06K	
Bias>Bias (V)	5E-3	
Bias>Calibration (V/V)	81.475E-3	
Bias>Offset (V)	1.046E-3	
Bias Spectroscopy>Sweep Start (V)	5E-3	
Bias Spectroscopy>Sweep End (V)	-5E-3	
Bias Spectroscopy>Num Pixel	2000	
Bias Spectroscopy>Z Avg time (s)	500E-3	
Bias Spectroscopy>Z offset (m)	0E+0	
Bias Spectroscopy>1st Settling time (s)	500E-3	
Bias Spectroscopy>Settling time (s)	200E-6	
Bias Spectroscopy>Integration time (s)	5E-3	
Bias Spectroscopy>End Settling time (s)	500E-3	
Bias Spectroscopy>Z control time (s)	500E-3	
Bias Spectroscopy>Max Slew rate (V/s)	Inf	
Bias Spectroscopy>backward sweep	TRUE	
Bias Spectroscopy>Z-controller hold	TRUE	
Bias Spectroscopy>Number of sweeps	7	
Bias Spectroscopy>Channels	Current (A);X% LockIn (V);Y% LockIn (V)	
Bias Spectroscopy>Reset Bias	TRUE	
Bias Spectroscopy>Record final Z	FALSE	
Bias Spectroscopy>Lock-In run	FALSE	
Bias Spectroscopy>Sweep mode	Linear	
Bias Spectroscopy>MultiLine Settings : Segment Start (V), Segment End (V), Settling (s), Integration (s), Steps (xn)	100E-3,3.3E-3,100E-6,10E-3,2500;3.3E-3,-3.3E-3,100E-6,10E-3,10;-3.3E-3,-100E-3,100E-6,10E-3,2500	
Current>Current (A)	200.066E-12	
Current>Calibration (A/V)	999.99900E-12	
Current>Offset (A)	-455.429E-15	
Current>Gain	LN 10^9	
Z-Controller>Z (m)	-132.496E-9	
Z-Controller>Controller name	log Current	
Z-Controller>Controller status	ON	
Z-Controller>Setpoint	200E-12	
Z-Controller>Setpoint unit	A	
Z-Controller>P gain	2.96994E-12	
Z-Controller>I gain	67.0321E-9	
Z-Controller>Time const (s)	44.3062E-6	
Z-Controller>TipLift (m)	0E+0	
Z-Controller>Switch off delay (s)	50E-3	
Current (A)	200.116E-12	
Z (m)	-132.496E-9	

[DATA]
Bias calc (V)	Current (A)	X% LockIn (V)	Y% LockIn (V)	Current [bwd] (A)	X% LockIn [bwd] (V)	Y% LockIn [bwd] (V)
5.00000E-3	201.748E-12	482.547E-3	17.8483E-3	199.904E-12	507.276E-3	13.4342E-3
4.99500E-3	203.946E-12	492.274E-3	1.67234E-3	199.233E-12	555.800E-3	561.637E-6
4.98999E-3	204.496E-12	492.577E-3	-27.2595E-3	198.341E-12	529.640E-3	9.53970E-3
4.98499E-3	204.319E-12	493.327E-3	-41.4837E-3	197.550E-12	473.708E-3	23.0252E-3
4.97999E-3	203.882E-12	489.210E-3	-32.3781E-3	199.112E-12	471.020E-3	23.6925E-3
4.97499E-3	203.815E-12	492.718E-3	-17.1365E-3	199.851E-12	497.756E-3	5.18098E-3
4.96998E-3	202.713E-12	506.496E-3	-8.69879E-3	200.801E-12	504.731E-3	-20.1134E-3
4.96498E-3	201.248E-12	502.907E-3	-16.9052E-3	201.254E-12	511.879E-3	-38.3489E-3
4.95998E-3	201.115E-12	514.770E-3	-31.4700E-3	201.150E-12	527.527E-3	-53.4567E-3
4.95498E-3	199.712E-12	526.582E-3	-35.2239E-3	201.356E-12	530.493E-3	-45.6700E-3
4.94997E-3	198.463E-12	518.253E-3	-26.9046E-3	201.778E-12	509.856E-3	-29.7674E-3
4.94497E-3	195.544E-12	522.384E-3	-31.4620E-3	200.439E-12	491.383E-3	-35.5167E-3
4.93997E-3	195.159E-12	526.077E-3	-32.1262E-3	198.322E-12	474.072E-3	-32.9860E-3
4.93497E-3	195.368E-12	526.702E-3	-6.17450E-3	198.916E-12	443.568E-3	-4.51999E-3
4.92996E-3	195.759E-12	526.899E-3	9.67900E-3	199.212E-12	437.303E-3	26.5398E-3
4.92496E-3	193.781E-12	505.880E-3	21.5203E-3	198.917E-12	457.675E-3	26.1370E-3
4.91996E-3	193.329E-12	469.829E-3	5.65955E-3	198.090E-12	472.522E-3	-8.14175E-3
4.91496E-3	194.703E-12	474.378E-3	-37.4573E-3	197.686E-12	488.310E-3	-42.2648E-3
4.90995E-3	196.406E-12	514.902E-3	-46.7272E-3	198.715E-12	492.403E-3	-47.8451E-3
4.90495E-3	196.295E-12	523.490E-3	-21.4783E-3	197.469E-12	470.800E-3	-41.6262E-3
4.89995E-3	196.031E-12	511.066E-3	-4.04579E-3	196.837E-12	445.394E-3	-25.8800E-3
4.89495E-3	198.133E-12	502.242E-3	-4.13822E-3	195.223E-12	437.010E-3	2.36761E-3
4.88995E-3	199.785E-12	486.680E-3	-11.7642E-3	197.141E-12	466.419E-3	14.9460E-3
4.88494E-3	200.767E-12	477.962E-3	-17.3958E-3	197.580E-12	494.539E-3	-1.86558E-3
4.87994E-3	199.351E-12	476.549E-3	-16.6592E-3	196.093E-12	492.042E-3	-31.5700E-3
4.87494E-3	199.638E-12	463.552E-3	-17.1645E-3	195.741E-12	508.097E-3	-25.0129E-3
4.86993E-3	200.729E-12	449.514E-3	-11.1079E-3	195.749E-12	510.947E-3	2.93415E-3
4.86493E-3	200.115E-12	457.735E-3	-15.6178E-3	196.412E-12	480.957E-3	390.999E-6
4.85993E-3	198.247E-12	474.118E-3	-14.0768E-3	195.670E-12	473.871E-3	-34.5276E-3
4.85493E-3	196.195E-12	479.196E-3	-5.41447E-3	196.195E-12	489.171E-3	-68.4258E-3
4.84992E-3	195.185E-12	500.970E-3	-9.84749E-3	196.572E-12	526.813E-3	-70.4465E-3
4.84492E-3	194.577E-12	523.635E-3	-4.59794E-3	196.957E-12	553.884E-3	-63.9383E-3
4.83992E-3	193.660E-12	523.923E-3	-6.73827E-3	197.576E-12	542.997E-3	-45.3307E-3
4.83492E-3	190.967E-12	515.600E-3	-5.53922E-3	196.455E-12	537.039E-3	-15.8191E-3
4.82991E-3	190.427E-12	498.406E-3	12.4367E-3	196.673E-12	536.559E-3	-27.5524E-3
4.82491E-3	190.432E-12	483.555E-3	-15.6171E-3	196.286E-12	522.148E-3	-54.2125E-3
4.81991E-3	191.145E-12	476.524E-3	-69.4134E-3	197.022E-12	508.932E-3	-35.8225E-3
4.81491E-3	190.282E-12	477.023E-3	-64.9960E-3	196.255E-12	510.943E-3	-16.7454E-3
4.80990E-3	192.009E-12	468.338E-3	-21.9597E-3	194.312E-12	512.095E-3	-16.7653E-3
4.80490E-3	191.734E-12	449.039E-3	20.4904E-3	193.468E-12	506.383E-3	4.70016E-3
4.79990E-3	193.715E-12	444.317E-3	36.6722E-3	193.725E-12	508.694E-3	17.8687E-3
4.79490E-3	195.919E-12	460.240E-3	16.5973E-3	193.425E-12	504.113E-3	-4.19958E-3
4.78989E-3	197.080E-12	502.466E-3	1.60994E-3	192.170E-12	498.021E-3	-26.1927E-3
4.78489E-3	197.691E-12	526.864E-3	12.7184E-3	191.001E-12	503.090E-3	-23.9732E-3
4.77989E-3	197.076E-12	523.972E-3	7.59585E-3	190.398E-12	528.278E-3	-20.9672E-3
4.77489E-3	197.386E-12	550.461E-3	-6.42015E-3	189.844E-12	549.651E-3	-33.2344E-3
4.76988E-3	198.619E-12	577.818E-3	17.2915E-3	188.752E-12	535.421E-3	-24.7254E-3
4.76488E-3	197.709E-12	566.099E-3	27.0752E-3	188.983E-12	523.449E-3	7.80734E-3
4.75988E-3	194.292E-12	543.512E-3	1.73843E-3	190.757E-12	517.728E-3	4.78646E-3
4.75488E-3	194.005E-12	531.365E-3	-28.8465E-3	191.329E-12	509.801E-3	-9.17077E-3
4.74988E-3	192.714E-12	521.392E-3	-58.7666E-3	191.729E-12	508.930E-3	-5.77650E-3
4.74487E-3	191.957E-12	504.517E-3	-63.9891E-3	190.295E-12	494.449E-3	-17.4688E-3
4.73987E-3	189.183E-12	493.352E-3	-34.6463E-3	191.479E-12	478.921E-3	-32.6673E-3
4.73487E-3	187.710E-12	489.029E-3	-9.53407E-3	191.997E-12	479.234E-3	-38.5098E-3
4.72986E-3	188.573E-12	507.226E-3	12.0955E-3	191.708E-12	453.624E-3	-42.2826E-3
4.72486E-3	189.058E-12	527.142E-3	20.9966E-3	190.866E-12	420.621E-3	-40.8412E-3
4.71986E-3	187.742E-12	519.616E-3	-20.1302E-3	191.026E-12	442.665E-3	-40.4965E-3
4.71486E-3	186.906E-12	515.810E-3	-63.7567E-3	192.217E-12	486.100E-3	-33.4269E-3
4.70985E-3	187.630E-12	513.056E-3	-61.4296E-3	192.598E-12	494.069E-3	-29.1013E-3
4.70485E-3	188.286E-12	522.210E-3	-35.4737E-3	190.396E-12	485.409E-3	-38.4251E-3
4.69985E-3	190.574E-12	529.814E-3	-17.4810E-3	189.077E-12	516.949E-3	-36.1521E-3
4.69485E-3	190.712E-12	508.831E-3	-8.61204E-3	188.987E-12	547.711E-3	-38.8460E-3
4.68984E-3	190.908E-12	498.443E-3	-15.4657E-3	189.030E-12	518.583E-3	-36.9912E-3
4.68484E-3	192.947E-12	512.245E-3	-43.0652E-3	188.272E-12	489.379E-3	-31.8127E-3
4.67984E-3	193.937E-12	522.329E-3	-46.9680E-3	186.890E-12	482.396E-3	-28.4046E-3
4.67484E-3	194.412E-12	524.504E-3	-30.8163E-3	187.890E-12	474.643E-3	1.25767E-3
4.66983E-3	193.561E-12	531.886E-3	-39.1806E-3	188.171E-12	474.593E-3	12.1683E-3
4.66483E-3	194.345E-12	545.198E-3	-35.6310E-3	188.145E-12	486.532E-3	-9.66058E-3
4.65983E-3	193.823E-12	549.303E-3	-5.59418E-3	188.873E-12	502.426E-3	-30.1704E-3
4.65483E-3	194.361E-12	530.502E-3	3.60046E-3	190.036E-12	522.443E-3	-35.0257E-3
4.64982E-3	192.211E-12	508.882E-3	-14.8668E-3	190.701E-12	549.255E-3	-21.8525E-3
4.64482E-3	190.712E-12	486.843E-3	-20.4655E-3	189.616E-12	561.606E-3	-7.71945E-3
4.63982E-3	189.542E-12	470.992E-3	-664.489E-6	191.827E-12	550.735E-3	-3.44856E-3
4.63482E-3	189.172E-12	478.495E-3	5.83153E-3	192.017E-12	541.902E-3	-9.62574E-3
4.62981E-3	188.666E-12	487.943E-3	-15.1441E-3	191.901E-12	550.788E-3	-19.2492E-3
4.62481E-3	187.451E-12	490.543E-3	-34.1443E-3	191.185E-12	550.128E-3	-11.3506E-3
4.61981E-3	185.595E-12	479.335E-3	-41.2587E-3	192.001E-12	539.018E-3	-2.09380E-3
4.61481E-3	185.980E-12	453.443E-3	-44.9388E-3	192.576E-12	531.331E-3	-16.7481E-3
4.60980E-3	186.030E-12	462.203E-3	-32.4971E-3	191.546E-12	511.520E-3	-20.1204E-3
4.60480E-3	186.555E-12	487.229E-3	-8.01440E-3	189.989E-12	506.274E-3	-6.29743E-3
4.59980E-3	185.321E-12	469.049E-3	3.38983E-3	188.814E-12	523.026E-3	-626.150E-6
4.59480E-3	186.511E-12	456.665E-3	-18.7132E-3	188.452E-12	549.828E-3	-5.30392E-3
4.58979E-3	187.427E-12	487.812E-3	-36.0151E-3	187.795E-12	553.399E-3	-7.38699E-3
4.58479E-3	187.963E-12	530.451E-3	-28.6107E-3	187.301E-12	510.356E-3	10.4182E-3
4.57979E-3	188.948E-12	533.369E-3	-38.2873E-3	186.003E-12	490.593E-3	31.3813E-3
4.57479E-3	188.918E-12	506.598E-3	-32.5549E-3	186.342E-12	503.049E-3	27.5091E-3
4.56978E-3	190.270E-12	496.492E-3	-443.185E-6	186.545E-12	507.829E-3	977.896E-6
4.56478E-3	190.328E-12	496.642E-3	10.8662E-3	186.638E-12	503.286E-3	-6.43640E-3
4.55978E-3	190.358E-12	503.131E-3	-6.46340E-3	185.763E-12	479.582E-3	6.62771E-3
4.55478E-3	189.222E-12	492.286E-3	-7.63381E-3	186.516E-12	469.443E-3	-6.76969E-3
4.54977E-3	188.442E-12	473.826E-3	7.14357E-3	187.466E-12	501.344E-3	-24.2279E-3
4.54477E-3	187.510E-12	486.395E-3	909.119E-6	187.876E-12	515.453E-3	-5.50135E-3
4.53977E-3	187.172E-12	497.205E-3	-11.0880E-3	187.722E-12	513.016E-3	-3.83793E-3
4.53477E-3	186.269E-12	499.453E-3	-19.5336E-3	186.895E-12	528.946E-3	-34.1480E-3
4.52976E-3	185.476E-12	513.183E-3	-28.1619E-3	187.029E-12	526.057E-3	-42.9237E-3
4.52476E-3	185.145E-12	528.830E-3	-11.6920E-3	187.311E-12	519.566E-3	-36.7355E-3
4.51976E-3	183.481E-12	544.793E-3	6.54726E-3	186.488E-12	525.781E-3	-31.1649E-3
4.51476E-3	183.228E-12	536.108E-3	-11.6422E-3	185.171E-12	512.599E-3	-28.0302E-3
4.50975E-3	182.080E-12	507.576E-3	-8.85526E-3	184.034E-12	497.188E-3	-23.2338E-3
4.50475E-3	181.453E-12	487.321E-3	15.4830E-3	184.404E-12	501.452E-3	-20.0827E-3
4.49975E-3	181.998E-12	477.470E-3	11.9769E-3	183.567E-12	507.404E-3	-31.6307E-3
4.49475E-3	182.197E-12	483.329E-3	6.97872E-3	181.895E-12	502.375E-3	-44.1045E-3
4.48974E-3	182.339E-12	488.003E-3	6.67292E-3	180.205E-12	496.497E-3	-40.8685E-3
4.48474E-3	182.527E-12	486.481E-3	-7.62959E-3	180.691E-12	494.113E-3	-36.4090E-3
4.47974E-3	183.996E-12	495.360E-3	-36.7809E-3	181.690E-12	504.451E-3	-31.8791E-3
4.47474E-3	184.909E-12	508.516E-3	-54.7714E-3	181.538E-12	529.763E-3	-34.7266E-3
4.46973E-3	185.502E-12	502.917E-3	-31.3426E-3	180.689E-12	533.278E-3	-54.4346E-3
4.46473E-3	185.427E-12	495.384E-3	-3.89039E-3	180.321E-12	505.397E-3	-64.8242E-3
4.45973E-3	185.611E-12	498.344E-3	1.55912E-3	181.748E-12	482.390E-3	-59.5788E-3
4.45473E-3	186.900E-12	501.873E-3	-9.02429E-3	182.142E-12	475.890E-3	-27.3838E-3
4.44972E-3	186.680E-12	498.167E-3	-28.7750E-3	182.187E-12	472.916E-3	13.6785E-3
4.44472E-3	186.085E-12	479.368E-3	-32.4304E-3	182.008E-12	484.078E-3	16.7190E-3
4.43972E-3	183.933E-12	481.276E-3	-16.9607E-3	181.826E-12	511.226E-3	-11.5757E-3
4.43472E-3	184.428E-12	511.063E-3	-9.84938E-3	183.574E-12	505.815E-3	-22.0366E-3
4.42971E-3	183.294E-12	531.026E-3	-16.1708E-3	184.130E-12	477.231E-3	-29.6329E-3
4.42471E-3	181.729E-12	538.724E-3	-19.8736E-3	183.278E-12	474.702E-3	-47.8531E-3
4.41971E-3	179.559E-12	539.022E-3	-29.1654E-3	181.239E-12	483.986E-3	-40.1834E-3
4.41471E-3	179.003E-12	518.454E-3	-38.7449E-3	182.192E-12	497.349E-3	-24.8326E-3
4.40970E-3	179.500E-12	496.391E-3	-37.4629E-3	182.517E-12	512.368E-3	-19.4064E-3
4.40470E-3	178.285E-12	498.188E-3	-25.9404E-3	181.347E-12	513.196E-3	-9.03399E-3
4.39970E-3	178.527E-12	509.695E-3	-9.84428E-3	179.388E-12	525.682E-3	4.40332E-3
4.39470E-3	176.664E-12	512.277E-3	-26.7895E-3	178.757E-12	530.459E-3	18.8004E-3
4.38969E-3	177.806E-12	503.975E-3	-45.5593E-3	178.986E-12	512.180E-3	14.8072E-3
4.38469E-3	178.108E-12	489.738E-3	-34.6087E-3	178.773E-12	515.860E-3	-9.36729E-3
4.37969E-3	179.578E-12	491.806E-3	-33.9640E-3	179.608E-12	505.065E-3	-18.1704E-3
4.37469E-3	178.737E-12	511.510E-3	-45.7071E-3	177.015E-12	473.684E-3	-22.9000E-3
4.36968E-3	178.320E-12	521.213E-3	-47.5988E-3	177.717E-12	477.080E-3	-37.4946E-3
4.36468E-3	181.407E-12	515.303E-3	-40.1473E-3	178.502E-12	489.928E-3	-41.3244E-3
4.35968E-3	181.750E-12	529.346E-3	-32.2230E-3	179.559E-12	491.118E-3	-51.2767E-3
4.35468E-3	181.546E-12	557.442E-3	-7.92808E-3	178.579E-12	504.057E-3	-65.4035E-3
4.34967E-3	181.031E-12	537.306E-3	-1.82316E-3	179.033E-12	514.630E-3	-54.2104E-3
4.34467E-3	181.761E-12	507.880E-3	-34.9184E-3	178.236E-12	514.329E-3	-26.9411E-3
4.33967E-3	181.518E-12	500.478E-3	-60.8081E-3	179.661E-12	519.152E-3	-16.0227E-3
4.33467E-3	179.633E-12	500.093E-3	-66.4178E-3	180.246E-12	518.597E-3	-12.6652E-3
4.32966E-3	178.127E-12	535.247E-3	-57.3206E-3	179.532E-12	517.152E-3	-2.56940E-3
4.32466E-3	176.599E-12	564.455E-3	-32.1513E-3	178.769E-12	522.925E-3	-10.3471E-3
4.31966E-3	177.700E-12	543.168E-3	-5.11120E-3	178.847E-12	530.202E-3	-25.5664E-3
4.31466E-3	175.407E-12	506.449E-3	-1.71127E-3	179.544E-12	543.524E-3	-31.6217E-3
4.30965E-3	175.751E-12	495.018E-3	-15.9787E-3	179.183E-12	547.602E-3	-28.4161E-3
4.30465E-3	174.741E-12	494.798E-3	-25.6780E-3	178.481E-12	539.295E-3	-22.8151E-3
4.29965E-3	175.623E-12	488.099E-3	-42.5477E-3	177.574E-12	514.647E-3	-34.9900E-3
4.29465E-3	174.841E-12	476.855E-3	-58.5196E-3	177.518E-12	473.985E-3	-43.3431E-3
4.28964E-3	174.730E-12	462.761E-3	-60.2270E-3	178.585E-12	449.798E-3	-34.3439E-3
4.28464E-3	174.386E-12	453.208E-3	-48.4454E-3	177.926E-12	451.913E-3	-30.0733E-3
4.27964E-3	175.371E-12	465.408E-3	-22.2094E-3	176.081E-12	464.943E-3	-25.1364E-3
4.27464E-3	176.400E-12	492.428E-3	-9.34173E-3	175.131E-12	480.255E-3	-17.7504E-3
4.26963E-3	176.731E-12	508.672E-3	-6.44844E-3	176.141E-12	471.671E-3	-16.6891E-3
4.26463E-3	177.863E-12	538.508E-3	1.40051E-3	176.555E-12	447.729E-3	-14.9622E-3
4.25963E-3	178.562E-12	551.201E-3	7.19619E-3	175.920E-12	452.378E-3	-26.6600E-3
4.25463E-3	178.664E-12	521.948E-3	5.14953E-3	174.304E-12	478.487E-3	-48.9805E-3
4.24962E-3	179.154E-12	491.736E-3	-6.64357E-3	174.168E-12	504.432E-3	-47.9359E-3
4.24462E-3	179.015E-12	489.924E-3	-26.6919E-3	174.260E-12	520.724E-3	-22.3560E-3
4.23962E-3	178.956E-12	506.575E-3	-33.3883E-3	174.972E-12	512.807E-3	-15.0534E-3
4.23462E-3	178.296E-12	507.874E-3	-19.9253E-3	174.586E-12	492.640E-3	-31.5322E-3
4.22961E-3	178.020E-12	524.412E-3	-9.30620E-3	173.937E-12	490.788E-3	-27.0920E-3
4.22461E-3	177.183E-12	541.276E-3	-8.42163E-3	175.307E-12	497.219E-3	-16.7798E-3
4.21961E-3	176.430E-12	529.661E-3	-31.7533E-3	175.920E-12	488.612E-3	-17.5899E-3
4.21461E-3	175.076E-12	526.915E-3	-56.3848E-3	176.294E-12	479.303E-3	-16.1224E-3
4.20960E-3	174.274E-12	525.385E-3	-54.4141E-3	175.764E-12	483.346E-3	-37.5841E-3
4.20460E-3	173.803E-12	505.525E-3	-31.6085E-3	176.173E-12	497.906E-3	-53.1881E-3
4.19960E-3	173.025E-12	479.992E-3	-14.1931E-3	176.244E-12	519.888E-3	-31.7312E-3
4.19460E-3	172.468E-12	470.912E-3	-24.8860E-3	176.501E-12	545.647E-3	-25.0440E-3
4.18959E-3	171.627E-12	501.013E-3	-27.8386E-3	175.397E-12	550.591E-3	-33.4373E-3
4.18459E-3	172.590E-12	523.427E-3	-10.8526E-3	175.209E-12	514.177E-3	-14.3501E-3
4.17959E-3	171.484E-12	497.532E-3	-22.7296E-3	174.885E-12	486.975E-3	-2.28419E-3
4.17459E-3	171.667E-12	473.587E-3	-37.3089E-3	173.950E-12	514.336E-3	-7.17171E-3
4.16958E-3	172.039E-12	474.003E-3	-7.75188E-3	172.617E-12	548.187E-3	-11.6824E-3
4.16458E-3	174.080E-12	477.560E-3	22.9753E-3	171.303E-12	541.478E-3	-18.5624E-3
4.15958E-3	173.565E-12	481.006E-3	-3.39494E-3	170.366E-12	520.015E-3	-5.82745E-3
4.15458E-3	173.177E-12	488.752E-3	-51.8712E-3	170.613E-12	500.895E-3	-2.63151E-3
4.14957E-3	174.558E-12	492.271E-3	-71.8377E-3	169.694E-12	494.081E-3	-7.76949E-3
4.14457E-3	174.585E-12	496.074E-3	-82.7704E-3	169.755E-12	514.356E-3	-4.22838E-3
4.13957E-3	174.833E-12	494.384E-3	-62.9404E-3	169.782E-12	529.466E-3	-17.8561E-3
4.13457E-3	173.844E-12	487.818E-3	-27.1811E-3	170.108E-12	507.887E-3	-28.7427E-3
4.12956E-3	173.738E-12	490.482E-3	-11.6201E-3	171.000E-12	485.296E-3	-31.5336E-3
4.12456E-3	173.958E-12	509.479E-3	-7.81354E-3	170.816E-12	474.900E-3	-32.0529E-3
4.11956E-3	173.454E-12	529.605E-3	-7.70982E-3	171.215E-12	470.578E-3	-12.2494E-3
4.11456E-3	172.235E-12	527.231E-3	-18.3154E-3	172.326E-12	505.811E-3	1.87062E-3
4.10955E-3	169.808E-12	528.692E-3	-33.5812E-3	173.355E-12	548.451E-3	-9.67904E-3
4.10455E-3	169.773E-12	529.871E-3	-19.5983E-3	173.992E-12	562.044E-3	-18.7332E-3
4.09955E-3	167.921E-12	507.268E-3	-4.04878E-3	172.986E-12	568.768E-3	-9.58761E-3
4.09455E-3	168.010E-12	495.066E-3	-10.4896E-3	173.277E-12	554.188E-3	1.52931E-3
4.08954E-3	165.854E-12	493.662E-3	-14.5043E-3	172.192E-12	515.181E-3	-29.2834E-3
4.08454E-3	165.881E-12	496.743E-3	-14.9844E-3	173.199E-12	480.997E-3	-69.1053E-3
4.07954E-3	165.868E-12	520.992E-3	-12.3849E-3	171.667E-12	466.354E-3	-49.3150E-3
4.07454E-3	165.267E-12	535.800E-3	10.0784E-3	169.717E-12	478.240E-3	-16.4893E-3
4.06953E-3	166.464E-12	519.898E-3	28.9966E-3	167.877E-12	505.016E-3	-22.7850E-3
4.06453E-3	165.775E-12	495.440E-3	31.7442E-3	168.153E-12	516.287E-3	-40.0424E-3
4.05953E-3	167.052E-12	503.792E-3	12.7986E-3	167.766E-12	514.422E-3	-31.5450E-3
4.05453E-3	167.597E-12	524.346E-3	-22.7742E-3	166.490E-12	525.735E-3	-15.4570E-3
4.04952E-3	168.927E-12	533.989E-3	-26.6251E-3	166.263E-12	538.341E-3	-21.3933E-3
4.04452E-3	167.932E-12	533.611E-3	-13.2048E-3	166.138E-12	541.197E-3	-35.0970E-3
4.03952E-3	169.183E-12	508.507E-3	-4.38795E-3	167.099E-12	530.832E-3	-45.7013E-3
4.03452E-3	171.069E-12	499.268E-3	-8.03025E-3	166.693E-12	495.080E-3	-48.8559E-3
4.02951E-3	172.099E-12	524.633E-3	-21.1307E-3	168.438E-12	471.658E-3	-39.5058E-3
4.02451E-3	171.319E-12	549.981E-3	-23.2458E-3	168.221E-12	497.787E-3	-25.7220E-3
4.01951E-3	170.022E-12	553.531E-3	-30.6054E-3	167.579E-12	530.001E-3	-8.92736E-3
4.01451E-3	170.211E-12	540.606E-3	-30.0478E-3	169.172E-12	531.313E-3	3.67777E-3
4.00950E-3	168.844E-12	514.975E-3	-17.9039E-3	169.677E-12	534.450E-3	11.8476E-3
4.00450E-3	168.760E-12	505.015E-3	-25.1963E-3	169.048E-12	547.256E-3	29.1997E-3
3.99950E-3	167.452E-12	518.503E-3	-34.2097E-3	169.564E-12	544.717E-3	31.4773E-3
3.99450E-3	166.116E-12	512.558E-3	-28.6022E-3	169.926E-12	543.048E-3	-6.18149E-3
3.98949E-3	164.412E-12	505.092E-3	-25.7022E-3	169.497E-12	545.770E-3	-38.6926E-3
3.98449E-3	163.712E-12	514.958E-3	-15.5550E-3	168.554E-12	540.846E-3	-22.9611E-3
3.97949E-3	163.657E-12	504.918E-3	3.71509E-3	168.295E-12	535.790E-3	-1.90887E-3
3.97449E-3	161.448E-12	484.839E-3	12.3916E-3	167.798E-12	540.470E-3	5.16449E-3
3.96948E-3	162.190E-12	481.114E-3	5.50793E-3	166.568E-12	541.059E-3	18.3550E-3
3.96448E-3	161.796E-12	492.700E-3	396.642E-6	166.390E-12	516.854E-3	21.3503E-3
3.95948E-3	162.222E-12	527.689E-3	-5.83310E-3	166.823E-12	507.139E-3	20.4326E-3
3.95448E-3	161.746E-12	546.356E-3	-26.5512E-3	165.583E-12	518.486E-3	27.3157E-3
3.94947E-3	163.961E-12	519.393E-3	-32.1623E-3	165.004E-12	530.775E-3	12.1829E-3
3.94447E-3	164.525E-12	496.554E-3	4.24637E-3	164.719E-12	549.993E-3	-27.9267E-3
3.93947E-3	166.214E-12	519.210E-3	46.8312E-3	165.641E-12	561.304E-3	-41.4163E-3
3.93447E-3	167.537E-12	529.193E-3	41.1540E-3	164.520E-12	577.579E-3	-22.8946E-3
3.92946E-3	167.651E-12	507.651E-3	-3.89763E-3	164.394E-12	574.180E-3	-24.6485E-3
3.92446E-3	168.360E-12	506.931E-3	-24.7599E-3	163.976E-12	530.458E-3	-41.9353E-3
3.91946E-3	167.964E-12	527.436E-3	-7.17148E-3	165.151E-12	512.248E-3	-43.2074E-3
3.91446E-3	168.651E-12	550.146E-3	-6.10526E-3	165.154E-12	527.569E-3	-47.2258E-3
3.90945E-3	167.835E-12	569.340E-3	-23.8899E-3	164.265E-12	543.511E-3	-41.9752E-3
3.90445E-3	167.531E-12	573.507E-3	-9.98746E-3	163.875E-12	562.396E-3	-23.3917E-3
3.89945E-3	165.502E-12	564.407E-3	18.9151E-3	163.859E-12	564.549E-3	-34.4116E-3
3.89445E-3	162.734E-12	554.623E-3	23.8238E-3	164.303E-12	542.163E-3	-45.6076E-3
3.88944E-3	163.158E-12	535.525E-3	410.191E-6	163.687E-12	522.931E-3	-47.8580E-3
3.88444E-3	161.251E-12	507.204E-3	-35.9931E-3	163.420E-12	516.464E-3	-58.2848E-3
3.87944E-3	160.641E-12	494.799E-3	-40.1583E-3	163.750E-12	517.627E-3	-53.3709E-3
3.87444E-3	158.699E-12	514.937E-3	-12.6882E-3	163.825E-12	515.716E-3	-34.8970E-3
3.86943E-3	159.417E-12	531.362E-3	-797.687E-6	164.066E-12	517.964E-3	-17.2648E-3
3.86443E-3	158.522E-12	527.741E-3	-5.18447E-3	162.378E-12	527.700E-3	-7.29407E-3
3.85943E-3	158.373E-12	523.264E-3	-12.5609E-3	162.201E-12	518.876E-3	-8.66298E-3
3.85443E-3	158.177E-12	504.908E-3	-17.4649E-3	163.236E-12	504.341E-3	-19.3756E-3
3.84942E-3	159.031E-12	485.473E-3	-7.37187E-3	163.189E-12	505.102E-3	-32.0576E-3
3.84442E-3	160.684E-12	489.320E-3	-1.57337E-3	161.331E-12	499.265E-3	-32.8841E-3
3.83942E-3	161.228E-12	504.750E-3	-15.9743E-3	160.171E-12	484.260E-3	-28.6398E-3
3.83442E-3	162.249E-12	534.292E-3	-22.5514E-3	160.340E-12	470.280E-3	-43.1930E-3
3.82941E-3	162.797E-12	566.502E-3	-11.6068E-3	160.582E-12	478.514E-3	-48.6003E-3
3.82441E-3	164.927E-12	569.416E-3	-4.13630E-3	159.475E-12	519.985E-3	-21.6120E-3
3.81941E-3	165.929E-12	565.997E-3	-13.5769E-3	158.086E-12	544.649E-3	-621.425E-6
3.81441E-3	165.547E-12	557.335E-3	-19.8119E-3	157.841E-12	530.037E-3	-6.23089E-3
3.80940E-3	164.976E-12	535.852E-3	1.41717E-3	159.045E-12	510.949E-3	-29.4431E-3
3.80440E-3	164.499E-12	541.431E-3	13.5300E-3	159.011E-12	501.845E-3	-43.5933E-3
3.79940E-3	164.463E-12	569.666E-3	78.2213E-6	158.746E-12	495.750E-3	-30.5444E-3
3.79440E-3	162.489E-12	569.637E-3	-2.43522E-3	158.640E-12	504.906E-3	-13.6218E-3
3.78939E-3	161.649E-12	569.185E-3	-4.81812E-3	160.107E-12	518.058E-3	-17.2462E-3
3.78439E-3	159.606E-12	593.474E-3	-7.84359E-3	160.698E-12	507.874E-3	-12.1521E-3
3.77939E-3	158.701E-12	581.189E-3	-3.63243E-3	161.094E-12	497.170E-3	920.558E-6
3.77439E-3	157.374E-12	533.274E-3	-26.9215E-3	160.723E-12	515.687E-3	2.33756E-3
3.76938E-3	156.641E-12	500.453E-3	-42.6537E-3	160.619E-12	543.483E-3	15.6870E-3
3.76438E-3	155.570E-12	485.005E-3	-22.3816E-3	161.151E-12	549.481E-3	17.6711E-3
3.75938E-3	155.350E-12	486.339E-3	-5.82853E-3	161.742E-12	551.435E-3	-5.46302E-3
3.75438E-3	155.809E-12	498.622E-3	1.33331E-3	159.821E-12	553.263E-3	-29.0730E-3
3.74937E-3	155.752E-12	505.915E-3	-13.8279E-3	158.843E-12	531.603E-3	-28.8968E-3
3.74437E-3	155.976E-12	520.985E-3	-26.6367E-3	158.960E-12	514.783E-3	-7.42787E-3
3.73937E-3	156.462E-12	529.156E-3	-13.8054E-3	159.226E-12	518.087E-3	13.2838E-3
3.73437E-3	158.106E-12	521.984E-3	-13.1754E-3	157.253E-12	532.093E-3	27.0215E-3
3.72936E-3	159.132E-12	538.281E-3	-30.2108E-3	155.978E-12	537.411E-3	14.8159E-3
3.72436E-3	159.074E-12	557.580E-3	-47.1957E-3	155.038E-12	521.810E-3	-8.57238E-3
3.71936E-3	160.285E-12	555.682E-3	-38.4285E-3	156.282E-12	518.402E-3	-18.0760E-3
3.71436E-3	159.841E-12	541.647E-3	-7.77078E-3	155.924E-12	525.371E-3	-26.8585E-3
3.70935E-3	161.571E-12	528.862E-3	10.3570E-3	154.956E-12	522.062E-3	-31.7601E-3
3.70435E-3	160.928E-12	514.887E-3	7.52186E-3	154.195E-12	517.786E-3	-23.0829E-3
3.69935E-3	161.531E-12	498.075E-3	10.1161E-3	155.061E-12	517.027E-3	-17.2636E-3
3.69435E-3	160.371E-12	502.361E-3	21.6565E-3	157.119E-12	521.232E-3	1.59678E-3
3.68934E-3	159.483E-12	513.094E-3	20.8791E-3	157.069E-12	525.100E-3	30.0558E-3
3.68434E-3	158.633E-12	526.961E-3	-6.63775E-3	156.722E-12	518.115E-3	15.8845E-3
3.67934E-3	156.687E-12	544.615E-3	-33.3488E-3	156.925E-12	522.738E-3	-23.7938E-3
3.67434E-3	155.429E-12	548.976E-3	-25.1676E-3	158.003E-12	535.109E-3	-29.6527E-3
3.66933E-3	154.428E-12	561.844E-3	-3.71246E-3	158.314E-12	540.669E-3	-10.2625E-3
3.66433E-3	153.458E-12	555.335E-3	-861.127E-6	157.667E-12	546.444E-3	-3.07116E-3
3.65933E-3	152.374E-12	501.146E-3	-24.5539E-3	156.064E-12	543.322E-3	-3.68263E-3
3.65433E-3	152.003E-12	477.645E-3	-44.0239E-3	156.165E-12	546.589E-3	-12.6448E-3
3.64932E-3	151.853E-12	489.481E-3	-34.3031E-3	156.905E-12	558.719E-3	-27.4391E-3
3.64432E-3	150.319E-12	493.402E-3	-8.78077E-3	156.105E-12	545.737E-3	-20.8188E-3
3.63932E-3	151.716E-12	500.787E-3	-700.928E-6	154.662E-12	520.592E-3	-1.27003E-3
3.63432E-3	153.410E-12	515.996E-3	-11.9056E-3	153.626E-12	511.892E-3	-2.75777E-3
3.62931E-3	153.339E-12	519.029E-3	-16.6476E-3	153.402E-12	510.968E-3	-17.0887E-3
3.62431E-3	153.436E-12	498.409E-3	-8.38519E-3	153.660E-12	518.337E-3	-15.8110E-3
3.61931E-3	154.982E-12	502.038E-3	-21.7915E-3	152.303E-12	529.103E-3	-7.53223E-3
3.61431E-3	156.136E-12	526.461E-3	-32.0936E-3	152.737E-12	530.682E-3	-4.45707E-3
3.60930E-3	156.507E-12	512.625E-3	-32.3169E-3	153.306E-12	536.851E-3	-8.09154E-3
3.60430E-3	157.250E-12	476.444E-3	-41.3302E-3	153.574E-12	550.284E-3	-32.9803E-3
3.59930E-3	157.552E-12	483.371E-3	-16.1521E-3	153.784E-12	545.394E-3	-56.6532E-3
3.59430E-3	157.559E-12	521.560E-3	6.49009E-3	154.568E-12	531.277E-3	-42.4068E-3
3.58929E-3	156.682E-12	543.186E-3	1.89309E-3	154.368E-12	528.795E-3	-23.7130E-3
3.58429E-3	155.940E-12	547.460E-3	-4.98103E-3	154.564E-12	507.717E-3	-28.6991E-3
3.57929E-3	154.532E-12	540.649E-3	-9.77956E-3	154.064E-12	496.813E-3	-32.2424E-3
3.57429E-3	153.116E-12	527.242E-3	-15.8377E-3	153.782E-12	527.389E-3	-24.2624E-3
3.56928E-3	152.399E-12	524.183E-3	-17.5026E-3	153.593E-12	543.768E-3	-10.8224E-3
3.56428E-3	150.948E-12	534.527E-3	-7.51140E-3	153.065E-12	539.646E-3	1.22222E-3
3.55928E-3	150.263E-12	538.551E-3	-6.29150E-3	152.601E-12	537.568E-3	-6.28603E-3
3.55428E-3	148.924E-12	539.035E-3	-17.6569E-3	151.683E-12	539.552E-3	-27.8804E-3
3.54927E-3	149.707E-12	543.636E-3	-23.9503E-3	152.317E-12	535.498E-3	-32.0816E-3
3.54427E-3	148.150E-12	551.715E-3	-29.3563E-3	151.541E-12	509.805E-3	-14.0621E-3
3.53927E-3	148.698E-12	561.986E-3	-26.3372E-3	150.748E-12	493.467E-3	13.2569E-3
3.53427E-3	148.976E-12	559.101E-3	-9.21555E-3	149.049E-12	506.156E-3	20.0906E-3
3.52926E-3	149.732E-12	554.262E-3	9.01871E-3	148.514E-12	516.102E-3	-4.37194E-3
3.52426E-3	149.864E-12	568.271E-3	12.9345E-3	149.744E-12	509.040E-3	-7.86085E-3
3.51926E-3	150.961E-12	567.438E-3	-265.277E-6	149.665E-12	508.525E-3	9.69876E-3
3.51426E-3	151.145E-12	543.332E-3	1.49723E-3	149.022E-12	508.360E-3	-2.61555E-3
3.50925E-3	151.795E-12	534.644E-3	26.0692E-3	148.849E-12	507.002E-3	-18.0516E-3
3.50425E-3	153.075E-12	545.583E-3	27.8150E-3	150.068E-12	526.698E-3	-2.95184E-3
3.49925E-3	153.386E-12	557.033E-3	-4.66897E-3	149.621E-12	536.685E-3	-1.47100E-3
3.49425E-3	153.463E-12	562.115E-3	-31.3743E-3	149.021E-12	526.654E-3	-31.4415E-3
3.48924E-3	151.798E-12	568.097E-3	-39.9193E-3	149.005E-12	539.028E-3	-44.2122E-3
3.48424E-3	151.520E-12	558.658E-3	-19.6591E-3	149.366E-12	560.022E-3	-29.6414E-3
3.47924E-3	151.574E-12	542.062E-3	5.30320E-3	149.162E-12	545.878E-3	-22.9670E-3
3.47424E-3	149.992E-12	550.275E-3	-2.71288E-3	148.331E-12	515.703E-3	-23.8386E-3
3.46923E-3	148.264E-12	543.727E-3	-11.4090E-3	147.619E-12	504.962E-3	-6.88641E-3
3.46423E-3	147.225E-12	510.494E-3	1.43877E-3	148.217E-12	494.570E-3	-2.66798E-3
3.45923E-3	146.942E-12	508.677E-3	5.86997E-3	148.427E-12	480.123E-3	-16.9078E-3
3.45423E-3	145.612E-12	533.739E-3	-18.4200E-3	147.856E-12	492.442E-3	-1.19592E-3
3.44922E-3	144.967E-12	543.939E-3	-39.1840E-3	147.059E-12	511.382E-3	12.7426E-3
3.44422E-3	144.414E-12	534.532E-3	-37.9128E-3	147.050E-12	513.207E-3	1.22520E-3
3.43922E-3	144.620E-12	522.041E-3	-28.4555E-3	147.032E-12	519.850E-3	-1.48281E-3
3.43422E-3	144.428E-12	515.921E-3	-33.5690E-3	147.083E-12	528.461E-3	429.679E-6
3.42921E-3	144.495E-12	521.188E-3	-43.1562E-3	146.957E-12	518.549E-3	-6.86672E-3
3.42421E-3	145.618E-12	527.264E-3	-35.6077E-3	146.597E-12	516.688E-3	-16.5233E-3
3.41921E-3	146.188E-12	515.181E-3	-33.8443E-3	147.004E-12	539.218E-3	-34.5543E-3
3.41421E-3	147.803E-12	508.716E-3	-31.7813E-3	146.605E-12	555.497E-3	-40.0467E-3
3.40920E-3	147.333E-12	512.859E-3	-18.9074E-3	145.932E-12	552.804E-3	-11.4186E-3
3.40420E-3	148.692E-12	524.157E-3	-3.33707E-3	146.037E-12	543.339E-3	10.0741E-3
3.39920E-3	149.488E-12	555.150E-3	12.3242E-3	146.278E-12	533.792E-3	11.3427E-3
3.39420E-3	149.544E-12	570.483E-3	15.5756E-3	146.248E-12	520.507E-3	4.00168E-3
3.38919E-3	148.776E-12	547.237E-3	942.801E-6	146.406E-12	522.536E-3	-12.4074E-3
3.38419E-3	148.595E-12	524.565E-3	-1.86517E-3	145.567E-12	547.028E-3	-19.9535E-3
3.37919E-3	148.090E-12	530.454E-3	5.89758E-3	144.855E-12	571.165E-3	-7.31958E-3
3.37419E-3	147.258E-12	544.016E-3	12.0809E-3	145.232E-12	576.888E-3	-2.65739E-3
3.36918E-3	146.589E-12	551.398E-3	14.4906E-3	145.454E-12	551.575E-3	-18.5605E-3
3.36418E-3	144.425E-12	561.936E-3	3.94509E-3	145.155E-12	536.924E-3	-29.6790E-3
3.35918E-3	144.334E-12	552.694E-3	-2.52807E-3	145.147E-12	550.703E-3	-18.7073E-3
3.35418E-3	143.431E-12	521.096E-3	-3.83406E-3	145.705E-12	551.752E-3	-7.42182E-3
3.34917E-3	141.878E-12	507.768E-3	-8.78876E-3	145.761E-12	540.450E-3	-12.8627E-3
3.34417E-3	141.197E-12	503.264E-3	-14.7574E-3	145.287E-12	541.764E-3	-17.2611E-3
3.33917E-3	141.662E-12	506.922E-3	-24.8918E-3	145.044E-12	559.546E-3	-27.3838E-3
3.33417E-3	141.260E-12	526.912E-3	-36.4349E-3	144.858E-12	556.251E-3	-38.3063E-3
3.32916E-3	141.071E-12	536.435E-3	-23.7002E-3	143.309E-12	526.707E-3	-22.9229E-3
3.32416E-3	142.021E-12	521.904E-3	-3.11255E-3	142.915E-12	517.327E-3	-4.81911E-3
3.31916E-3	142.427E-12	509.074E-3	-1.38473E-3	143.586E-12	515.237E-3	-8.84845E-3
3.31416E-3	143.138E-12	508.260E-3	-18.6346E-3	142.756E-12	507.707E-3	-26.6431E-3
3.30915E-3	143.771E-12	518.065E-3	-49.4025E-3	141.477E-12	511.897E-3	-33.4072E-3
3.30415E-3	144.641E-12	537.697E-3	-57.6042E-3	141.395E-12	520.385E-3	-25.4576E-3
3.29915E-3	145.076E-12	546.907E-3	-42.8330E-3	141.869E-12	532.109E-3	-29.5984E-3
3.29415E-3	144.860E-12	556.690E-3	-37.2554E-3	141.734E-12	537.903E-3	-37.6118E-3
3.28914E-3	145.382E-12	564.484E-3	-38.2478E-3	140.726E-12	523.113E-3	-24.2068E-3
3.28414E-3	145.294E-12	550.058E-3	-35.0963E-3	139.867E-12	504.674E-3	594.144E-6
3.27914E-3	144.461E-12	531.349E-3	-23.4666E-3	141.167E-12	509.421E-3	10.9295E-3
3.27414E-3	143.189E-12	528.048E-3	-22.7194E-3	141.682E-12	522.709E-3	-6.39293E-3
3.26913E-3	142.772E-12	525.629E-3	-38.4715E-3	141.271E-12	524.000E-3	-30.2319E-3
3.26413E-3	142.292E-12	509.945E-3	-43.1132E-3	140.307E-12	525.822E-3	-40.1451E-3
3.25913E-3	141.290E-12	496.145E-3	-30.9355E-3	141.640E-12	520.538E-3	-29.0078E-3
3.25413E-3	140.083E-12	506.778E-3	-23.0159E-3	142.612E-12	517.973E-3	-10.1057E-3
3.24912E-3	139.118E-12	537.342E-3	-21.4994E-3	143.001E-12	534.178E-3	-11.7125E-3
3.24412E-3	138.866E-12	550.902E-3	-16.3585E-3	141.629E-12	546.368E-3	-22.0441E-3
3.23912E-3	138.881E-12	545.247E-3	-25.4560E-3	140.444E-12	552.502E-3	-11.8636E-3
3.23412E-3	138.604E-12	542.786E-3	-32.3028E-3	140.255E-12	556.784E-3	-4.17101E-3
3.22911E-3	137.770E-12	543.286E-3	-18.3011E-3	140.517E-12	542.904E-3	-23.5028E-3
3.22411E-3	138.295E-12	539.604E-3	-5.86978E-3	140.433E-12	534.457E-3	-19.9479E-3
3.21911E-3	138.467E-12	526.635E-3	-525.512E-6	139.574E-12	544.492E-3	5.46395E-3
3.21411E-3	139.143E-12	517.148E-3	616.917E-6	138.161E-12	528.964E-3	13.3512E-3
3.20910E-3	139.189E-12	514.998E-3	2.11782E-3	138.009E-12	519.721E-3	9.10778E-3
3.20410E-3	139.818E-12	518.606E-3	1.87266E-3	137.846E-12	546.872E-3	-2.23812E-3
3.19910E-3	140.508E-12	528.959E-3	-4.93467E-3	137.972E-12	543.146E-3	-11.0772E-3
3.19410E-3	140.865E-12	527.023E-3	-7.32056E-3	137.551E-12	523.326E-3	-12.8038E-3
3.18909E-3	141.439E-12	537.260E-3	-3.55129E-3	137.718E-12	532.091E-3	-18.5986E-3
3.18409E-3	140.777E-12	566.107E-3	-17.2369E-3	138.061E-12	527.461E-3	-17.8756E-3
3.17909E-3	140.725E-12	557.693E-3	-35.6123E-3	138.490E-12	518.139E-3	541.809E-6
3.17409E-3	141.472E-12	545.266E-3	-25.8951E-3	138.621E-12	540.975E-3	6.12105E-3
3.16908E-3	141.433E-12	553.482E-3	-10.7635E-3	138.474E-12	547.171E-3	-5.02924E-3
3.16408E-3	140.144E-12	552.137E-3	-14.7673E-3	138.177E-12	528.110E-3	-1.35033E-3
3.15908E-3	138.293E-12	549.557E-3	-27.0410E-3	138.951E-12	533.011E-3	4.45574E-3
3.15408E-3	138.229E-12	546.163E-3	-38.2276E-3	139.189E-12	548.629E-3	-10.3089E-3
3.14907E-3	137.197E-12	532.399E-3	-32.5889E-3	139.478E-12	560.008E-3	-16.0337E-3
3.14407E-3	136.887E-12	528.265E-3	-22.6447E-3	138.922E-12	552.628E-3	-12.0815E-3
3.13907E-3	135.692E-12	548.705E-3	-29.0292E-3	138.672E-12	525.039E-3	-16.9218E-3
3.13407E-3	134.172E-12	558.743E-3	-30.8805E-3	138.590E-12	524.329E-3	-26.0500E-3
3.12906E-3	134.033E-12	545.155E-3	-26.1882E-3	138.031E-12	545.786E-3	-43.3068E-3
3.12406E-3	133.875E-12	538.220E-3	-28.3419E-3	137.423E-12	545.284E-3	-38.2551E-3
3.11906E-3	134.646E-12	547.605E-3	-32.3346E-3	137.276E-12	525.572E-3	-9.14042E-3
3.11406E-3	134.363E-12	542.265E-3	-26.0204E-3	136.583E-12	531.619E-3	11.0001E-3
3.10905E-3	134.384E-12	534.063E-3	-13.8114E-3	135.919E-12	543.946E-3	3.71865E-3
3.10405E-3	135.474E-12	547.306E-3	6.80808E-3	135.286E-12	538.547E-3	-24.1476E-3
3.09905E-3	136.095E-12	545.026E-3	40.9250E-3	135.436E-12	534.723E-3	-37.1197E-3
3.09405E-3	135.480E-12	524.109E-3	53.8358E-3	134.725E-12	529.032E-3	-44.8652E-3
3.08904E-3	136.335E-12	522.069E-3	35.8009E-3	134.401E-12	522.195E-3	-51.5376E-3
3.08404E-3	136.343E-12	537.782E-3	-4.59287E-3	134.569E-12	523.917E-3	-47.2558E-3
3.07904E-3	135.992E-12	548.518E-3	-36.6844E-3	134.808E-12	526.841E-3	-44.6520E-3
3.07404E-3	136.164E-12	561.867E-3	-22.3588E-3	134.577E-12	519.130E-3	-30.7269E-3
3.06903E-3	136.061E-12	568.720E-3	-4.92000E-3	134.735E-12	515.118E-3	-27.1615E-3
3.06403E-3	135.309E-12	544.730E-3	183.532E-6	135.170E-12	511.986E-3	-49.4010E-3
3.05903E-3	134.453E-12	525.671E-3	7.60695E-3	135.207E-12	511.278E-3	-51.6090E-3
3.05403E-3	133.744E-12	523.986E-3	-3.53203E-3	135.522E-12	534.099E-3	-36.8827E-3
3.04902E-3	132.346E-12	519.975E-3	-16.0551E-3	135.116E-12	554.134E-3	-34.6405E-3
3.04402E-3	131.488E-12	521.061E-3	-17.5546E-3	134.267E-12	551.761E-3	-21.8175E-3
3.03902E-3	132.133E-12	519.775E-3	-17.1485E-3	134.059E-12	542.976E-3	-1.46764E-3
3.03402E-3	131.077E-12	524.423E-3	-14.1251E-3	134.319E-12	530.218E-3	-17.5557E-3
3.02901E-3	130.273E-12	548.961E-3	-17.6837E-3	133.275E-12	525.716E-3	-41.2720E-3
3.02401E-3	129.318E-12	571.728E-3	-4.74063E-3	131.936E-12	529.896E-3	-21.7999E-3
3.01901E-3	130.464E-12	571.233E-3	5.64845E-3	130.644E-12	528.117E-3	4.51145E-3
3.01401E-3	131.128E-12	552.587E-3	-2.02548E-3	130.650E-12	523.831E-3	5.98499E-3
3.00900E-3	130.806E-12	539.265E-3	-15.2414E-3	130.772E-12	526.449E-3	-500.253E-6
3.00400E-3	129.965E-12	551.429E-3	-39.2575E-3	130.249E-12	533.065E-3	-4.02804E-3
2.99900E-3	130.583E-12	571.027E-3	-32.3722E-3	128.741E-12	533.141E-3	6.98022E-3
2.99400E-3	132.146E-12	553.179E-3	-22.4543E-3	128.894E-12	533.230E-3	17.5184E-3
2.98899E-3	132.044E-12	528.436E-3	-41.0255E-3	129.788E-12	526.051E-3	373.570E-6
2.98399E-3	131.752E-12	537.348E-3	-41.5521E-3	129.331E-12	510.982E-3	-16.0067E-3
2.97899E-3	132.115E-12	547.647E-3	-13.5273E-3	128.460E-12	509.858E-3	-12.8908E-3
2.97399E-3	132.795E-12	540.500E-3	604.152E-6	128.394E-12	528.760E-3	-17.4040E-3
2.96898E-3	133.115E-12	520.670E-3	-13.8219E-3	129.181E-12	539.548E-3	-23.8100E-3
2.96398E-3	132.790E-12	512.169E-3	-29.1215E-3	130.279E-12	524.355E-3	-14.2790E-3
2.95898E-3	132.025E-12	535.825E-3	-33.2754E-3	130.599E-12	511.275E-3	-1.45280E-3
2.95398E-3	130.748E-12	553.850E-3	-28.1753E-3	129.099E-12	521.888E-3	9.79272E-3
2.94897E-3	130.814E-12	549.708E-3	-28.4956E-3	128.949E-12	539.986E-3	4.69418E-3
2.94397E-3	130.144E-12	541.438E-3	-24.7061E-3	130.186E-12	535.243E-3	-24.2280E-3
2.93897E-3	128.762E-12	532.184E-3	-3.65893E-3	130.112E-12	520.455E-3	-39.5618E-3
2.93397E-3	127.162E-12	538.564E-3	2.18297E-3	129.474E-12	520.700E-3	-27.1771E-3
2.92896E-3	126.806E-12	529.119E-3	-16.6105E-3	129.465E-12	533.927E-3	-11.7421E-3
2.92396E-3	126.739E-12	511.523E-3	-22.1452E-3	130.348E-12	545.907E-3	-8.84738E-3
2.91896E-3	126.109E-12	522.059E-3	-1.42433E-3	130.616E-12	540.628E-3	-7.67773E-3
2.91396E-3	124.964E-12	515.464E-3	11.9409E-3	130.007E-12	528.833E-3	-5.88857E-3
2.90895E-3	125.256E-12	510.123E-3	11.4130E-3	128.910E-12	526.827E-3	-15.0964E-3
2.90395E-3	126.283E-12	538.778E-3	17.5020E-3	129.808E-12	532.000E-3	-24.5871E-3
2.89895E-3	125.963E-12	546.980E-3	8.19258E-3	129.768E-12	543.811E-3	-14.0920E-3
2.89395E-3	125.799E-12	533.800E-3	-10.2247E-3	128.518E-12	549.930E-3	-3.25551E-3
2.88894E-3	127.164E-12	537.950E-3	-272.836E-6	126.637E-12	535.124E-3	-23.8612E-3
2.88394E-3	128.519E-12	537.845E-3	-1.21763E-3	127.264E-12	514.255E-3	-42.1079E-3
2.87894E-3	129.021E-12	539.422E-3	-27.5656E-3	127.354E-12	508.420E-3	-39.1466E-3
2.87394E-3	128.941E-12	548.809E-3	-31.8303E-3	127.290E-12	524.935E-3	-34.1287E-3
2.86893E-3	128.170E-12	546.843E-3	-18.9059E-3	125.753E-12	547.433E-3	-32.2561E-3
2.86393E-3	129.297E-12	540.655E-3	-439.680E-6	125.092E-12	541.948E-3	-29.0984E-3
2.85893E-3	130.257E-12	537.448E-3	19.2472E-3	126.496E-12	530.256E-3	-20.0659E-3
2.85393E-3	129.122E-12	525.106E-3	9.43302E-3	126.976E-12	543.162E-3	-24.8820E-3
2.84892E-3	128.133E-12	520.526E-3	-16.9909E-3	126.468E-12	551.666E-3	-24.2764E-3
2.84392E-3	127.052E-12	543.396E-3	-15.6811E-3	125.640E-12	542.136E-3	-18.7398E-3
2.83892E-3	127.275E-12	557.718E-3	4.98819E-3	126.168E-12	549.019E-3	-39.8507E-3
2.83392E-3	125.769E-12	557.736E-3	10.6956E-3	127.426E-12	566.821E-3	-48.3848E-3
2.82891E-3	124.736E-12	557.935E-3	3.88540E-3	127.497E-12	561.843E-3	-31.6879E-3
2.82391E-3	124.052E-12	546.345E-3	-6.42210E-3	127.433E-12	540.327E-3	-16.5413E-3
2.81891E-3	123.485E-12	521.480E-3	-22.4541E-3	126.857E-12	524.572E-3	-15.4721E-3
2.81391E-3	123.504E-12	509.887E-3	-36.6910E-3	127.068E-12	529.844E-3	-14.4457E-3
2.80890E-3	123.556E-12	526.816E-3	-28.6765E-3	126.810E-12	526.289E-3	-977.705E-6
2.80390E-3	123.538E-12	542.136E-3	-9.50056E-3	126.455E-12	516.535E-3	2.56975E-3
2.79890E-3	123.843E-12	525.820E-3	3.08540E-3	124.389E-12	539.683E-3	-8.36809E-3
2.79390E-3	123.848E-12	515.411E-3	14.7339E-3	123.770E-12	566.409E-3	-8.73037E-3
2.78889E-3	125.033E-12	538.082E-3	2.58606E-3	124.169E-12	569.520E-3	-1.96470E-3
2.78389E-3	125.242E-12	570.501E-3	-15.7145E-3	123.956E-12	562.785E-3	-14.9744E-3
2.77889E-3	125.687E-12	574.042E-3	-19.5933E-3	122.091E-12	542.681E-3	-29.8256E-3
2.77389E-3	126.053E-12	537.111E-3	-33.8155E-3	121.368E-12	524.638E-3	-13.2652E-3
2.76888E-3	127.175E-12	521.206E-3	-36.8890E-3	121.509E-12	529.827E-3	2.40031E-3
2.76388E-3	127.392E-12	533.846E-3	-10.9383E-3	122.795E-12	534.018E-3	-18.0343E-3
2.75888E-3	126.341E-12	532.811E-3	-5.49980E-3	122.627E-12	515.339E-3	-36.5881E-3
2.75388E-3	126.107E-12	526.675E-3	-24.8150E-3	120.632E-12	497.880E-3	-28.8268E-3
2.74887E-3	125.687E-12	524.251E-3	-35.7077E-3	121.846E-12	523.302E-3	-14.3221E-3
2.74387E-3	124.569E-12	511.276E-3	-45.3980E-3	123.461E-12	557.022E-3	-17.3695E-3
2.73887E-3	122.388E-12	500.044E-3	-47.1730E-3	123.522E-12	570.778E-3	-13.6499E-3
2.73387E-3	122.159E-12	527.799E-3	-26.1733E-3	122.505E-12	584.066E-3	7.19885E-3
2.72886E-3	121.065E-12	567.647E-3	-10.3888E-3	122.902E-12	562.336E-3	9.64161E-3
2.72386E-3	120.906E-12	567.622E-3	-25.1190E-3	123.970E-12	519.586E-3	4.46307E-3
2.71886E-3	119.729E-12	539.979E-3	-37.8748E-3	124.299E-12	511.590E-3	-13.7066E-3
2.71386E-3	119.365E-12	516.442E-3	-38.3720E-3	123.630E-12	517.784E-3	-26.4512E-3
2.70885E-3	119.439E-12	514.413E-3	-25.6171E-3	122.332E-12	518.891E-3	561.192E-6
2.70385E-3	120.151E-12	522.368E-3	-543.195E-6	121.791E-12	517.995E-3	12.4069E-3
2.69885E-3	120.118E-12	519.244E-3	5.68266E-3	121.296E-12	527.883E-3	-2.10087E-3
2.69385E-3	119.913E-12	529.332E-3	7.22803E-3	120.830E-12	557.805E-3	-3.39169E-3
2.68884E-3	119.586E-12	544.068E-3	5.04752E-3	119.783E-12	549.362E-3	5.26413E-3
2.68384E-3	120.039E-12	528.883E-3	-17.7570E-3	118.924E-12	505.470E-3	6.25032E-3
2.67884E-3	120.609E-12	510.456E-3	-28.3670E-3	118.704E-12	501.127E-3	-7.66279E-3
2.67384E-3	120.675E-12	526.882E-3	-8.23796E-3	119.133E-12	525.013E-3	-19.0178E-3
2.66883E-3	120.685E-12	561.095E-3	4.71321E-3	118.223E-12	534.477E-3	-14.4400E-3
2.66383E-3	120.253E-12	568.672E-3	-19.1940E-3	117.494E-12	528.571E-3	-4.93216E-3
2.65883E-3	120.494E-12	557.924E-3	-34.0694E-3	117.718E-12	518.481E-3	4.61543E-3
2.65383E-3	120.747E-12	545.225E-3	-17.0069E-3	118.165E-12	534.472E-3	1.46066E-3
2.64882E-3	120.382E-12	527.625E-3	-18.6606E-3	118.035E-12	561.134E-3	-16.6962E-3
2.64382E-3	119.900E-12	530.204E-3	-32.0120E-3	118.761E-12	551.616E-3	-21.3298E-3
2.63882E-3	120.048E-12	544.018E-3	-27.6621E-3	118.764E-12	531.335E-3	-8.30050E-3
2.63382E-3	119.772E-12	551.311E-3	-27.4468E-3	118.986E-12	530.853E-3	1.22384E-3
2.62881E-3	119.279E-12	572.827E-3	-22.4286E-3	119.051E-12	531.692E-3	-3.27025E-3
2.62381E-3	118.439E-12	582.289E-3	-10.4355E-3	118.428E-12	530.626E-3	-11.2826E-3
2.61881E-3	117.729E-12	564.757E-3	-15.2231E-3	117.644E-12	543.240E-3	-8.12620E-3
2.61381E-3	117.469E-12	544.894E-3	-22.3294E-3	117.591E-12	558.121E-3	-12.7601E-3
2.60880E-3	117.231E-12	524.086E-3	-25.1440E-3	118.014E-12	549.578E-3	-32.0551E-3
2.60380E-3	116.814E-12	519.111E-3	-39.1937E-3	117.846E-12	540.379E-3	-27.0551E-3
2.59880E-3	116.705E-12	538.250E-3	-49.0735E-3	116.948E-12	546.688E-3	-7.87154E-3
2.59380E-3	116.775E-12	544.176E-3	-41.4574E-3	116.951E-12	547.092E-3	-10.9484E-3
2.58879E-3	116.901E-12	526.424E-3	-22.4702E-3	116.787E-12	537.127E-3	-15.3089E-3
2.58379E-3	116.651E-12	524.996E-3	-5.96653E-3	117.071E-12	532.782E-3	-4.54897E-3
2.57879E-3	116.289E-12	537.377E-3	-4.24138E-3	117.274E-12	536.951E-3	-4.82868E-3
2.57379E-3	116.971E-12	543.394E-3	-8.18286E-3	116.676E-12	539.212E-3	-20.9089E-3
2.56878E-3	117.771E-12	543.766E-3	-9.21625E-3	115.470E-12	548.935E-3	-23.4534E-3
2.56378E-3	117.847E-12	533.136E-3	-2.93994E-3	116.758E-12	556.248E-3	-15.2256E-3
2.55878E-3	117.966E-12	517.755E-3	-1.51957E-3	116.380E-12	544.367E-3	-19.3927E-3
2.55378E-3	118.277E-12	515.782E-3	-5.75342E-3	115.182E-12	541.330E-3	-22.2627E-3
2.54877E-3	118.626E-12	536.527E-3	-9.20921E-3	114.263E-12	546.900E-3	-19.3244E-3
2.54377E-3	119.067E-12	560.199E-3	-16.2964E-3	114.882E-12	549.783E-3	-18.4403E-3
2.53877E-3	118.844E-12	566.722E-3	-17.0693E-3	115.432E-12	562.715E-3	-17.8848E-3
2.53377E-3	117.914E-12	571.802E-3	-7.99890E-3	114.674E-12	530.655E-3	-27.5770E-3
2.52876E-3	117.116E-12	568.063E-3	-4.91611E-3	114.535E-12	486.649E-3	-32.8354E-3
2.52376E-3	116.961E-12	537.592E-3	-23.7419E-3	114.690E-12	491.872E-3	-17.4042E-3
2.51876E-3	115.915E-12	525.366E-3	-35.5511E-3	114.569E-12	502.411E-3	-12.8949E-3
2.51376E-3	114.483E-12	541.487E-3	-23.5792E-3	114.585E-12	520.810E-3	-31.2141E-3
2.50875E-3	113.196E-12	544.077E-3	-13.7834E-3	114.000E-12	533.411E-3	-44.2082E-3
2.50375E-3	112.783E-12	527.510E-3	-20.9143E-3	114.012E-12	533.445E-3	-45.2525E-3
2.49875E-3	112.836E-12	522.006E-3	-33.6598E-3	114.841E-12	547.143E-3	-39.5499E-3
2.49375E-3	111.992E-12	531.015E-3	-37.0051E-3	114.862E-12	564.835E-3	-22.7642E-3
2.48874E-3	110.806E-12	530.829E-3	-33.5224E-3	114.680E-12	577.038E-3	-9.37084E-3
2.48374E-3	110.738E-12	522.309E-3	-15.5313E-3	113.879E-12	567.629E-3	-10.2135E-3
2.47874E-3	111.785E-12	515.916E-3	3.10592E-3	114.694E-12	552.047E-3	-10.0631E-3
2.47374E-3	112.169E-12	518.102E-3	-4.53248E-3	115.031E-12	545.461E-3	-1.17808E-3
2.46873E-3	112.020E-12	525.839E-3	-20.3907E-3	113.284E-12	536.447E-3	-4.53578E-3
2.46373E-3	111.608E-12	540.373E-3	-31.1770E-3	111.500E-12	527.104E-3	-3.60424E-3
2.45873E-3	112.747E-12	552.040E-3	-35.4354E-3	112.045E-12	523.314E-3	6.42001E-3
2.45373E-3	114.099E-12	540.096E-3	-25.4768E-3	111.573E-12	523.895E-3	-2.70800E-3
2.44872E-3	113.445E-12	541.313E-3	-24.7846E-3	111.070E-12	529.357E-3	-16.3534E-3
2.44372E-3	112.894E-12	562.894E-3	-24.7669E-3	110.256E-12	546.091E-3	-20.5025E-3
2.43872E-3	113.149E-12	558.263E-3	-13.9516E-3	110.041E-12	540.911E-3	-11.7198E-3
2.43372E-3	114.931E-12	547.885E-3	-15.0972E-3	110.083E-12	528.379E-3	-7.50121E-3
2.42871E-3	114.400E-12	552.488E-3	-5.31516E-3	110.510E-12	551.844E-3	-20.0540E-3
2.42371E-3	111.682E-12	549.851E-3	12.0595E-3	109.998E-12	570.871E-3	-28.1427E-3
2.41871E-3	110.548E-12	544.046E-3	4.67405E-3	109.431E-12	559.778E-3	-27.2859E-3
2.41371E-3	110.963E-12	541.148E-3	-12.0729E-3	109.637E-12	542.961E-3	-30.4902E-3
2.40870E-3	111.166E-12	548.957E-3	-19.3922E-3	110.083E-12	537.721E-3	-27.7145E-3
2.40370E-3	109.089E-12	552.977E-3	-23.9001E-3	110.388E-12	541.641E-3	-13.6163E-3
2.39870E-3	107.667E-12	540.552E-3	-29.0756E-3	109.922E-12	535.455E-3	-11.4053E-3
2.39370E-3	107.454E-12	522.785E-3	-12.7147E-3	110.059E-12	524.713E-3	-10.7953E-3
2.38869E-3	108.075E-12	502.161E-3	4.76887E-3	110.736E-12	536.189E-3	-384.269E-6
2.38369E-3	107.644E-12	500.272E-3	-12.5804E-3	111.294E-12	551.173E-3	368.443E-6
2.37869E-3	106.765E-12	509.089E-3	-17.9236E-3	110.483E-12	546.902E-3	-11.0896E-3
2.37369E-3	107.630E-12	511.414E-3	-1.06586E-3	110.314E-12	529.639E-3	-31.2682E-3
2.36868E-3	108.304E-12	519.051E-3	-711.512E-6	109.023E-12	512.621E-3	-32.5722E-3
2.36368E-3	109.409E-12	530.120E-3	-2.15679E-3	108.182E-12	504.074E-3	-11.2975E-3
2.35868E-3	108.856E-12	524.982E-3	-5.55111E-3	107.878E-12	494.387E-3	-2.81094E-3
2.35368E-3	109.337E-12	517.095E-3	-20.8370E-3	107.636E-12	501.966E-3	-2.44101E-3
2.34867E-3	109.819E-12	530.796E-3	-20.0704E-3	106.915E-12	519.803E-3	4.25689E-3
2.34367E-3	110.630E-12	532.448E-3	-9.28843E-3	107.234E-12	517.577E-3	1.59025E-3
2.33867E-3	109.956E-12	520.259E-3	-18.4274E-3	107.242E-12	513.733E-3	-17.1067E-3
2.33367E-3	108.755E-12	523.336E-3	-10.8791E-3	106.690E-12	505.331E-3	-20.9648E-3
2.32866E-3	108.736E-12	518.454E-3	9.68064E-3	106.781E-12	511.348E-3	-7.05402E-3
2.32366E-3	108.829E-12	505.708E-3	3.54238E-3	106.682E-12	545.632E-3	-6.33794E-3
2.31866E-3	108.370E-12	501.868E-3	1.16540E-3	106.723E-12	550.237E-3	-16.6740E-3
2.31366E-3	106.511E-12	497.657E-3	4.24811E-3	107.425E-12	520.077E-3	-24.7992E-3
2.30865E-3	105.464E-12	499.279E-3	-12.7017E-3	108.087E-12	498.856E-3	-26.4186E-3
2.30365E-3	105.029E-12	515.605E-3	-33.2031E-3	107.322E-12	496.604E-3	-13.5552E-3
2.29865E-3	104.942E-12	524.708E-3	-34.5675E-3	106.588E-12	490.933E-3	5.24105E-3
2.29365E-3	104.144E-12	510.628E-3	-16.1850E-3	107.001E-12	492.717E-3	5.19030E-3
2.28864E-3	103.550E-12	510.850E-3	-8.12249E-3	107.616E-12	520.124E-3	-17.9583E-3
2.28364E-3	103.323E-12	521.864E-3	-24.6064E-3	106.853E-12	538.811E-3	-29.7166E-3
2.27864E-3	103.813E-12	520.126E-3	-43.8020E-3	105.674E-12	533.247E-3	-17.7021E-3
2.27364E-3	104.945E-12	529.121E-3	-45.0557E-3	105.702E-12	520.892E-3	-12.1214E-3
2.26863E-3	104.468E-12	527.126E-3	-29.1804E-3	104.753E-12	512.165E-3	-8.47050E-3
2.26363E-3	104.550E-12	510.519E-3	-17.2843E-3	103.911E-12	515.584E-3	6.23877E-3
2.25863E-3	104.030E-12	514.918E-3	2.10217E-3	103.545E-12	519.970E-3	8.84204E-3
2.25363E-3	105.322E-12	511.963E-3	25.6809E-3	103.206E-12	511.755E-3	-4.44700E-3
2.24862E-3	104.806E-12	502.545E-3	16.8199E-3	103.325E-12	514.096E-3	-15.9634E-3
2.24362E-3	105.087E-12	521.275E-3	538.373E-6	103.659E-12	528.931E-3	-30.8602E-3
2.23862E-3	105.032E-12	539.903E-3	-4.47846E-3	103.936E-12	531.849E-3	-42.5231E-3
2.23362E-3	105.704E-12	537.787E-3	-21.0189E-3	103.952E-12	538.311E-3	-30.8124E-3
2.22861E-3	105.694E-12	533.724E-3	-27.9037E-3	104.421E-12	554.084E-3	-20.9122E-3
2.22361E-3	104.246E-12	528.479E-3	-9.21302E-3	104.949E-12	545.948E-3	-32.9612E-3
2.21861E-3	104.264E-12	524.890E-3	6.27161E-3	104.581E-12	525.076E-3	-36.3070E-3
2.21361E-3	104.050E-12	534.297E-3	-1.48234E-3	104.747E-12	524.163E-3	-20.6880E-3
2.20860E-3	103.690E-12	527.872E-3	-16.6770E-3	104.917E-12	531.194E-3	-5.29264E-3
2.20360E-3	103.041E-12	497.557E-3	-19.1987E-3	105.648E-12	541.299E-3	-2.38795E-3
2.19860E-3	103.156E-12	494.142E-3	-12.5137E-3	105.145E-12	558.741E-3	-13.4068E-3
2.19360E-3	102.849E-12	516.797E-3	-8.59563E-3	104.620E-12	556.964E-3	-24.1971E-3
2.18859E-3	102.021E-12	520.179E-3	-24.6642E-3	103.887E-12	530.119E-3	-26.4057E-3
2.18359E-3	102.044E-12	517.766E-3	-37.9306E-3	103.892E-12	510.120E-3	-27.1803E-3
2.17859E-3	101.673E-12	522.138E-3	-26.1641E-3	103.910E-12	517.192E-3	-31.0745E-3
2.17359E-3	102.138E-12	511.383E-3	-10.4373E-3	102.992E-12	523.986E-3	-26.7350E-3
2.16858E-3	101.627E-12	510.395E-3	-16.1939E-3	102.399E-12	522.521E-3	-18.1753E-3
2.16358E-3	101.401E-12	539.286E-3	-19.7115E-3	101.967E-12	526.594E-3	-9.71230E-3
2.15858E-3	101.971E-12	553.141E-3	-7.46215E-3	102.015E-12	511.343E-3	3.87339E-3
2.15358E-3	101.869E-12	532.239E-3	-22.8026E-3	101.527E-12	499.911E-3	3.97831E-3
2.14857E-3	102.147E-12	509.320E-3	-34.6534E-3	100.565E-12	519.730E-3	-15.5264E-3
2.14357E-3	102.380E-12	506.648E-3	-19.0667E-3	101.144E-12	526.934E-3	-27.5611E-3
2.13857E-3	102.566E-12	528.678E-3	-10.6218E-3	101.625E-12	519.122E-3	-18.8857E-3
2.13357E-3	101.861E-12	550.221E-3	-4.05739E-3	101.467E-12	523.529E-3	-19.5225E-3
2.12856E-3	102.201E-12	533.791E-3	-6.48305E-3	100.600E-12	534.844E-3	-32.2283E-3
2.12356E-3	102.029E-12	513.517E-3	-27.4015E-3	100.034E-12	533.673E-3	-29.7056E-3
2.11856E-3	101.710E-12	518.256E-3	-28.5498E-3	100.842E-12	516.290E-3	-24.6438E-3
2.11356E-3	101.430E-12	525.403E-3	-11.6800E-3	101.169E-12	502.804E-3	-20.6614E-3
2.10855E-3	101.165E-12	539.251E-3	-6.88225E-3	100.428E-12	498.008E-3	-6.82659E-3
2.10355E-3	101.181E-12	547.270E-3	-12.3962E-3	99.0456E-12	499.836E-3	-2.75105E-3
2.09855E-3	100.508E-12	530.217E-3	-20.7932E-3	99.6954E-12	502.854E-3	-10.8565E-3
2.09355E-3	99.6343E-12	513.174E-3	-34.3769E-3	99.8431E-12	511.703E-3	-9.19974E-3
2.08854E-3	98.9870E-12	516.068E-3	-47.0505E-3	99.2749E-12	535.180E-3	-22.3759E-3
2.08354E-3	98.6569E-12	538.450E-3	-51.2177E-3	97.4597E-12	540.369E-3	-50.0499E-3
2.07854E-3	98.3591E-12	540.282E-3	-51.5710E-3	97.1989E-12	526.946E-3	-42.7569E-3
2.07354E-3	97.6640E-12	517.120E-3	-30.6157E-3	98.6914E-12	513.254E-3	-29.9579E-3
2.06853E-3	97.1308E-12	505.691E-3	-13.2839E-3	98.4598E-12	500.769E-3	-29.3994E-3
2.06353E-3	96.7227E-12	506.840E-3	-23.5257E-3	98.1615E-12	511.824E-3	-29.2229E-3
2.05853E-3	97.4546E-12	509.684E-3	-32.2257E-3	97.2685E-12	529.098E-3	-32.8532E-3
2.05353E-3	96.9447E-12	507.827E-3	-30.3169E-3	98.2923E-12	517.483E-3	-37.3949E-3
2.04852E-3	96.7205E-12	498.881E-3	-32.3640E-3	97.8941E-12	503.544E-3	-31.9146E-3
2.04352E-3	96.6239E-12	492.689E-3	-31.6498E-3	97.5667E-12	508.789E-3	-16.6982E-3
2.03852E-3	97.0260E-12	499.267E-3	-17.1946E-3	96.5986E-12	506.025E-3	-13.7603E-3
2.03352E-3	97.4934E-12	505.360E-3	-12.9595E-3	95.7980E-12	496.794E-3	-3.54073E-3
2.02851E-3	97.5408E-12	510.787E-3	-22.7183E-3	95.8893E-12	505.088E-3	-762.504E-6
2.02351E-3	97.8181E-12	512.293E-3	-22.6819E-3	95.8569E-12	504.796E-3	-16.6146E-3
2.01851E-3	97.2861E-12	503.112E-3	-23.2907E-3	95.4028E-12	506.420E-3	-20.5440E-3
2.01351E-3	97.9797E-12	507.349E-3	-29.5872E-3	94.3048E-12	529.159E-3	-22.1513E-3
2.00850E-3	97.3427E-12	525.023E-3	-20.9449E-3	95.0691E-12	518.167E-3	-28.1441E-3
2.00350E-3	96.8383E-12	521.543E-3	-16.3490E-3	95.4665E-12	495.344E-3	-27.3529E-3
1.99850E-3	96.1859E-12	493.277E-3	-22.8938E-3	95.2632E-12	509.048E-3	-24.2152E-3
1.99350E-3	96.3837E-12	494.292E-3	-21.3066E-3	95.0938E-12	519.038E-3	-25.8891E-3
1.98849E-3	96.3889E-12	519.379E-3	-5.73497E-3	95.5341E-12	517.674E-3	-23.2560E-3
1.98349E-3	95.9265E-12	535.123E-3	11.2781E-3	96.5088E-12	529.158E-3	-13.1140E-3
1.97849E-3	95.1241E-12	534.388E-3	25.3213E-3	96.5600E-12	532.914E-3	-12.9086E-3
1.97349E-3	94.3478E-12	513.114E-3	25.8712E-3	96.7984E-12	522.844E-3	-16.4638E-3
1.96848E-3	94.2365E-12	499.557E-3	5.81887E-3	96.3031E-12	527.013E-3	-4.82465E-3
1.96348E-3	93.1618E-12	499.513E-3	-5.33407E-3	96.8271E-12	547.412E-3	1.77568E-3
1.95848E-3	93.4395E-12	491.272E-3	-8.71747E-3	96.3814E-12	544.195E-3	-6.07297E-3
1.95348E-3	93.1318E-12	478.053E-3	-15.7217E-3	95.9709E-12	511.192E-3	-12.6523E-3
1.94847E-3	94.0423E-12	472.820E-3	-16.5711E-3	95.4980E-12	484.120E-3	-27.0077E-3
1.94347E-3	94.0571E-12	483.856E-3	-4.89988E-3	95.4585E-12	481.561E-3	-28.5509E-3
1.93847E-3	94.5188E-12	505.621E-3	10.2173E-3	94.5147E-12	493.229E-3	-6.24179E-3
1.93347E-3	94.6029E-12	506.138E-3	5.54409E-3	93.6577E-12	489.246E-3	-6.11485E-3
1.92846E-3	94.7502E-12	494.553E-3	-18.5136E-3	93.2606E-12	478.651E-3	-24.1840E-3
1.92346E-3	95.6945E-12	500.418E-3	-32.2520E-3	93.0648E-12	487.475E-3	-29.5880E-3
1.91846E-3	95.3937E-12	517.754E-3	-17.6821E-3	92.5096E-12	492.868E-3	-36.2854E-3
1.91346E-3	95.7253E-12	531.864E-3	-3.14988E-3	92.9006E-12	482.652E-3	-41.1492E-3
1.90845E-3	94.4232E-12	545.648E-3	-7.57764E-3	93.2181E-12	484.894E-3	-26.7365E-3
1.90345E-3	94.3125E-12	544.794E-3	-1.09524E-3	93.1704E-12	503.066E-3	-16.7146E-3
1.89845E-3	93.8301E-12	514.110E-3	7.70176E-3	93.3704E-12	506.873E-3	-12.4387E-3
1.89345E-3	93.6315E-12	505.483E-3	-11.9931E-3	93.3508E-12	499.980E-3	3.86900E-3
1.88844E-3	92.5847E-12	512.872E-3	-26.9813E-3	94.1790E-12	506.257E-3	-837.367E-6
1.88344E-3	91.9345E-12	498.887E-3	-12.8516E-3	94.8707E-12	513.995E-3	-25.3491E-3
1.87844E-3	91.6675E-12	490.322E-3	-2.71487E-3	94.5942E-12	511.616E-3	-20.6124E-3
1.87344E-3	90.9064E-12	495.133E-3	-19.2773E-3	94.3676E-12	508.802E-3	-10.5546E-3
1.86843E-3	90.5501E-12	485.621E-3	-33.4392E-3	94.7896E-12	495.291E-3	-21.7759E-3
1.86343E-3	89.9950E-12	468.850E-3	-26.7622E-3	94.3853E-12	473.988E-3	-22.8784E-3
1.85843E-3	90.1867E-12	482.924E-3	-23.9923E-3	93.6192E-12	472.781E-3	-9.08234E-3
1.85343E-3	89.5119E-12	500.872E-3	-23.7757E-3	92.2634E-12	489.746E-3	-14.7996E-3
1.84842E-3	90.0813E-12	499.988E-3	-22.0116E-3	91.5952E-12	501.244E-3	-27.1331E-3
1.84342E-3	90.2711E-12	493.977E-3	-21.5674E-3	91.2640E-12	502.621E-3	-31.5304E-3
1.83842E-3	90.9479E-12	480.576E-3	-25.8066E-3	90.6729E-12	486.835E-3	-41.4692E-3
1.83342E-3	91.5474E-12	476.733E-3	-39.5411E-3	89.7310E-12	463.145E-3	-25.2231E-3
1.82841E-3	92.0380E-12	484.496E-3	-41.2936E-3	88.9266E-12	455.520E-3	-1.05624E-3
1.82341E-3	92.2187E-12	491.406E-3	-25.1242E-3	88.8680E-12	468.437E-3	-9.50849E-3
1.81841E-3	91.5304E-12	506.986E-3	-19.2109E-3	89.3347E-12	483.460E-3	-21.2865E-3
1.81341E-3	91.8382E-12	522.866E-3	-28.1888E-3	88.5456E-12	492.065E-3	-18.7268E-3
1.80840E-3	92.0291E-12	513.925E-3	-25.9004E-3	88.5898E-12	500.162E-3	-26.9418E-3
1.80340E-3	91.9345E-12	493.429E-3	-24.3852E-3	89.1909E-12	488.806E-3	-28.6540E-3
1.79840E-3	90.7855E-12	487.241E-3	-25.0258E-3	90.0670E-12	482.640E-3	-8.32517E-3
1.79340E-3	90.7747E-12	486.759E-3	-9.43519E-3	89.5585E-12	496.727E-3	3.63788E-3
1.78839E-3	90.1180E-12	477.049E-3	-13.5689E-3	89.5945E-12	505.556E-3	11.6864E-3
1.78339E-3	89.6391E-12	462.506E-3	-40.9145E-3	90.3893E-12	503.401E-3	5.99426E-3
1.77839E-3	88.9132E-12	459.226E-3	-46.5891E-3	90.7012E-12	490.630E-3	-24.9084E-3
1.77339E-3	88.5182E-12	473.889E-3	-37.6868E-3	90.3247E-12	479.470E-3	-37.5511E-3
1.76838E-3	87.9738E-12	499.952E-3	-37.6789E-3	89.4569E-12	489.332E-3	-26.5523E-3
1.76338E-3	87.1400E-12	509.208E-3	-36.0345E-3	89.4036E-12	501.755E-3	-27.8631E-3
1.75838E-3	87.2036E-12	488.418E-3	-23.9216E-3	88.7664E-12	491.561E-3	-25.6702E-3
1.75338E-3	87.3332E-12	469.680E-3	-1.79093E-3	88.9284E-12	487.964E-3	715.899E-6
1.74837E-3	87.5927E-12	467.876E-3	18.2984E-3	88.1989E-12	501.183E-3	4.75709E-3
1.74337E-3	87.3726E-12	473.520E-3	7.53295E-3	87.2291E-12	498.876E-3	-10.2632E-3
1.73837E-3	87.3797E-12	480.277E-3	-9.61238E-3	86.6271E-12	489.843E-3	-8.83268E-3
1.73337E-3	88.1695E-12	473.042E-3	6.15673E-3	86.5424E-12	488.569E-3	-3.87247E-3
1.72836E-3	88.3484E-12	456.262E-3	16.4977E-3	86.5502E-12	474.753E-3	7.51909E-3
1.72336E-3	87.8010E-12	464.966E-3	-3.30621E-3	86.4407E-12	459.734E-3	21.4711E-3
1.71836E-3	87.4804E-12	495.717E-3	-26.6522E-3	86.0786E-12	458.919E-3	7.41510E-3
1.71336E-3	88.2464E-12	505.991E-3	-30.4440E-3	86.1327E-12	460.551E-3	-10.6922E-3
1.70835E-3	87.8544E-12	497.190E-3	-27.4200E-3	86.7031E-12	461.275E-3	5.26751E-3
1.70335E-3	87.6641E-12	500.304E-3	-31.0510E-3	86.5667E-12	462.261E-3	13.2093E-3
1.69835E-3	87.2541E-12	498.953E-3	-33.7560E-3	86.1168E-12	457.126E-3	-4.44312E-3
1.69335E-3	86.7952E-12	474.322E-3	-37.7530E-3	86.3022E-12	448.534E-3	-6.36070E-3
1.68834E-3	86.8257E-12	460.861E-3	-38.1959E-3	86.0764E-12	456.687E-3	11.9112E-3
1.68334E-3	86.6472E-12	463.712E-3	-36.1954E-3	86.2940E-12	454.272E-3	19.0648E-3
1.67834E-3	85.8109E-12	466.995E-3	-29.8456E-3	86.0669E-12	438.504E-3	9.46535E-3
1.67334E-3	85.6245E-12	481.224E-3	-32.4693E-3	85.9588E-12	461.568E-3	-3.34110E-3
1.66833E-3	85.5840E-12	485.232E-3	-43.9564E-3	85.6379E-12	474.179E-3	-19.2649E-3
1.66333E-3	85.4447E-12	474.188E-3	-37.7526E-3	85.4428E-12	453.584E-3	-22.7472E-3
1.65833E-3	85.1807E-12	471.869E-3	-20.8465E-3	85.3249E-12	458.339E-3	-9.18930E-3
1.65333E-3	84.5693E-12	469.184E-3	-12.7277E-3	84.7520E-12	459.185E-3	-12.9484E-3
1.64832E-3	84.4173E-12	464.160E-3	-13.9561E-3	84.5439E-12	448.963E-3	-23.5704E-3
1.64332E-3	84.6607E-12	459.938E-3	-15.3336E-3	84.7810E-12	469.802E-3	-17.8305E-3
1.63832E-3	84.4229E-12	445.891E-3	-16.5553E-3	84.8402E-12	481.248E-3	-9.47782E-3
1.63332E-3	84.3838E-12	442.159E-3	-20.6819E-3	84.8960E-12	462.594E-3	-831.055E-6
1.62831E-3	83.9113E-12	465.264E-3	-20.8951E-3	84.5701E-12	459.516E-3	-3.36509E-3
1.62331E-3	84.0324E-12	478.387E-3	-14.8953E-3	84.6400E-12	468.510E-3	-28.0643E-3
1.61831E-3	84.4314E-12	467.720E-3	-6.66888E-3	84.7452E-12	456.539E-3	-38.6844E-3
1.61331E-3	84.1823E-12	456.481E-3	-2.59753E-3	84.7750E-12	447.291E-3	-25.4189E-3
1.60830E-3	84.1324E-12	448.125E-3	2.87671E-3	83.8644E-12	448.754E-3	-33.6521E-3
1.60330E-3	83.4696E-12	443.712E-3	19.1889E-3	82.8762E-12	433.693E-3	-41.1968E-3
1.59830E-3	83.4894E-12	442.325E-3	10.5711E-3	83.4875E-12	425.367E-3	-20.7682E-3
1.59330E-3	83.4052E-12	440.754E-3	-20.9102E-3	83.1145E-12	434.264E-3	-23.4686E-3
1.58829E-3	83.5287E-12	437.124E-3	-30.9960E-3	83.1202E-12	424.572E-3	-32.7944E-3
1.58329E-3	83.6321E-12	430.657E-3	-27.9027E-3	82.2505E-12	412.822E-3	-17.5041E-3
1.57829E-3	83.2979E-12	426.863E-3	-20.6833E-3	81.9346E-12	424.530E-3	-19.8660E-3
1.57329E-3	83.3427E-12	427.427E-3	-4.04983E-3	82.7187E-12	428.347E-3	-41.7314E-3
1.56828E-3	82.9738E-12	435.389E-3	-5.29338E-3	82.9510E-12	428.351E-3	-46.1829E-3
1.56328E-3	82.4457E-12	437.407E-3	-16.0327E-3	82.7543E-12	430.281E-3	-41.3465E-3
1.55828E-3	81.9212E-12	439.716E-3	-9.95619E-3	81.7450E-12	424.042E-3	-32.1142E-3
1.55328E-3	81.6709E-12	446.790E-3	-3.47843E-3	82.9874E-12	431.753E-3	-23.9289E-3
1.54827E-3	81.4527E-12	436.565E-3	-10.3126E-3	83.2346E-12	437.587E-3	-29.4500E-3
1.54327E-3	81.0450E-12	427.161E-3	-25.3834E-3	83.2048E-12	418.851E-3	-17.3069E-3
1.53827E-3	80.2682E-12	428.274E-3	-21.9068E-3	82.6009E-12	410.150E-3	1.90190E-3
1.53327E-3	80.0876E-12	419.604E-3	-9.33310E-3	82.6264E-12	416.950E-3	-7.99147E-3
1.52826E-3	80.5188E-12	399.306E-3	-8.48771E-3	82.5302E-12	405.307E-3	-22.1899E-3
1.52326E-3	80.6288E-12	394.303E-3	-281.067E-6	82.1075E-12	385.911E-3	-15.7979E-3
1.51826E-3	80.5096E-12	399.621E-3	13.2472E-3	81.9510E-12	381.613E-3	-9.72204E-3
1.51326E-3	80.2789E-12	387.933E-3	13.7953E-3	80.9469E-12	375.490E-3	-7.17042E-3
1.50825E-3	80.6579E-12	381.111E-3	1.60120E-3	80.6761E-12	369.982E-3	3.33347E-3
1.50325E-3	81.0793E-12	375.936E-3	-10.5601E-3	80.2721E-12	384.680E-3	-5.77012E-3
1.49825E-3	81.1257E-12	367.377E-3	-16.4698E-3	79.8644E-12	382.251E-3	-23.5047E-3
1.49325E-3	80.6207E-12	380.302E-3	-21.3497E-3	79.3655E-12	366.681E-3	-20.9604E-3
1.48824E-3	80.9318E-12	406.901E-3	-19.3450E-3	79.2407E-12	377.494E-3	-21.0289E-3
1.48324E-3	81.7393E-12	423.217E-3	-9.53762E-3	79.2519E-12	381.712E-3	-18.5662E-3
1.47824E-3	81.2390E-12	422.055E-3	-17.1057E-3	78.9446E-12	375.033E-3	-7.59029E-3
1.47324E-3	80.0198E-12	403.649E-3	-27.5014E-3	79.1516E-12	375.493E-3	-12.0560E-3
1.46823E-3	79.6133E-12	387.621E-3	-13.2123E-3	79.4271E-12	367.464E-3	-24.2484E-3
1.46323E-3	79.1323E-12	387.242E-3	-3.06785E-3	79.8033E-12	368.072E-3	-14.8091E-3
1.45823E-3	79.2390E-12	366.666E-3	-17.5475E-3	79.9680E-12	387.627E-3	7.94798E-3
1.45323E-3	78.8501E-12	333.218E-3	-29.1488E-3	80.2176E-12	375.426E-3	1.67489E-3
1.44822E-3	77.5202E-12	338.789E-3	-28.3503E-3	80.0337E-12	328.716E-3	-14.2086E-3
1.44322E-3	77.1427E-12	362.327E-3	-25.8875E-3	79.8769E-12	324.778E-3	-12.6271E-3
1.43822E-3	76.7900E-12	363.510E-3	-12.9383E-3	79.7695E-12	351.438E-3	-13.0898E-3
1.43322E-3	76.9438E-12	348.823E-3	-876.360E-6	79.8130E-12	343.855E-3	-14.8498E-3
1.42821E-3	76.3703E-12	330.276E-3	-9.93810E-3	79.2716E-12	338.705E-3	-21.8925E-3
1.42321E-3	76.6045E-12	317.514E-3	-12.5809E-3	78.2131E-12	347.548E-3	-29.3705E-3
1.41821E-3	76.9041E-12	310.614E-3	143.066E-6	78.1636E-12	330.793E-3	-28.6837E-3
1.41321E-3	78.1247E-12	312.981E-3	1.34915E-3	77.5410E-12	317.382E-3	-30.1881E-3
1.40820E-3	77.6828E-12	331.812E-3	4.37093E-3	76.8918E-12	325.808E-3	-32.2034E-3
1.40320E-3	77.9253E-12	349.616E-3	7.10557E-3	76.4395E-12	319.578E-3	-26.8212E-3
1.39820E-3	78.7511E-12	350.612E-3	4.42083E-3	76.6523E-12	302.065E-3	-14.0304E-3
1.39320E-3	79.3152E-12	350.192E-3	9.05985E-3	76.5921E-12	298.059E-3	-20.9393E-3
1.38819E-3	79.4094E-12	344.380E-3	-1.12820E-3	76.7462E-12	301.477E-3	-40.5700E-3
1.38319E-3	78.9023E-12	329.358E-3	-19.5171E-3	76.5949E-12	317.953E-3	-26.1143E-3
1.37819E-3	78.9438E-12	321.642E-3	-19.6055E-3	76.4628E-12	336.105E-3	-9.13420E-3
1.37319E-3	79.4849E-12	318.476E-3	-17.1502E-3	76.8142E-12	323.724E-3	-17.9631E-3
1.36818E-3	79.5605E-12	315.543E-3	-20.2309E-3	77.6931E-12	303.630E-3	-16.1055E-3
1.36318E-3	78.5906E-12	302.948E-3	-15.1776E-3	77.7480E-12	297.921E-3	-7.36403E-3
1.35818E-3	77.3323E-12	286.777E-3	-13.3279E-3	77.8228E-12	283.727E-3	-15.9106E-3
1.35318E-3	77.4744E-12	289.614E-3	-19.6674E-3	77.7753E-12	271.667E-3	-13.6469E-3
1.34817E-3	77.1377E-12	302.553E-3	-14.9892E-3	77.5484E-12	288.919E-3	-125.105E-6
1.34317E-3	76.6498E-12	310.552E-3	-1.98990E-3	77.7983E-12	296.048E-3	-897.321E-6
1.33817E-3	75.4063E-12	301.349E-3	2.37120E-3	77.7113E-12	274.266E-3	-91.4831E-6
1.33317E-3	75.4766E-12	277.863E-3	-13.6517E-3	77.2880E-12	257.819E-3	-4.78359E-3
1.32816E-3	75.7319E-12	257.941E-3	-35.0922E-3	76.5050E-12	252.850E-3	-21.7965E-3
1.32316E-3	75.6033E-12	247.291E-3	-39.5598E-3	76.5954E-12	257.180E-3	-20.7924E-3
1.31816E-3	75.4271E-12	256.857E-3	-30.7495E-3	76.7365E-12	269.756E-3	-21.2368E-3
1.31316E-3	75.2238E-12	271.483E-3	-20.5905E-3	76.6726E-12	260.643E-3	-38.5095E-3
1.30815E-3	76.1347E-12	274.880E-3	-3.79667E-3	76.3621E-12	239.511E-3	-35.4442E-3
1.30315E-3	76.6822E-12	268.791E-3	769.034E-6	75.5728E-12	237.447E-3	-30.8881E-3
1.29815E-3	77.0083E-12	249.392E-3	-10.8538E-3	75.9029E-12	226.780E-3	-38.9253E-3
1.29315E-3	77.1176E-12	238.794E-3	-17.3007E-3	76.1415E-12	213.603E-3	-24.6457E-3
1.28814E-3	77.5278E-12	255.069E-3	-17.1764E-3	76.4274E-12	238.146E-3	-7.60200E-3
1.28314E-3	77.8541E-12	260.798E-3	-6.81474E-3	75.8781E-12	260.552E-3	-12.6305E-3
1.27814E-3	77.6398E-12	232.296E-3	-912.755E-6	75.9372E-12	238.947E-3	-15.2420E-3
1.27314E-3	77.1445E-12	211.701E-3	-7.67678E-3	76.6784E-12	216.315E-3	-13.5052E-3
1.26813E-3	77.2444E-12	219.131E-3	-12.9925E-3	77.2306E-12	208.619E-3	-24.3575E-3
1.26313E-3	77.1189E-12	225.335E-3	-12.6255E-3	76.5760E-12	197.319E-3	-34.8581E-3
1.25813E-3	76.4636E-12	226.210E-3	-15.7987E-3	76.0685E-12	202.403E-3	-32.1255E-3
1.25313E-3	75.9588E-12	219.724E-3	-13.8286E-3	76.4483E-12	211.966E-3	-28.4045E-3
1.24812E-3	75.2090E-12	194.362E-3	-4.86450E-3	76.3396E-12	205.953E-3	-20.0472E-3
1.24312E-3	74.8432E-12	177.271E-3	-6.96993E-3	76.2424E-12	198.272E-3	-4.16091E-3
1.23812E-3	74.5164E-12	195.399E-3	-13.4233E-3	75.9538E-12	188.185E-3	-3.66064E-3
1.23312E-3	73.8383E-12	220.113E-3	-9.45076E-3	75.4074E-12	167.729E-3	-11.3068E-3
1.22811E-3	73.6874E-12	219.057E-3	-11.7907E-3	75.4421E-12	160.982E-3	-12.1078E-3
1.22311E-3	74.1606E-12	206.826E-3	-21.6321E-3	75.1632E-12	182.195E-3	-24.6422E-3
1.21811E-3	74.1904E-12	196.924E-3	-5.31084E-3	75.4538E-12	185.621E-3	-33.1019E-3
1.21311E-3	74.4802E-12	193.220E-3	7.87457E-3	74.5999E-12	175.873E-3	-19.8001E-3
1.20810E-3	74.0684E-12	205.935E-3	-6.92392E-3	74.5540E-12	184.523E-3	-14.2404E-3
1.20310E-3	74.1275E-12	207.906E-3	-26.4757E-3	74.2456E-12	184.109E-3	-15.7418E-3
1.19810E-3	74.4101E-12	185.156E-3	-50.5445E-3	74.7129E-12	171.115E-3	-5.40212E-3
1.19310E-3	74.3834E-12	174.700E-3	-54.4886E-3	74.6689E-12	156.169E-3	-10.8062E-3
1.18809E-3	74.6120E-12	179.873E-3	-23.4202E-3	74.6480E-12	142.155E-3	-30.3052E-3
1.18309E-3	74.7577E-12	178.741E-3	-13.4774E-3	74.6322E-12	148.846E-3	-27.0140E-3
1.17809E-3	75.2475E-12	168.862E-3	-39.6480E-3	74.5912E-12	169.219E-3	-24.8636E-3
1.17309E-3	75.3814E-12	161.814E-3	-49.1592E-3	74.3897E-12	167.618E-3	-46.9048E-3
1.16808E-3	75.1695E-12	171.867E-3	-41.8405E-3	73.9640E-12	154.000E-3	-50.1586E-3
1.16308E-3	74.7855E-12	190.890E-3	-28.6651E-3	74.0094E-12	155.125E-3	-33.3324E-3
1.15808E-3	75.3959E-12	186.116E-3	-9.66253E-3	73.6787E-12	150.002E-3	-26.4431E-3
1.15308E-3	75.1642E-12	158.146E-3	-12.7363E-3	73.9360E-12	142.760E-3	-12.3507E-3
1.14807E-3	74.6475E-12	146.302E-3	-24.1541E-3	74.1560E-12	156.554E-3	-7.31392E-3
1.14307E-3	74.1543E-12	152.554E-3	-19.1314E-3	73.8808E-12	162.210E-3	-25.1809E-3
1.13807E-3	73.9340E-12	147.264E-3	-13.0668E-3	73.3471E-12	172.088E-3	-17.2426E-3
1.13307E-3	73.7573E-12	145.648E-3	-15.6980E-3	73.6478E-12	203.921E-3	6.66455E-3
1.12806E-3	73.2732E-12	156.472E-3	-22.5376E-3	74.0997E-12	196.958E-3	3.40938E-3
1.12306E-3	72.8573E-12	166.883E-3	-25.8645E-3	74.0334E-12	154.360E-3	2.35124E-3
1.11806E-3	72.4515E-12	174.894E-3	-21.0419E-3	73.7362E-12	135.733E-3	10.6791E-3
1.11306E-3	72.0991E-12	164.628E-3	-27.2897E-3	73.3732E-12	145.835E-3	-9.04504E-3
1.10805E-3	72.6697E-12	150.489E-3	-50.4048E-3	74.0198E-12	145.985E-3	-33.8119E-3
1.10305E-3	72.5026E-12	141.572E-3	-56.3746E-3	73.7269E-12	139.372E-3	-28.8539E-3
1.09805E-3	72.0496E-12	132.227E-3	-37.3353E-3	73.7431E-12	143.251E-3	-24.9216E-3
1.09305E-3	72.2693E-12	139.747E-3	-22.0572E-3	73.5249E-12	132.654E-3	-28.5590E-3
1.08804E-3	72.7122E-12	153.147E-3	-14.5734E-3	73.8311E-12	113.924E-3	-22.5535E-3
1.08304E-3	73.3140E-12	159.076E-3	-7.19366E-3	73.1174E-12	110.538E-3	-20.7932E-3
1.07804E-3	73.4998E-12	152.835E-3	-10.3665E-3	72.4469E-12	123.805E-3	-23.6523E-3
1.07304E-3	74.1043E-12	146.066E-3	-27.3074E-3	72.5432E-12	155.098E-3	-11.8721E-3
1.06803E-3	74.2609E-12	157.028E-3	-30.8717E-3	72.8511E-12	177.351E-3	-3.65024E-3
1.06303E-3	74.7450E-12	156.952E-3	-9.51003E-3	73.0128E-12	172.054E-3	-13.6204E-3
1.05803E-3	74.7883E-12	156.106E-3	-11.2457E-3	72.6887E-12	170.174E-3	-12.4717E-3
1.05303E-3	74.6157E-12	164.743E-3	-36.1519E-3	72.8760E-12	180.215E-3	-21.1900E-3
1.04802E-3	74.4217E-12	162.098E-3	-36.8649E-3	72.8019E-12	182.084E-3	-34.3417E-3
1.04302E-3	74.1743E-12	165.263E-3	-22.8403E-3	73.3386E-12	183.890E-3	-11.5957E-3
1.03802E-3	74.5501E-12	172.426E-3	-10.7695E-3	73.2161E-12	189.652E-3	-4.07768E-3
1.03302E-3	73.6498E-12	176.832E-3	-1.18365E-3	73.2163E-12	176.733E-3	-24.7690E-3
1.02801E-3	73.0944E-12	178.684E-3	-5.34003E-3	73.2891E-12	173.529E-3	-15.5983E-3
1.02301E-3	71.7283E-12	173.126E-3	-19.8169E-3	73.7110E-12	189.498E-3	-10.8926E-3
1.01801E-3	71.8402E-12	156.994E-3	-27.2793E-3	73.4450E-12	184.077E-3	-29.0998E-3
1.01301E-3	71.3790E-12	147.743E-3	-30.9334E-3	73.0724E-12	186.677E-3	-21.2633E-3
1.00800E-3	71.1001E-12	167.159E-3	-37.7670E-3	73.0213E-12	205.168E-3	-15.0923E-3
1.00300E-3	70.6119E-12	190.636E-3	-33.7857E-3	73.0297E-12	197.343E-3	-8.05960E-3
997.999E-6	70.3562E-12	187.520E-3	-18.9202E-3	72.7553E-12	199.226E-3	16.9654E-3
992.997E-6	70.6112E-12	169.984E-3	-8.73044E-3	72.3390E-12	229.855E-3	10.8962E-3
987.994E-6	71.0884E-12	173.725E-3	-7.10340E-3	71.8953E-12	250.314E-3	-15.4462E-3
982.991E-6	71.4924E-12	203.549E-3	-17.6541E-3	71.6635E-12	257.957E-3	-20.8019E-3
977.989E-6	71.4200E-12	227.203E-3	-33.9190E-3	71.6768E-12	268.623E-3	-17.7912E-3
972.986E-6	71.8942E-12	226.443E-3	-48.9594E-3	71.6319E-12	267.824E-3	-26.6132E-3
967.984E-6	72.7023E-12	222.212E-3	-49.2089E-3	70.9310E-12	248.014E-3	-20.1593E-3
962.981E-6	73.0737E-12	224.721E-3	-34.7041E-3	70.8194E-12	255.262E-3	-3.78698E-3
957.979E-6	73.2444E-12	235.213E-3	-21.5853E-3	71.4083E-12	281.563E-3	-26.1207E-3
952.976E-6	73.2476E-12	254.832E-3	-13.3115E-3	71.5301E-12	287.178E-3	-46.3481E-3
947.974E-6	73.4356E-12	264.614E-3	-3.34492E-3	71.4152E-12	290.105E-3	-32.5806E-3
942.971E-6	73.0159E-12	273.433E-3	-1.12573E-3	71.0699E-12	298.647E-3	-31.3574E-3
937.969E-6	72.7472E-12	282.852E-3	-13.2912E-3	71.9778E-12	308.939E-3	-15.1144E-3
932.966E-6	71.7378E-12	285.856E-3	-27.4367E-3	72.3317E-12	329.791E-3	8.01916E-3
927.964E-6	71.1624E-12	297.477E-3	-37.3183E-3	71.9704E-12	348.519E-3	-11.4448E-3
922.961E-6	70.8145E-12	315.490E-3	-23.3780E-3	71.4112E-12	352.893E-3	-16.7092E-3
917.959E-6	70.2143E-12	333.454E-3	-4.16733E-3	71.5364E-12	367.712E-3	1.05977E-3
912.956E-6	69.1731E-12	347.485E-3	-11.5937E-3	71.9454E-12	379.474E-3	-4.20479E-3
907.954E-6	69.1575E-12	354.433E-3	-21.3357E-3	71.1846E-12	368.278E-3	-3.05001E-3
902.951E-6	68.9834E-12	363.202E-3	-24.6114E-3	70.9553E-12	379.653E-3	8.02579E-3
897.949E-6	68.5109E-12	371.382E-3	-29.8173E-3	70.6757E-12	409.237E-3	-14.4978E-3
892.946E-6	68.2242E-12	375.755E-3	-28.0826E-3	70.5865E-12	422.410E-3	-35.4937E-3
887.944E-6	68.4340E-12	378.392E-3	-21.7542E-3	69.9344E-12	451.748E-3	-14.9251E-3
882.941E-6	68.7000E-12	379.363E-3	-22.4071E-3	69.8479E-12	495.991E-3	-6.09322E-3
877.939E-6	69.2074E-12	391.434E-3	-32.6349E-3	69.1538E-12	508.800E-3	-15.6967E-3
872.936E-6	69.4063E-12	418.486E-3	-45.7209E-3	69.0366E-12	514.897E-3	-11.3437E-3
867.934E-6	69.6912E-12	447.985E-3	-41.9877E-3	69.3873E-12	528.259E-3	-19.2368E-3
862.931E-6	70.2130E-12	468.169E-3	-25.5166E-3	69.2880E-12	528.900E-3	-17.6667E-3
857.929E-6	70.4477E-12	482.650E-3	-13.0968E-3	68.9211E-12	537.254E-3	15.1141E-3
852.926E-6	70.3217E-12	495.988E-3	-10.8534E-3	68.9758E-12	557.490E-3	10.4350E-3
847.924E-6	70.5242E-12	508.457E-3	-23.7589E-3	69.3464E-12	571.917E-3	-19.6237E-3
842.921E-6	69.9305E-12	530.000E-3	-30.5704E-3	69.2166E-12	597.785E-3	-19.2668E-3
837.919E-6	69.1965E-12	549.680E-3	-19.1318E-3	68.4213E-12	636.167E-3	-21.1572E-3
832.916E-6	68.7771E-12	555.086E-3	-904.559E-6	68.6017E-12	658.803E-3	-24.3540E-3
827.914E-6	68.3882E-12	563.406E-3	15.8391E-3	68.7625E-12	683.912E-3	-12.3595E-3
822.911E-6	67.6985E-12	581.830E-3	18.3409E-3	68.3992E-12	720.324E-3	-14.8756E-3
817.909E-6	66.8293E-12	608.411E-3	3.05951E-3	66.9380E-12	732.207E-3	-27.0321E-3
812.906E-6	66.2599E-12	632.191E-3	-14.0142E-3	67.1729E-12	742.719E-3	-23.9032E-3
807.904E-6	65.8462E-12	644.982E-3	-25.5897E-3	66.9393E-12	785.505E-3	-20.5306E-3
802.901E-6	65.8075E-12	665.457E-3	-28.7479E-3	66.4495E-12	813.438E-3	-26.0648E-3
797.899E-6	65.4640E-12	691.985E-3	-22.2410E-3	65.6749E-12	823.177E-3	-13.5234E-3
792.896E-6	64.8438E-12	717.571E-3	-19.0233E-3	65.5458E-12	859.344E-3	6.06655E-3
787.894E-6	64.6795E-12	745.847E-3	-16.2260E-3	65.0058E-12	892.455E-3	1.29123E-3
782.891E-6	64.9265E-12	769.335E-3	-18.2894E-3	64.5377E-12	907.056E-3	-8.11571E-3
777.889E-6	65.5238E-12	802.369E-3	-27.4737E-3	64.3706E-12	932.104E-3	-12.6164E-3
772.886E-6	65.0481E-12	846.459E-3	-30.0346E-3	64.2177E-12	949.554E-3	-20.2758E-3
767.884E-6	65.0600E-12	878.883E-3	-27.0298E-3	64.0438E-12	966.666E-3	-15.3955E-3
762.881E-6	65.2677E-12	898.483E-3	-5.51433E-3	63.2409E-12	1.00573E+0	-14.6047E-3
757.879E-6	65.2992E-12	910.740E-3	20.1269E-3	63.4349E-12	1.02828E+0	-25.7525E-3
752.876E-6	65.0706E-12	934.961E-3	12.6644E-3	63.6801E-12	1.04619E+0	-14.0910E-3
747.874E-6	64.5467E-12	977.826E-3	1.49635E-3	63.3990E-12	1.09764E+0	-4.82356E-3
742.871E-6	64.1572E-12	1.02053E+0	-3.16697E-3	63.0139E-12	1.14346E+0	-25.2720E-3
737.869E-6	63.8461E-12	1.05433E+0	-15.4977E-3	62.6334E-12	1.17302E+0	-29.4754E-3
732.866E-6	63.5740E-12	1.08166E+0	-16.8586E-3	62.6016E-12	1.21922E+0	-20.7852E-3
727.864E-6	62.6181E-12	1.11652E+0	-14.4865E-3	62.0104E-12	1.25643E+0	-28.1207E-3
722.861E-6	62.0212E-12	1.15561E+0	-10.4711E-3	61.4230E-12	1.27166E+0	-17.5546E-3
717.859E-6	61.0993E-12	1.18365E+0	-1.67375E-3	61.1467E-12	1.31064E+0	5.72416E-3
712.856E-6	61.0419E-12	1.20309E+0	4.39379E-3	60.6456E-12	1.34841E+0	6.19734E-3
707.854E-6	60.3853E-12	1.21622E+0	5.48355E-3	60.5288E-12	1.35030E+0	6.44839E-3
702.851E-6	59.4809E-12	1.23360E+0	-2.17061E-3	60.1543E-12	1.38332E+0	11.4599E-3
697.849E-6	59.0600E-12	1.26715E+0	-1.54893E-3	59.5685E-12	1.43709E+0	-6.69304E-3
692.846E-6	58.7121E-12	1.30524E+0	-5.25733E-3	59.3230E-12	1.45437E+0	-24.5071E-3
687.844E-6	58.2069E-12	1.34061E+0	-20.3718E-3	59.0813E-12	1.47187E+0	-13.0151E-3
682.841E-6	57.4907E-12	1.37361E+0	-20.6663E-3	58.2431E-12	1.50817E+0	-1.12087E-3
677.839E-6	56.7847E-12	1.39547E+0	-13.0071E-3	57.8121E-12	1.53547E+0	-4.91358E-3
672.836E-6	56.2952E-12	1.42209E+0	-22.5633E-3	57.5129E-12	1.56562E+0	-4.19107E-3
667.834E-6	56.3557E-12	1.45945E+0	-27.2246E-3	57.1452E-12	1.61211E+0	-8.63341E-3
662.831E-6	55.8265E-12	1.48189E+0	-10.3167E-3	56.2409E-12	1.63423E+0	-12.1241E-3
657.829E-6	55.2881E-12	1.50585E+0	-4.18227E-3	55.5711E-12	1.64127E+0	-2.42212E-3
652.826E-6	54.9191E-12	1.53630E+0	-5.53685E-3	55.2816E-12	1.66854E+0	-11.7845E-3
647.824E-6	54.8313E-12	1.55421E+0	-2.72419E-3	54.7048E-12	1.69795E+0	-20.9721E-3
642.821E-6	54.7863E-12	1.58522E+0	-10.9264E-3	53.5867E-12	1.72549E+0	2.04101E-3
637.819E-6	54.2072E-12	1.63369E+0	-24.0332E-3	52.8316E-12	1.75830E+0	8.23967E-3
632.816E-6	53.8452E-12	1.67310E+0	-27.3418E-3	52.6313E-12	1.77615E+0	-14.4250E-3
627.814E-6	53.3812E-12	1.70445E+0	-25.0630E-3	52.3277E-12	1.79728E+0	-19.6357E-3
622.811E-6	52.7524E-12	1.73678E+0	-22.5386E-3	51.2378E-12	1.83833E+0	-15.3288E-3
617.809E-6	51.8259E-12	1.78144E+0	-16.0774E-3	50.6349E-12	1.86439E+0	-25.3305E-3
612.806E-6	51.2592E-12	1.82854E+0	-7.61650E-3	50.5523E-12	1.87507E+0	-29.6335E-3
607.804E-6	50.4252E-12	1.84347E+0	-7.40050E-3	50.0074E-12	1.89446E+0	-29.9058E-3
602.801E-6	49.4290E-12	1.83858E+0	-13.8403E-3	49.3045E-12	1.91713E+0	-34.2287E-3
597.799E-6	48.7243E-12	1.84406E+0	-13.7359E-3	48.6049E-12	1.94890E+0	-12.3962E-3
592.796E-6	47.9186E-12	1.85761E+0	-11.5251E-3	48.3461E-12	1.99795E+0	10.5408E-3
587.794E-6	47.1392E-12	1.88297E+0	-15.7299E-3	47.8475E-12	2.01820E+0	-11.4042E-3
582.791E-6	45.8225E-12	1.90711E+0	-21.5280E-3	48.0366E-12	2.00109E+0	-22.3511E-3
577.789E-6	45.2766E-12	1.90328E+0	-18.8083E-3	47.1398E-12	2.00646E+0	-5.23731E-3
572.786E-6	44.7523E-12	1.89428E+0	-6.15468E-3	45.9387E-12	2.03118E+0	-8.25058E-3
567.784E-6	44.5037E-12	1.90920E+0	1.11775E-3	44.9745E-12	2.04298E+0	-10.2420E-3
562.781E-6	43.4918E-12	1.94179E+0	1.91301E-3	44.5791E-12	2.05208E+0	4.81233E-3
557.779E-6	42.4374E-12	1.96824E+0	-3.18860E-3	43.9420E-12	2.05627E+0	62.9883E-6
552.776E-6	42.3803E-12	1.96770E+0	-13.4280E-3	42.9195E-12	2.05504E+0	-19.8820E-3
547.774E-6	42.3889E-12	1.97649E+0	-16.1450E-3	41.8184E-12	2.06128E+0	-18.6073E-3
542.771E-6	41.6802E-12	2.01831E+0	-12.6292E-3	41.1609E-12	2.05927E+0	-18.3321E-3
537.769E-6	40.6496E-12	2.05587E+0	-12.2114E-3	40.7591E-12	2.05134E+0	-28.6002E-3
532.766E-6	40.4629E-12	2.05648E+0	-17.4242E-3	40.0043E-12	2.06323E+0	-27.0472E-3
527.764E-6	40.2986E-12	2.04679E+0	-18.4265E-3	39.1155E-12	2.07841E+0	-21.6540E-3
522.761E-6	39.6582E-12	2.07596E+0	-14.4273E-3	38.2459E-12	2.08503E+0	-14.9300E-3
517.759E-6	38.5912E-12	2.12324E+0	-24.0610E-3	37.8651E-12	2.10536E+0	-12.7730E-3
512.756E-6	37.7141E-12	2.13683E+0	-40.8990E-3	37.4498E-12	2.13071E+0	-21.5680E-3
507.754E-6	37.1772E-12	2.12612E+0	-46.6756E-3	36.9183E-12	2.12894E+0	-16.1184E-3
502.751E-6	36.2101E-12	2.12378E+0	-42.5448E-3	36.1396E-12	2.11574E+0	-1.73535E-3
497.749E-6	34.9754E-12	2.12332E+0	-34.2130E-3	35.5047E-12	2.11852E+0	-9.58107E-3
492.746E-6	33.9046E-12	2.12331E+0	-26.9050E-3	34.8002E-12	2.10993E+0	-15.2615E-3
487.744E-6	33.3743E-12	2.11345E+0	-15.0491E-3	34.3111E-12	2.09663E+0	205.174E-6
482.741E-6	32.6298E-12	2.07876E+0	-5.73425E-3	33.4610E-12	2.09884E+0	-3.57962E-3
477.739E-6	31.8210E-12	2.05097E+0	-4.86968E-3	32.5786E-12	2.07619E+0	-22.6293E-3
472.736E-6	30.9304E-12	2.03597E+0	-3.36736E-3	31.7720E-12	2.04118E+0	-20.7781E-3
467.734E-6	30.1778E-12	2.02463E+0	-3.48002E-3	31.1353E-12	2.02919E+0	-15.4297E-3
462.731E-6	29.8894E-12	2.02480E+0	-12.7428E-3	30.3046E-12	2.01583E+0	-24.1864E-3
457.729E-6	29.3785E-12	2.01983E+0	-15.7485E-3	29.3735E-12	1.99413E+0	-25.8372E-3
452.726E-6	28.9457E-12	2.01504E+0	-11.4141E-3	28.6576E-12	1.98394E+0	-26.9752E-3
447.724E-6	28.3703E-12	2.02262E+0	-20.2202E-3	28.0298E-12	1.97399E+0	-38.8200E-3
442.721E-6	28.0018E-12	2.03286E+0	-22.3578E-3	27.4089E-12	1.96155E+0	-30.9370E-3
437.719E-6	27.7663E-12	2.03947E+0	-17.3819E-3	26.6768E-12	1.95780E+0	-13.0835E-3
432.716E-6	27.3412E-12	2.04757E+0	-25.7068E-3	26.1599E-12	1.94013E+0	-17.9049E-3
427.714E-6	26.5831E-12	2.05394E+0	-28.3059E-3	25.3076E-12	1.91125E+0	-18.6729E-3
422.711E-6	25.8249E-12	2.04776E+0	-24.4437E-3	24.6597E-12	1.89909E+0	-14.4819E-3
417.709E-6	25.2723E-12	2.04085E+0	-26.0526E-3	24.2377E-12	1.87797E+0	-22.8273E-3
412.706E-6	24.6604E-12	2.03904E+0	-20.1060E-3	23.6466E-12	1.84473E+0	-15.1445E-3
407.704E-6	23.8792E-12	2.01867E+0	-9.03620E-3	22.9493E-12	1.83614E+0	-623.414E-6
402.701E-6	22.8001E-12	1.97825E+0	-19.8825E-3	22.1957E-12	1.81996E+0	-12.0478E-3
397.699E-6	22.2090E-12	1.94375E+0	-38.8716E-3	21.8296E-12	1.77656E+0	-24.1517E-3
392.696E-6	21.6139E-12	1.91523E+0	-26.3918E-3	21.1543E-12	1.74592E+0	-15.6827E-3
387.694E-6	20.7281E-12	1.88453E+0	-7.55002E-3	20.4211E-12	1.72322E+0	-16.9040E-3
382.691E-6	19.8701E-12	1.84437E+0	-8.78898E-3	19.6745E-12	1.68721E+0	-26.5959E-3
377.689E-6	19.3513E-12	1.80014E+0	-16.3719E-3	19.2717E-12	1.65784E+0	-26.0005E-3
372.686E-6	18.9513E-12	1.76285E+0	-23.9059E-3	18.7648E-12	1.63955E+0	-27.7475E-3
367.684E-6	18.2814E-12	1.72865E+0	-24.4429E-3	18.0399E-12	1.61043E+0	-21.8414E-3
362.681E-6	17.6996E-12	1.70430E+0	-19.2382E-3	17.4409E-12	1.58312E+0	-16.9182E-3
357.679E-6	17.3708E-12	1.68277E+0	-19.3989E-3	16.9862E-12	1.55557E+0	-34.8844E-3
352.676E-6	16.9740E-12	1.65574E+0	-23.0330E-3	16.6449E-12	1.51078E+0	-41.2671E-3
347.674E-6	16.3746E-12	1.63483E+0	-18.8908E-3	15.9899E-12	1.48605E+0	-27.2518E-3
342.671E-6	15.7724E-12	1.62165E+0	-14.3214E-3	15.5384E-12	1.48384E+0	-24.7453E-3
337.669E-6	15.4780E-12	1.60229E+0	-13.0985E-3	15.1547E-12	1.45177E+0	-27.7003E-3
332.666E-6	15.0926E-12	1.57070E+0	-18.2762E-3	14.8213E-12	1.40241E+0	-22.2290E-3
327.664E-6	14.5106E-12	1.54499E+0	-32.0765E-3	14.3474E-12	1.36695E+0	-27.3413E-3
322.661E-6	14.0717E-12	1.51818E+0	-42.6646E-3	13.7610E-12	1.33437E+0	-40.1568E-3
317.659E-6	13.4971E-12	1.47779E+0	-38.1296E-3	13.3275E-12	1.30705E+0	-35.2257E-3
312.656E-6	13.0201E-12	1.44211E+0	-26.2542E-3	12.8274E-12	1.27849E+0	-27.0778E-3
307.654E-6	12.4681E-12	1.41368E+0	-21.4176E-3	12.4468E-12	1.23261E+0	-26.6784E-3
302.651E-6	11.9999E-12	1.37406E+0	-22.2362E-3	11.9763E-12	1.19205E+0	-21.4031E-3
297.649E-6	11.5879E-12	1.33222E+0	-24.1580E-3	11.5566E-12	1.17187E+0	-23.8448E-3
292.646E-6	11.1045E-12	1.30323E+0	-14.5857E-3	11.0668E-12	1.14175E+0	-24.7232E-3
287.644E-6	10.6187E-12	1.25958E+0	-2.91707E-3	10.7083E-12	1.10961E+0	-6.88439E-3
282.641E-6	10.3043E-12	1.21220E+0	-7.95142E-3	10.3621E-12	1.09479E+0	2.28545E-3
277.639E-6	9.96723E-12	1.19174E+0	-12.6216E-3	9.92268E-12	1.06441E+0	-8.11910E-3
272.636E-6	9.54510E-12	1.16690E+0	-9.12032E-3	9.59594E-12	1.01425E+0	-16.0702E-3
267.634E-6	9.07614E-12	1.12805E+0	-15.3998E-3	9.18861E-12	983.217E-3	-19.5282E-3
262.631E-6	8.82612E-12	1.09479E+0	-23.0347E-3	8.93186E-12	966.226E-3	-20.9726E-3
257.629E-6	8.53660E-12	1.06406E+0	-24.3412E-3	8.61033E-12	950.724E-3	-17.9525E-3
252.626E-6	8.15074E-12	1.03596E+0	-27.5651E-3	8.31654E-12	944.950E-3	-16.2954E-3
247.624E-6	7.91647E-12	1.00437E+0	-17.0118E-3	8.04539E-12	915.014E-3	-11.5108E-3
242.621E-6	7.69010E-12	967.155E-3	1.06492E-3	7.75522E-12	857.869E-3	-737.165E-6
237.619E-6	7.54362E-12	933.091E-3	16.3924E-6	7.53993E-12	824.307E-3	1.46538E-3
232.616E-6	7.15293E-12	908.685E-3	-15.2521E-3	7.19564E-12	810.593E-3	-13.6650E-3
227.614E-6	6.69896E-12	892.660E-3	-25.1610E-3	6.80430E-12	777.869E-3	-20.7654E-3
222.611E-6	6.55434E-12	863.500E-3	-26.1468E-3	6.55865E-12	741.907E-3	-12.3669E-3
217.609E-6	6.31776E-12	828.458E-3	-30.8333E-3	6.24747E-12	717.280E-3	-7.06342E-3
212.606E-6	5.99231E-12	806.389E-3	-31.1025E-3	5.93096E-12	688.410E-3	-1.51058E-3
207.604E-6	5.74246E-12	780.965E-3	-27.6709E-3	5.69521E-12	666.308E-3	-18.5984E-6
202.601E-6	5.52144E-12	751.706E-3	-26.8785E-3	5.44009E-12	643.323E-3	-14.8779E-3
197.599E-6	5.29852E-12	725.130E-3	-19.3431E-3	5.23125E-12	610.646E-3	-23.1061E-3
192.596E-6	5.04017E-12	688.662E-3	-19.2175E-3	4.96641E-12	597.607E-3	-18.9135E-3
187.594E-6	4.77854E-12	654.363E-3	-24.7381E-3	4.69003E-12	590.593E-3	-18.7267E-3
182.591E-6	4.60496E-12	635.567E-3	-23.2437E-3	4.53692E-12	563.374E-3	-14.2477E-3
177.589E-6	4.39266E-12	624.366E-3	-31.4324E-3	4.37006E-12	537.499E-3	-9.66726E-3
172.586E-6	4.11769E-12	615.784E-3	-41.7539E-3	4.13256E-12	520.425E-3	-14.0374E-3
167.584E-6	3.90759E-12	594.432E-3	-32.9194E-3	3.87869E-12	498.376E-3	-12.4784E-3
162.581E-6	3.77919E-12	559.842E-3	-21.1735E-3	3.74263E-12	478.002E-3	-2.77368E-3
157.579E-6	3.60476E-12	542.643E-3	-19.9389E-3	3.65261E-12	463.558E-3	-11.0975E-3
152.576E-6	3.35976E-12	534.804E-3	-10.9264E-3	3.45922E-12	437.003E-3	-21.7821E-3
147.574E-6	3.14000E-12	506.264E-3	-2.01926E-3	3.21720E-12	421.313E-3	-9.23943E-3
142.571E-6	3.12487E-12	472.390E-3	-18.7889E-3	3.06900E-12	427.550E-3	-6.44626E-3
137.569E-6	2.96632E-12	456.523E-3	-32.9843E-3	2.98316E-12	416.073E-3	-12.9481E-3
132.566E-6	2.76685E-12	452.602E-3	-22.9482E-3	2.78088E-12	395.108E-3	2.63802E-3
127.564E-6	2.63823E-12	435.250E-3	-13.3190E-3	2.60737E-12	388.113E-3	2.20244E-3
122.561E-6	2.56956E-12	402.450E-3	-18.9352E-3	2.43014E-12	375.928E-3	-20.6344E-3
117.559E-6	2.39765E-12	386.799E-3	-21.9372E-3	2.38607E-12	353.735E-3	-18.1171E-3
112.556E-6	2.25466E-12	392.476E-3	-11.3102E-3	2.26795E-12	340.570E-3	-6.69145E-3
107.554E-6	2.11548E-12	391.030E-3	2.36673E-3	2.05464E-12	327.853E-3	-18.5397E-3
102.551E-6	2.07415E-12	376.560E-3	4.39901E-3	1.93763E-12	321.020E-3	-24.9080E-3
97.5488E-6	1.92918E-12	364.864E-3	-11.3791E-3	1.86620E-12	326.482E-3	-14.9150E-3
92.5463E-6	1.77549E-12	359.905E-3	-27.1407E-3	1.76107E-12	314.831E-3	-20.9922E-3
87.5438E-6	1.69595E-12	349.627E-3	-31.3743E-3	1.67751E-12	293.563E-3	-19.1231E-3
82.5413E-6	1.57575E-12	336.474E-3	-23.0140E-3	1.51060E-12	296.520E-3	-4.57848E-3
77.5388E-6	1.46061E-12	331.131E-3	-18.0475E-3	1.43573E-12	295.686E-3	-2.31108E-3
72.5363E-6	1.30761E-12	324.158E-3	-27.5425E-3	1.32153E-12	275.471E-3	194.772E-6
67.5338E-6	1.25849E-12	303.313E-3	-31.3648E-3	1.20301E-12	275.877E-3	-4.30202E-3
62.5313E-6	1.18129E-12	284.800E-3	-20.9183E-3	1.08001E-12	288.022E-3	-19.0922E-3
57.5288E-6	993.947E-15	283.548E-3	-13.0873E-3	962.836E-15	295.821E-3	-17.5214E-3
52.5263E-6	892.271E-15	282.123E-3	-21.8885E-3	875.137E-15	302.792E-3	-7.13174E-3
47.5238E-6	821.365E-15	273.104E-3	-35.0623E-3	782.922E-15	290.272E-3	-12.3376E-3
42.5213E-6	789.025E-15	264.733E-3	-36.3040E-3	772.555E-15	268.077E-3	-20.0871E-3
37.5188E-6	641.469E-15	268.050E-3	-31.0572E-3	676.878E-15	267.517E-3	-20.3316E-3
32.5163E-6	483.989E-15	275.707E-3	-28.1228E-3	477.598E-15	270.097E-3	-28.9222E-3
27.5138E-6	479.839E-15	271.999E-3	-21.5299E-3	361.457E-15	262.359E-3	-33.7982E-3
22.5113E-6	384.092E-15	265.369E-3	-17.0405E-3	386.560E-15	274.497E-3	-16.1869E-3
17.5088E-6	249.728E-15	267.475E-3	-27.8786E-3	219.053E-15	282.792E-3	-11.8753E-3
12.5063E-6	138.678E-15	276.289E-3	-35.9984E-3	54.1971E-15	265.611E-3	-18.1308E-3
7.50375E-6	76.9894E-15	284.062E-3	-23.8895E-3	21.2207E-15	271.847E-3	-13.3341E-3
2.50125E-6	-11.1628E-15	289.136E-3	-5.52475E-3	-23.6750E-15	294.080E-3	-23.4813E-3
-2.50125E-6	-163.820E-15	290.409E-3	6.21506E-3	-121.820E-15	291.458E-3	-31.9693E-3
-7.50375E-6	-288.262E-15	283.647E-3	4.99098E-3	-267.153E-15	296.906E-3	-13.8405E-3
-12.5063E-6	-325.572E-15	275.006E-3	-1.78741E-3	-409.757E-15	317.740E-3	-6.03854E-3
-17.5088E-6	-415.050E-15	275.244E-3	2.67239E-3	-437.275E-15	318.988E-3	-14.3678E-3
-22.5113E-6	-553.417E-15	277.742E-3	1.55931E-3	-586.053E-15	320.998E-3	-10.4273E-3
-27.5138E-6	-659.888E-15	278.286E-3	-11.8280E-3	-686.970E-15	329.751E-3	-8.16747E-3
-32.5163E-6	-727.628E-15	288.850E-3	-21.1303E-3	-797.330E-15	323.350E-3	-11.0184E-3
-37.5188E-6	-829.836E-15	302.126E-3	-27.9443E-3	-873.624E-15	336.106E-3	758.031E-6
-42.5213E-6	-953.877E-15	308.691E-3	-26.4777E-3	-999.409E-15	361.556E-3	7.27345E-3
-47.5238E-6	-1.06709E-12	308.926E-3	-20.5739E-3	-1.14516E-12	363.291E-3	-8.24051E-3
-52.5263E-6	-1.18305E-12	308.156E-3	-17.1435E-3	-1.26857E-12	369.853E-3	-24.0009E-3
-57.5288E-6	-1.32771E-12	323.104E-3	-17.3037E-3	-1.35988E-12	392.489E-3	-35.2049E-3
-62.5313E-6	-1.50682E-12	337.988E-3	-14.6307E-3	-1.49155E-12	412.404E-3	-38.0683E-3
-67.5338E-6	-1.54996E-12	340.425E-3	-3.62653E-3	-1.65969E-12	429.241E-3	-20.4831E-3
-72.5363E-6	-1.70816E-12	363.600E-3	-5.62346E-6	-1.72894E-12	441.689E-3	-6.97580E-3
-77.5388E-6	-1.88374E-12	402.092E-3	-7.80505E-3	-1.91781E-12	436.222E-3	-17.3826E-3
-82.5413E-6	-2.07644E-12	416.315E-3	-21.7590E-3	-2.08360E-12	432.350E-3	-23.8844E-3
-87.5438E-6	-2.16445E-12	411.544E-3	-28.6809E-3	-2.24885E-12	457.812E-3	-16.3466E-3
-92.5463E-6	-2.28039E-12	418.703E-3	-19.6911E-3	-2.29873E-12	493.648E-3	-12.1189E-3
-97.5488E-6	-2.52539E-12	440.221E-3	-9.86146E-3	-2.48591E-12	523.175E-3	-4.48842E-3
-102.551E-6	-2.74407E-12	461.662E-3	-13.7955E-3	-2.77076E-12	552.228E-3	-5.74038E-3
-107.554E-6	-2.86154E-12	479.070E-3	-25.3735E-3	-2.85911E-12	568.199E-3	-19.3031E-3
-112.556E-6	-2.97464E-12	496.278E-3	-24.9675E-3	-2.98233E-12	577.577E-3	-17.4542E-3
-117.559E-6	-3.18564E-12	503.830E-3	-18.9286E-3	-3.21873E-12	607.752E-3	-7.52442E-3
-122.561E-6	-3.39493E-12	508.757E-3	-17.5747E-3	-3.50161E-12	636.454E-3	-12.1547E-3
-127.564E-6	-3.57623E-12	534.635E-3	-10.6641E-3	-3.65813E-12	656.291E-3	-16.5926E-3
-132.566E-6	-3.70450E-12	568.938E-3	-2.48629E-3	-3.83602E-12	699.938E-3	-16.3900E-3
-137.569E-6	-3.99795E-12	595.590E-3	-6.32197E-3	-4.05901E-12	736.989E-3	-24.7060E-3
-142.571E-6	-4.27090E-12	609.805E-3	-20.5809E-3	-4.32224E-12	743.042E-3	-27.7869E-3
-147.574E-6	-4.38410E-12	623.174E-3	-27.2147E-3	-4.55709E-12	766.040E-3	-21.5669E-3
-152.576E-6	-4.55202E-12	654.061E-3	-29.0323E-3	-4.66408E-12	805.856E-3	-24.2137E-3
-157.579E-6	-4.90644E-12	682.005E-3	-33.5283E-3	-4.95001E-12	833.464E-3	-25.1706E-3
-162.581E-6	-5.15634E-12	697.439E-3	-29.2812E-3	-5.18230E-12	868.306E-3	-13.2179E-3
-167.584E-6	-5.41900E-12	721.300E-3	-16.7883E-3	-5.53240E-12	916.082E-3	-15.2697E-3
-172.586E-6	-5.78899E-12	757.560E-3	-13.2771E-3	-5.79378E-12	949.780E-3	-24.7650E-3
-177.589E-6	-6.15106E-12	805.254E-3	-29.8052E-3	-6.22633E-12	978.170E-3	-15.7728E-3
-182.591E-6	-6.44097E-12	853.366E-3	-44.7563E-3	-6.49270E-12	1.01550E+0	-1.83616E-3
-187.594E-6	-6.65176E-12	883.074E-3	-26.5490E-3	-6.75470E-12	1.05358E+0	4.21042E-3
-192.596E-6	-7.04730E-12	916.483E-3	1.86888E-3	-7.11687E-12	1.10258E+0	8.22554E-3
-197.599E-6	-7.45026E-12	965.571E-3	-22.9145E-6	-7.56742E-12	1.15753E+0	-1.91685E-3
-202.601E-6	-7.79603E-12	1.00152E+0	-7.46534E-3	-7.92701E-12	1.20410E+0	-12.4595E-3
-207.604E-6	-8.06581E-12	1.03236E+0	-5.39458E-3	-8.16134E-12	1.25354E+0	-273.498E-6
-212.606E-6	-8.52270E-12	1.07653E+0	-17.4597E-3	-8.59186E-12	1.30421E+0	3.46767E-3
-217.609E-6	-9.13006E-12	1.11565E+0	-23.6523E-3	-9.15015E-12	1.34244E+0	-6.03812E-3
-222.611E-6	-9.55874E-12	1.15091E+0	-14.3584E-3	-9.52973E-12	1.37719E+0	-9.11609E-3
-227.614E-6	-9.78760E-12	1.21379E+0	-21.9413E-3	-9.74508E-12	1.42369E+0	-18.4073E-3
-232.616E-6	-10.3454E-12	1.28979E+0	-31.9107E-3	-10.2464E-12	1.47099E+0	-32.6625E-3
-237.619E-6	-10.9253E-12	1.33323E+0	-25.1518E-3	-10.7997E-12	1.51817E+0	-20.1410E-3
-242.621E-6	-11.3172E-12	1.36202E+0	-22.7454E-3	-11.3034E-12	1.57960E+0	1.47103E-3
-247.624E-6	-11.5865E-12	1.41544E+0	-14.3882E-3	-11.7295E-12	1.63918E+0	-5.93138E-3
-252.626E-6	-12.2087E-12	1.47742E+0	547.093E-6	-12.2149E-12	1.69097E+0	-16.9008E-3
-257.629E-6	-12.8600E-12	1.53207E+0	-7.89035E-3	-12.8843E-12	1.74572E+0	-27.0548E-3
-262.631E-6	-13.2726E-12	1.58091E+0	-19.2212E-3	-13.4319E-12	1.80918E+0	-47.2706E-3
-267.634E-6	-13.7102E-12	1.61614E+0	-14.4242E-3	-13.9478E-12	1.89159E+0	-49.1178E-3
-272.636E-6	-14.4863E-12	1.65116E+0	-12.9218E-3	-14.7219E-12	1.97352E+0	-29.9591E-3
-277.639E-6	-15.1482E-12	1.70568E+0	-13.2579E-3	-15.4209E-12	2.03640E+0	-22.1104E-3
-282.641E-6	-15.6366E-12	1.77279E+0	-13.8551E-3	-15.9502E-12	2.09580E+0	-18.5355E-3
-287.644E-6	-16.2969E-12	1.83228E+0	-17.7353E-3	-16.5651E-12	2.16102E+0	-11.9304E-3
-292.646E-6	-17.0488E-12	1.88707E+0	-16.1578E-3	-17.4182E-12	2.21843E+0	-20.4330E-3
-297.649E-6	-17.9575E-12	1.95337E+0	-17.0335E-3	-18.1639E-12	2.27388E+0	-17.5778E-3
-302.651E-6	-18.6614E-12	2.02366E+0	-28.0768E-3	-18.6346E-12	2.34880E+0	-3.56246E-3
-307.654E-6	-19.3897E-12	2.09910E+0	-39.4582E-3	-19.3673E-12	2.41430E+0	-13.1295E-3
-312.656E-6	-20.3421E-12	2.17954E+0	-45.9224E-3	-20.3436E-12	2.46720E+0	-21.6438E-3
-317.659E-6	-21.1790E-12	2.24588E+0	-45.1926E-3	-21.0595E-12	2.53455E+0	-13.7386E-3
-322.661E-6	-21.7708E-12	2.30541E+0	-35.3424E-3	-21.7421E-12	2.58869E+0	-18.2666E-3
-327.664E-6	-22.5417E-12	2.37161E+0	-25.1931E-3	-22.6028E-12	2.62479E+0	-22.5122E-3
-332.666E-6	-23.5958E-12	2.43294E+0	-28.9057E-3	-23.6546E-12	2.69736E+0	-23.3064E-3
-337.669E-6	-24.3438E-12	2.49408E+0	-35.0114E-3	-24.3894E-12	2.79730E+0	-34.8427E-3
-342.671E-6	-24.8881E-12	2.55703E+0	-29.1306E-3	-25.0116E-12	2.84971E+0	-31.9964E-3
-347.674E-6	-25.8021E-12	2.60445E+0	-27.8539E-3	-26.0017E-12	2.87231E+0	-20.6389E-3
-352.676E-6	-26.7900E-12	2.66625E+0	-29.0182E-3	-27.2410E-12	2.92603E+0	-25.4795E-3
-357.679E-6	-27.3535E-12	2.73538E+0	-19.4713E-3	-27.7562E-12	2.99861E+0	-30.4091E-3
-362.681E-6	-28.0107E-12	2.77331E+0	-19.6560E-3	-28.4157E-12	3.06391E+0	-21.6395E-3
-367.684E-6	-29.1702E-12	2.80468E+0	-33.4050E-3	-29.8002E-12	3.11934E+0	-19.1454E-3
-372.686E-6	-30.4309E-12	2.84524E+0	-37.8810E-3	-31.1431E-12	3.16053E+0	-22.8668E-3
-377.689E-6	-31.3207E-12	2.89210E+0	-28.8354E-3	-32.0392E-12	3.19487E+0	-22.0917E-3
-382.691E-6	-32.0052E-12	2.95940E+0	-22.9995E-3	-32.7329E-12	3.23538E+0	-25.0774E-3
-387.694E-6	-33.2603E-12	3.03140E+0	-26.9063E-3	-33.8957E-12	3.27470E+0	-24.9298E-3
-392.696E-6	-34.9144E-12	3.08672E+0	-32.3067E-3	-35.1665E-12	3.32077E+0	-16.2799E-3
-397.699E-6	-35.9371E-12	3.14553E+0	-27.2585E-3	-35.8636E-12	3.38151E+0	-24.7697E-3
-402.701E-6	-36.8966E-12	3.20895E+0	-5.33872E-3	-36.5014E-12	3.43182E+0	-35.9608E-3
-407.704E-6	-38.2921E-12	3.27209E+0	6.44329E-3	-37.6476E-12	3.46329E+0	-18.9651E-3
-412.706E-6	-39.6539E-12	3.34079E+0	-11.3091E-3	-39.2130E-12	3.49510E+0	-6.61072E-3
-417.709E-6	-40.6005E-12	3.39629E+0	-30.6098E-3	-40.2618E-12	3.53318E+0	-20.4143E-3
-422.711E-6	-41.7061E-12	3.43937E+0	-29.9432E-3	-41.2878E-12	3.57670E+0	-21.8651E-3
-427.714E-6	-43.0476E-12	3.49472E+0	-21.0172E-3	-42.5983E-12	3.62409E+0	-12.8495E-3
-432.716E-6	-44.2142E-12	3.55968E+0	-22.1934E-3	-44.0030E-12	3.65877E+0	-17.9685E-3
-437.719E-6	-44.6541E-12	3.59611E+0	-25.9804E-3	-44.8242E-12	3.67344E+0	-19.0637E-3
-442.721E-6	-45.7778E-12	3.60319E+0	-20.3241E-3	-45.9932E-12	3.69287E+0	-29.6509E-3
-447.724E-6	-47.1705E-12	3.61107E+0	-15.4617E-3	-47.5012E-12	3.72666E+0	-42.2826E-3
-452.726E-6	-48.0354E-12	3.62718E+0	-10.8648E-3	-48.4554E-12	3.74644E+0	-28.0450E-3
-457.729E-6	-48.3343E-12	3.65106E+0	-19.4258E-3	-49.4090E-12	3.74833E+0	-20.6754E-3
-462.731E-6	-49.4849E-12	3.66515E+0	-37.9682E-3	-50.9535E-12	3.75419E+0	-24.3436E-3
-467.734E-6	-51.5138E-12	3.64889E+0	-40.0833E-3	-52.5193E-12	3.76654E+0	-13.9428E-3
-472.736E-6	-52.5754E-12	3.63929E+0	-38.6954E-3	-53.5004E-12	3.78465E+0	-13.5344E-3
-477.739E-6	-53.3386E-12	3.67682E+0	-37.6892E-3	-54.2812E-12	3.79874E+0	-33.1186E-3
-482.741E-6	-54.7120E-12	3.70821E+0	-29.8701E-3	-55.7031E-12	3.79987E+0	-38.7139E-3
-487.744E-6	-56.8070E-12	3.71170E+0	-32.9261E-3	-57.3033E-12	3.81295E+0	-39.4130E-3
-492.746E-6	-58.4506E-12	3.73228E+0	-44.8005E-3	-58.2845E-12	3.82230E+0	-48.3567E-3
-497.749E-6	-59.3933E-12	3.77314E+0	-40.9409E-3	-58.8028E-12	3.79930E+0	-30.9309E-3
-502.751E-6	-60.8684E-12	3.80906E+0	-26.2019E-3	-60.3477E-12	3.78493E+0	-3.59452E-3
-507.754E-6	-62.5383E-12	3.82539E+0	-24.1593E-3	-62.0759E-12	3.79035E+0	-4.74191E-3
-512.756E-6	-64.2153E-12	3.82290E+0	-16.2451E-3	-62.9118E-12	3.78820E+0	-18.9860E-3
-517.759E-6	-64.9242E-12	3.82706E+0	-498.056E-6	-63.5846E-12	3.78797E+0	-27.8070E-3
-522.761E-6	-66.4146E-12	3.84786E+0	-14.6106E-3	-65.3419E-12	3.78023E+0	-28.2568E-3
-527.764E-6	-67.9333E-12	3.85345E+0	-31.0978E-3	-67.4727E-12	3.75595E+0	-18.9097E-3
-532.766E-6	-69.1446E-12	3.84511E+0	-25.3060E-3	-68.2989E-12	3.74171E+0	-7.38648E-3
-537.769E-6	-69.9327E-12	3.84808E+0	-20.5013E-3	-69.0367E-12	3.71942E+0	-10.3381E-3
-542.771E-6	-71.2622E-12	3.84691E+0	-26.6321E-3	-70.5685E-12	3.67373E+0	-21.1315E-3
-547.774E-6	-71.7237E-12	3.83232E+0	-44.2197E-3	-72.5423E-12	3.62930E+0	-17.6372E-3
-552.776E-6	-72.4118E-12	3.81158E+0	-53.1589E-3	-72.2854E-12	3.60283E+0	-11.2168E-3
-557.779E-6	-73.1813E-12	3.77980E+0	-36.1586E-3	-72.6306E-12	3.59742E+0	-9.55947E-3
-562.781E-6	-75.1140E-12	3.74694E+0	-17.1598E-3	-74.2238E-12	3.58868E+0	-5.42854E-3
-567.784E-6	-76.9295E-12	3.72794E+0	-16.1505E-3	-76.7415E-12	3.55539E+0	-14.7077E-3
-572.786E-6	-78.1985E-12	3.70078E+0	-21.4523E-3	-78.5721E-12	3.51085E+0	-34.3028E-3
-577.789E-6	-79.8281E-12	3.66392E+0	-23.3151E-3	-79.6222E-12	3.50279E+0	-29.7453E-3
-582.791E-6	-81.3462E-12	3.64322E+0	-21.1396E-3	-80.2357E-12	3.51226E+0	-10.1649E-3
-587.794E-6	-82.4557E-12	3.62728E+0	-17.0456E-3	-81.7403E-12	3.45803E+0	-5.13048E-3
-592.796E-6	-83.0338E-12	3.59792E+0	-16.6685E-3	-83.8678E-12	3.38019E+0	-11.2054E-3
-597.799E-6	-84.3963E-12	3.56711E+0	-10.0521E-3	-84.4916E-12	3.34749E+0	-13.8898E-3
-602.801E-6	-86.4620E-12	3.54012E+0	1.95345E-3	-85.3785E-12	3.31145E+0	-6.48932E-3
-607.804E-6	-87.4536E-12	3.50307E+0	3.01497E-3	-86.6245E-12	3.25837E+0	-2.38337E-3
-612.806E-6	-87.7655E-12	3.47945E+0	-986.232E-6	-87.7060E-12	3.22977E+0	-25.7872E-3
-617.809E-6	-88.7961E-12	3.46556E+0	-3.57574E-3	-88.5121E-12	3.19167E+0	-48.9144E-3
-622.811E-6	-91.0033E-12	3.42507E+0	-6.40068E-3	-89.7151E-12	3.12333E+0	-33.3593E-3
-627.814E-6	-92.1047E-12	3.37644E+0	-7.29029E-3	-90.1042E-12	3.06884E+0	-20.8302E-3
-632.816E-6	-92.6005E-12	3.34270E+0	-331.953E-6	-90.7000E-12	3.03234E+0	-36.1543E-3
-637.819E-6	-92.9792E-12	3.30877E+0	6.15141E-3	-91.8915E-12	2.98199E+0	-35.4224E-3
-642.821E-6	-94.5853E-12	3.24987E+0	-3.89908E-3	-93.3372E-12	2.94268E+0	-20.3456E-3
-647.824E-6	-96.3850E-12	3.17898E+0	-10.7859E-3	-93.8042E-12	2.90786E+0	-25.1653E-3
-652.826E-6	-96.8609E-12	3.12672E+0	-1.70279E-3	-94.0973E-12	2.85414E+0	-31.2263E-3
-657.829E-6	-97.4835E-12	3.07844E+0	1.08037E-3	-95.8678E-12	2.79864E+0	-13.4096E-3
-662.831E-6	-98.0686E-12	3.02768E+0	-1.81859E-3	-96.7914E-12	2.73320E+0	-3.02241E-3
-667.834E-6	-99.4590E-12	2.96931E+0	-2.31222E-3	-97.9638E-12	2.67342E+0	-22.7710E-3
-672.836E-6	-100.098E-12	2.90865E+0	-4.99257E-3	-98.6110E-12	2.64677E+0	-39.8722E-3
-677.839E-6	-100.810E-12	2.86822E+0	-9.60021E-3	-100.549E-12	2.62431E+0	-36.5772E-3
-682.841E-6	-100.953E-12	2.80939E+0	-8.09813E-3	-101.573E-12	2.55749E+0	-27.0760E-3
-687.844E-6	-101.765E-12	2.72931E+0	-7.33595E-3	-102.451E-12	2.48226E+0	-12.6932E-3
-692.846E-6	-102.863E-12	2.66045E+0	-5.68064E-3	-102.798E-12	2.44454E+0	1.05253E-3
-697.849E-6	-103.575E-12	2.59889E+0	7.29051E-3	-103.476E-12	2.40024E+0	-1.66830E-3
-702.851E-6	-103.889E-12	2.55351E+0	5.24297E-3	-105.138E-12	2.32646E+0	-12.0774E-3
-707.854E-6	-104.671E-12	2.51368E+0	-5.26907E-3	-105.825E-12	2.27152E+0	-24.9156E-3
-712.856E-6	-106.289E-12	2.46254E+0	2.96965E-3	-106.636E-12	2.23143E+0	-50.6720E-3
-717.859E-6	-107.667E-12	2.41447E+0	5.47663E-3	-106.971E-12	2.16508E+0	-55.4580E-3
-722.861E-6	-107.898E-12	2.36698E+0	-18.1421E-3	-108.539E-12	2.09415E+0	-38.6440E-3
-727.864E-6	-108.136E-12	2.31139E+0	-40.5477E-3	-108.497E-12	2.05157E+0	-41.9408E-3
-732.866E-6	-109.949E-12	2.24283E+0	-32.4326E-3	-109.492E-12	2.03240E+0	-39.2552E-3
-737.869E-6	-111.672E-12	2.18995E+0	-15.3356E-3	-109.714E-12	1.99828E+0	-23.9451E-3
-742.871E-6	-112.236E-12	2.16105E+0	-12.9898E-3	-111.146E-12	1.93210E+0	-26.8422E-3
-747.874E-6	-111.886E-12	2.12178E+0	3.32039E-3	-112.057E-12	1.85723E+0	-33.2869E-3
-752.876E-6	-112.655E-12	2.08751E+0	28.1431E-3	-112.644E-12	1.80095E+0	-20.5478E-3
-757.879E-6	-114.242E-12	2.05214E+0	19.4413E-3	-113.200E-12	1.75862E+0	-4.12619E-3
-762.881E-6	-114.948E-12	1.98924E+0	-12.4760E-3	-113.349E-12	1.69591E+0	2.43420E-3
-767.884E-6	-113.564E-12	1.92306E+0	-21.9221E-3	-114.630E-12	1.63151E+0	-3.40224E-3
-772.886E-6	-112.712E-12	1.86058E+0	-8.31841E-3	-115.847E-12	1.58238E+0	-15.1987E-3
-777.889E-6	-113.598E-12	1.78879E+0	-7.71825E-3	-116.175E-12	1.53735E+0	-10.0396E-3
-782.891E-6	-114.681E-12	1.72627E+0	-10.4956E-3	-115.405E-12	1.49988E+0	-1.93258E-3
-787.894E-6	-114.056E-12	1.68793E+0	-3.55400E-3	-116.285E-12	1.44693E+0	-8.32165E-3
-792.896E-6	-114.401E-12	1.65184E+0	-5.15006E-3	-117.547E-12	1.38390E+0	2.19623E-3
-797.899E-6	-115.429E-12	1.59848E+0	-19.5173E-3	-117.685E-12	1.35493E+0	8.99351E-3
-802.901E-6	-116.908E-12	1.52137E+0	-32.8537E-3	-117.740E-12	1.32858E+0	-23.2454E-3
-807.904E-6	-116.962E-12	1.45106E+0	-34.7362E-3	-117.653E-12	1.27897E+0	-39.8539E-3
-812.906E-6	-117.361E-12	1.41939E+0	-16.6460E-3	-119.231E-12	1.21994E+0	-28.9727E-3
-817.909E-6	-118.339E-12	1.38430E+0	3.81688E-3	-119.314E-12	1.16591E+0	-19.7238E-3
-822.911E-6	-120.294E-12	1.33316E+0	-191.110E-6	-119.753E-12	1.14477E+0	-20.5784E-3
-827.914E-6	-121.593E-12	1.28289E+0	-17.5668E-3	-119.770E-12	1.13064E+0	-27.4195E-3
-832.916E-6	-121.735E-12	1.23932E+0	-18.8700E-3	-120.651E-12	1.10274E+0	-21.2385E-3
-837.919E-6	-122.548E-12	1.21281E+0	-11.2071E-3	-121.929E-12	1.07087E+0	-6.02052E-3
-842.921E-6	-123.138E-12	1.19394E+0	-18.3035E-3	-121.861E-12	1.02013E+0	-7.49760E-3
-847.924E-6	-123.922E-12	1.17401E+0	-19.8245E-3	-121.899E-12	963.279E-3	-20.6083E-3
-852.926E-6	-123.113E-12	1.14416E+0	-15.0208E-3	-122.363E-12	923.986E-3	-16.8869E-3
-857.929E-6	-122.642E-12	1.09231E+0	-34.1283E-3	-123.816E-12	883.569E-3	-13.9394E-3
-862.931E-6	-122.397E-12	1.04179E+0	-48.3743E-3	-122.357E-12	845.882E-3	-15.3437E-3
-867.934E-6	-122.828E-12	1.00658E+0	-28.0306E-3	-122.605E-12	823.356E-3	-4.46147E-3
-872.936E-6	-122.123E-12	975.313E-3	-10.4241E-3	-123.438E-12	794.575E-3	-3.44603E-3
-877.939E-6	-120.439E-12	938.906E-3	-16.7351E-3	-124.612E-12	759.538E-3	-12.3004E-3
-882.941E-6	-120.830E-12	868.929E-3	-25.7103E-3	-123.295E-12	735.593E-3	-17.5512E-3
-887.944E-6	-122.367E-12	796.077E-3	-20.7400E-3	-123.471E-12	729.206E-3	-32.0718E-3
-892.946E-6	-123.142E-12	781.569E-3	-3.25259E-3	-124.275E-12	726.391E-3	-60.5732E-3
-897.949E-6	-122.026E-12	783.913E-3	-3.42683E-3	-125.432E-12	697.274E-3	-64.6707E-3
-902.951E-6	-123.047E-12	754.289E-3	-18.3301E-3	-125.845E-12	663.560E-3	-37.3237E-3
-907.954E-6	-124.576E-12	723.359E-3	-7.96039E-3	-125.448E-12	646.393E-3	-28.4581E-3
-912.956E-6	-125.324E-12	698.754E-3	1.29335E-3	-125.480E-12	621.465E-3	-33.2669E-3
-917.959E-6	-124.927E-12	669.530E-3	-1.95133E-3	-126.436E-12	585.094E-3	-35.9103E-3
-922.961E-6	-125.291E-12	638.326E-3	17.6721E-3	-126.673E-12	553.188E-3	-48.2738E-3
-927.964E-6	-127.185E-12	616.381E-3	24.6376E-3	-126.059E-12	535.618E-3	-42.1838E-3
-932.966E-6	-127.618E-12	614.208E-3	-3.41379E-3	-125.783E-12	528.317E-3	648.709E-6
-937.969E-6	-128.486E-12	613.702E-3	-9.57983E-3	-126.551E-12	507.098E-3	38.8452E-3
-942.971E-6	-127.942E-12	603.136E-3	11.2568E-3	-126.868E-12	466.153E-3	37.4339E-3
-947.974E-6	-128.897E-12	585.350E-3	-8.93774E-3	-127.032E-12	439.048E-3	29.0825E-3
-952.976E-6	-128.900E-12	551.944E-3	-47.8243E-3	-126.346E-12	432.514E-3	7.41370E-3
-957.979E-6	-128.375E-12	507.430E-3	-38.1759E-3	-126.826E-12	424.992E-3	-27.6508E-3
-962.981E-6	-127.925E-12	484.232E-3	-20.3609E-3	-127.172E-12	414.517E-3	-14.4689E-3
-967.984E-6	-128.095E-12	487.838E-3	-31.0346E-3	-127.266E-12	412.253E-3	-1.76079E-3
-972.986E-6	-128.739E-12	481.341E-3	-32.2280E-3	-127.731E-12	388.829E-3	-27.7143E-3
-977.989E-6	-127.089E-12	451.017E-3	-26.8953E-3	-127.782E-12	341.355E-3	-34.8623E-3
-982.991E-6	-126.468E-12	420.740E-3	-29.5891E-3	-128.206E-12	331.074E-3	-15.1686E-3
-987.994E-6	-127.755E-12	411.761E-3	-20.7094E-3	-128.655E-12	343.258E-3	-1.36859E-3
-992.997E-6	-128.546E-12	400.476E-3	-17.6529E-3	-129.414E-12	345.432E-3	-6.18472E-3
-997.999E-6	-128.522E-12	379.758E-3	-24.2945E-3	-128.995E-12	352.369E-3	-23.9252E-3
-1.00300E-3	-127.366E-12	374.239E-3	-22.3241E-3	-129.090E-12	347.637E-3	-47.7953E-3
-1.00800E-3	-128.091E-12	359.448E-3	-15.2099E-3	-129.719E-12	316.255E-3	-62.0825E-3
-1.01301E-3	-128.935E-12	331.332E-3	-15.6186E-3	-129.827E-12	300.530E-3	-51.9685E-3
-1.01801E-3	-129.869E-12	326.561E-3	-17.0083E-3	-129.039E-12	307.231E-3	-34.4984E-3
-1.02301E-3	-129.601E-12	334.492E-3	2.52477E-3	-128.334E-12	296.865E-3	-29.4237E-3
-1.02801E-3	-129.264E-12	325.604E-3	14.2468E-3	-129.005E-12	289.463E-3	-23.9314E-3
-1.03302E-3	-129.502E-12	303.796E-3	-4.81511E-3	-129.787E-12	297.243E-3	-20.9132E-3
-1.03802E-3	-129.788E-12	283.326E-3	-21.9020E-3	-129.069E-12	287.874E-3	-20.0886E-3
-1.04302E-3	-130.126E-12	287.024E-3	-28.5756E-3	-128.007E-12	273.739E-3	-7.58248E-3
-1.04802E-3	-129.433E-12	309.006E-3	-19.4557E-3	-128.636E-12	269.514E-3	-10.9179E-3
-1.05303E-3	-129.820E-12	311.407E-3	-5.35118E-3	-129.908E-12	258.568E-3	-35.1178E-3
-1.05803E-3	-130.407E-12	292.804E-3	-2.72158E-3	-129.290E-12	248.001E-3	-44.0431E-3
-1.06303E-3	-130.682E-12	270.090E-3	2.54898E-3	-129.095E-12	255.931E-3	-38.8657E-3
-1.06803E-3	-130.373E-12	244.111E-3	10.2360E-3	-128.963E-12	258.779E-3	-26.0606E-3
-1.07304E-3	-130.164E-12	237.866E-3	6.02130E-3	-130.148E-12	243.696E-3	-5.73623E-3
-1.07804E-3	-130.696E-12	264.787E-3	-13.3784E-3	-130.625E-12	243.530E-3	-3.41182E-3
-1.08304E-3	-130.619E-12	289.519E-3	-26.3064E-3	-131.380E-12	246.429E-3	-11.8997E-3
-1.08804E-3	-130.541E-12	289.011E-3	-21.2619E-3	-130.680E-12	250.574E-3	-802.211E-6
-1.09305E-3	-130.167E-12	268.218E-3	107.640E-6	-130.782E-12	261.452E-3	5.92539E-3
-1.09805E-3	-130.515E-12	245.819E-3	20.3484E-3	-131.362E-12	244.126E-3	-2.67062E-3
-1.10305E-3	-130.184E-12	235.379E-3	16.3254E-3	-131.771E-12	217.015E-3	-3.65009E-3
-1.10805E-3	-130.506E-12	225.117E-3	935.756E-6	-131.025E-12	212.868E-3	-10.7781E-3
-1.11306E-3	-130.777E-12	208.758E-3	-1.40230E-3	-130.829E-12	225.969E-3	-23.4538E-3
-1.11806E-3	-130.421E-12	201.889E-3	4.17151E-3	-131.638E-12	238.874E-3	-17.4790E-3
-1.12306E-3	-130.218E-12	204.162E-3	-153.521E-6	-131.527E-12	236.348E-3	-8.16336E-3
-1.12806E-3	-130.130E-12	213.869E-3	-2.51178E-3	-130.809E-12	223.220E-3	-7.37365E-3
-1.13307E-3	-130.893E-12	229.922E-3	821.899E-6	-131.092E-12	211.153E-3	-8.83010E-3
-1.13807E-3	-131.009E-12	227.660E-3	-3.04219E-3	-130.497E-12	208.251E-3	-17.3527E-3
-1.14307E-3	-131.372E-12	217.062E-3	-13.6530E-3	-131.196E-12	217.192E-3	-28.7513E-3
-1.14807E-3	-131.519E-12	213.068E-3	-19.3829E-3	-131.285E-12	231.051E-3	-33.7479E-3
-1.15308E-3	-132.340E-12	214.636E-3	-20.5279E-3	-131.032E-12	238.100E-3	-31.8670E-3
-1.15808E-3	-133.090E-12	225.391E-3	-19.4296E-3	-131.153E-12	232.566E-3	-25.3259E-3
-1.16308E-3	-133.349E-12	235.104E-3	-19.7988E-3	-132.780E-12	223.211E-3	-14.3061E-3
-1.16808E-3	-133.372E-12	234.892E-3	-37.3775E-3	-132.104E-12	217.780E-3	5.93749E-3
-1.17309E-3	-132.758E-12	223.855E-3	-48.5470E-3	-131.536E-12	211.844E-3	20.1473E-3
-1.17809E-3	-133.017E-12	212.166E-3	-35.1102E-3	-132.416E-12	215.646E-3	12.9635E-3
-1.18309E-3	-132.502E-12	223.183E-3	-26.4147E-3	-133.160E-12	241.147E-3	-8.83376E-3
-1.18809E-3	-132.508E-12	245.160E-3	-30.9666E-3	-133.108E-12	264.193E-3	-25.2507E-3
-1.19310E-3	-132.006E-12	241.086E-3	-26.2791E-3	-132.398E-12	267.741E-3	-7.34259E-3
-1.19810E-3	-131.421E-12	225.180E-3	-2.81063E-3	-132.679E-12	271.195E-3	17.6878E-3
-1.20310E-3	-131.203E-12	220.677E-3	5.54361E-3	-132.902E-12	275.975E-3	4.59187E-3
-1.20810E-3	-130.731E-12	220.698E-3	-20.0789E-3	-133.517E-12	269.201E-3	-34.8820E-3
-1.21311E-3	-130.240E-12	235.042E-3	-34.5716E-3	-133.315E-12	262.625E-3	-53.4942E-3
-1.21811E-3	-130.795E-12	262.923E-3	-23.7581E-3	-133.342E-12	250.208E-3	-23.8415E-3
-1.22311E-3	-131.481E-12	276.411E-3	-18.4017E-3	-132.495E-12	244.456E-3	9.42467E-3
-1.22811E-3	-131.636E-12	277.790E-3	-18.7696E-3	-132.519E-12	256.710E-3	3.04634E-3
-1.23312E-3	-131.777E-12	295.292E-3	-10.4658E-3	-131.968E-12	270.272E-3	-21.7045E-3
-1.23812E-3	-132.366E-12	310.334E-3	-4.38343E-3	-131.693E-12	297.302E-3	-31.6493E-3
-1.24312E-3	-133.324E-12	285.097E-3	-19.7366E-3	-132.427E-12	332.559E-3	-17.8959E-3
-1.24812E-3	-134.021E-12	259.364E-3	-21.4819E-3	-132.977E-12	342.771E-3	-11.0959E-3
-1.25313E-3	-134.638E-12	267.796E-3	-8.98682E-3	-133.687E-12	329.907E-3	-29.7773E-3
-1.25813E-3	-134.657E-12	266.632E-3	-10.9670E-3	-133.791E-12	321.977E-3	-30.5267E-3
-1.26313E-3	-135.673E-12	265.456E-3	-11.7943E-3	-133.609E-12	315.729E-3	-6.85365E-3
-1.26813E-3	-134.886E-12	277.728E-3	-17.5510E-3	-133.840E-12	301.288E-3	3.07343E-3
-1.27314E-3	-134.554E-12	280.095E-3	-20.1684E-3	-133.022E-12	295.308E-3	4.25175E-3
-1.27814E-3	-133.934E-12	286.927E-3	-10.9084E-3	-134.009E-12	309.462E-3	5.53380E-3
-1.28314E-3	-133.669E-12	296.138E-3	-2.35957E-3	-133.926E-12	320.819E-3	-4.63606E-3
-1.28814E-3	-133.424E-12	289.867E-3	-1.88446E-3	-132.893E-12	318.632E-3	-15.4774E-3
-1.29315E-3	-132.947E-12	284.448E-3	-9.64943E-3	-133.116E-12	324.141E-3	-21.4092E-3
-1.29815E-3	-132.551E-12	302.861E-3	-9.58744E-3	-134.015E-12	331.663E-3	-22.1939E-3
-1.30315E-3	-132.050E-12	313.280E-3	-11.2070E-3	-133.465E-12	334.156E-3	-1.90615E-3
-1.30815E-3	-131.818E-12	312.529E-3	-18.0760E-3	-132.750E-12	340.598E-3	18.4830E-3
-1.31316E-3	-132.780E-12	325.912E-3	-8.38587E-3	-133.649E-12	367.314E-3	14.0651E-3
-1.31816E-3	-133.703E-12	332.194E-3	3.10999E-3	-134.399E-12	399.785E-3	-5.92170E-3
-1.32316E-3	-134.674E-12	329.372E-3	-8.25725E-3	-134.410E-12	391.997E-3	-22.4116E-3
-1.32816E-3	-134.579E-12	328.567E-3	-20.5002E-3	-134.027E-12	360.746E-3	-35.8091E-3
-1.33317E-3	-134.955E-12	323.580E-3	-16.2208E-3	-133.745E-12	349.925E-3	-44.1094E-3
-1.33817E-3	-135.726E-12	333.600E-3	-27.5768E-3	-135.253E-12	365.817E-3	-25.2224E-3
-1.34317E-3	-137.214E-12	354.952E-3	-37.9736E-3	-135.632E-12	392.189E-3	-12.1071E-3
-1.34817E-3	-136.938E-12	360.298E-3	-26.2198E-3	-134.769E-12	408.998E-3	-20.8008E-3
-1.35318E-3	-136.935E-12	373.199E-3	-21.7518E-3	-134.541E-12	411.875E-3	-18.8633E-3
-1.35818E-3	-137.062E-12	383.959E-3	-6.75970E-3	-135.171E-12	416.287E-3	-30.6446E-3
-1.36318E-3	-137.665E-12	369.238E-3	13.8648E-3	-136.660E-12	420.007E-3	-53.7451E-3
-1.36818E-3	-137.679E-12	364.433E-3	15.6005E-3	-135.743E-12	412.414E-3	-57.4025E-3
-1.37319E-3	-137.452E-12	385.131E-3	7.31366E-3	-134.403E-12	405.679E-3	-53.2630E-3
-1.37819E-3	-136.952E-12	410.892E-3	-13.9554E-3	-134.301E-12	403.230E-3	-48.3406E-3
-1.38319E-3	-136.973E-12	433.902E-3	-28.4257E-3	-134.850E-12	411.312E-3	-40.0636E-3
-1.38819E-3	-137.384E-12	444.827E-3	-13.7465E-3	-135.505E-12	429.471E-3	-40.9023E-3
-1.39320E-3	-137.006E-12	443.124E-3	275.678E-6	-134.746E-12	446.773E-3	-40.3506E-3
-1.39820E-3	-135.860E-12	435.350E-3	-26.7953E-3	-134.662E-12	464.040E-3	-14.0956E-3
-1.40320E-3	-135.707E-12	417.027E-3	-51.7294E-3	-134.541E-12	461.327E-3	6.12020E-3
-1.40820E-3	-136.662E-12	408.986E-3	-29.8678E-3	-135.085E-12	429.315E-3	4.26860E-3
-1.41321E-3	-137.233E-12	433.193E-3	-23.1542E-3	-135.725E-12	414.459E-3	-3.30171E-3
-1.41821E-3	-137.462E-12	456.847E-3	-36.8316E-3	-136.004E-12	432.597E-3	-10.8703E-3
-1.42321E-3	-137.461E-12	442.515E-3	-34.0291E-3	-135.878E-12	443.510E-3	7.64367E-3
-1.42821E-3	-137.766E-12	427.063E-3	-30.4589E-3	-136.528E-12	442.814E-3	26.3783E-3
-1.43322E-3	-137.911E-12	431.583E-3	-19.4474E-3	-137.070E-12	439.259E-3	15.0677E-3
-1.43822E-3	-138.958E-12	429.936E-3	-14.0892E-3	-136.479E-12	440.686E-3	-2.80988E-3
-1.44322E-3	-138.988E-12	428.615E-3	-33.5499E-3	-137.152E-12	456.131E-3	-14.3145E-3
-1.44822E-3	-138.595E-12	435.089E-3	-26.7174E-3	-138.002E-12	459.579E-3	-4.83467E-3
-1.45323E-3	-138.769E-12	449.363E-3	9.26574E-3	-137.528E-12	457.972E-3	12.3119E-3
-1.45823E-3	-139.983E-12	465.433E-3	6.12739E-3	-136.246E-12	469.544E-3	8.94210E-3
-1.46323E-3	-139.706E-12	456.184E-3	-11.1078E-3	-135.872E-12	475.316E-3	-7.39714E-3
-1.46823E-3	-138.162E-12	448.535E-3	853.036E-6	-137.812E-12	463.703E-3	-3.84621E-3
-1.47324E-3	-138.299E-12	459.795E-3	-4.26190E-3	-138.526E-12	459.086E-3	25.9499E-3
-1.47824E-3	-139.722E-12	465.791E-3	-20.3289E-3	-137.861E-12	465.800E-3	17.8655E-3
-1.48324E-3	-140.285E-12	475.393E-3	-15.2471E-3	-137.232E-12	458.943E-3	-28.8568E-3
-1.48824E-3	-139.389E-12	504.920E-3	-9.03686E-3	-138.738E-12	458.629E-3	-54.9561E-3
-1.49325E-3	-138.900E-12	534.028E-3	-3.27936E-3	-139.710E-12	480.611E-3	-56.8801E-3
-1.49825E-3	-138.793E-12	525.964E-3	4.60741E-3	-140.095E-12	496.175E-3	-28.1263E-3
-1.50325E-3	-139.847E-12	500.374E-3	-1.69314E-3	-139.915E-12	503.599E-3	9.38054E-3
-1.50825E-3	-140.009E-12	482.834E-3	-19.6167E-3	-141.027E-12	513.500E-3	21.4993E-3
-1.51326E-3	-138.757E-12	467.238E-3	-24.2474E-3	-141.610E-12	514.944E-3	9.74769E-3
-1.51826E-3	-138.533E-12	465.707E-3	-28.0154E-3	-141.785E-12	507.410E-3	-3.68717E-3
-1.52326E-3	-139.527E-12	490.778E-3	-41.2175E-3	-141.923E-12	491.923E-3	-2.59065E-3
-1.52826E-3	-140.336E-12	510.439E-3	-37.1207E-3	-141.434E-12	483.660E-3	-8.93095E-3
-1.53327E-3	-139.230E-12	503.624E-3	-27.1433E-3	-141.796E-12	490.418E-3	-27.0019E-3
-1.53827E-3	-138.848E-12	504.504E-3	-19.1313E-3	-141.695E-12	505.259E-3	-36.3474E-3
-1.54327E-3	-140.052E-12	509.187E-3	-4.29746E-3	-141.262E-12	519.033E-3	-22.5030E-3
-1.54827E-3	-141.416E-12	494.729E-3	-12.5808E-3	-140.978E-12	529.435E-3	-714.347E-6
-1.55328E-3	-141.003E-12	484.765E-3	-34.4543E-3	-140.217E-12	538.916E-3	12.9325E-3
-1.55828E-3	-140.793E-12	491.871E-3	-29.2221E-3	-140.954E-12	534.146E-3	5.47187E-3
-1.56328E-3	-141.629E-12	496.132E-3	-16.3415E-3	-141.302E-12	523.404E-3	-23.5596E-3
-1.56828E-3	-142.726E-12	500.828E-3	-15.2485E-3	-141.701E-12	543.450E-3	-33.5266E-3
-1.57329E-3	-143.182E-12	518.096E-3	-20.4684E-3	-140.761E-12	572.816E-3	-34.5194E-3
-1.57829E-3	-143.442E-12	527.743E-3	-28.9750E-3	-140.861E-12	559.031E-3	-40.7946E-3
-1.58329E-3	-143.720E-12	522.803E-3	-33.7767E-3	-141.842E-12	531.951E-3	-24.4222E-3
-1.58829E-3	-144.804E-12	516.700E-3	-34.0351E-3	-142.403E-12	518.729E-3	1.90539E-3
-1.59330E-3	-145.315E-12	509.782E-3	-26.1000E-3	-142.572E-12	511.628E-3	4.81470E-3
-1.59830E-3	-144.877E-12	511.431E-3	-14.4858E-3	-141.897E-12	528.918E-3	-3.93278E-3
-1.60330E-3	-144.099E-12	543.065E-3	-9.33348E-3	-142.539E-12	540.465E-3	-5.59521E-3
-1.60830E-3	-144.068E-12	558.793E-3	-18.7953E-3	-143.391E-12	521.610E-3	-18.6517E-3
-1.61331E-3	-143.511E-12	541.604E-3	-40.0938E-3	-144.055E-12	505.496E-3	-44.3800E-3
-1.61831E-3	-143.171E-12	534.242E-3	-56.2247E-3	-144.067E-12	502.119E-3	-58.8043E-3
-1.62331E-3	-143.200E-12	531.300E-3	-50.3795E-3	-143.255E-12	517.480E-3	-44.7932E-3
-1.62831E-3	-142.695E-12	531.098E-3	-28.5176E-3	-142.852E-12	541.660E-3	-20.8486E-3
-1.63332E-3	-143.022E-12	539.336E-3	-22.1719E-3	-142.906E-12	548.078E-3	-16.2650E-3
-1.63832E-3	-143.336E-12	561.088E-3	-29.5930E-3	-143.163E-12	540.988E-3	-32.2857E-3
-1.64332E-3	-143.738E-12	575.903E-3	-25.2291E-3	-142.379E-12	537.516E-3	-36.9467E-3
-1.64832E-3	-143.226E-12	557.918E-3	-12.8664E-3	-141.808E-12	545.996E-3	-21.9218E-3
-1.65333E-3	-144.353E-12	543.288E-3	-17.5805E-3	-142.662E-12	544.787E-3	-5.64204E-3
-1.65833E-3	-145.199E-12	544.167E-3	-22.5321E-3	-143.358E-12	529.626E-3	7.81477E-3
-1.66333E-3	-145.425E-12	543.645E-3	2.84772E-3	-143.776E-12	540.436E-3	-126.665E-6
-1.66833E-3	-146.135E-12	549.937E-3	18.5975E-3	-143.151E-12	576.305E-3	-18.7262E-3
-1.67334E-3	-147.932E-12	564.248E-3	2.15004E-3	-143.846E-12	602.192E-3	-15.3809E-3
-1.67834E-3	-148.001E-12	575.072E-3	3.17042E-3	-144.282E-12	603.164E-3	-11.7532E-3
-1.68334E-3	-147.758E-12	574.736E-3	10.5444E-3	-145.703E-12	581.325E-3	-5.87364E-3
-1.68834E-3	-147.824E-12	567.946E-3	-6.60839E-3	-146.084E-12	558.428E-3	-2.32343E-3
-1.69335E-3	-147.742E-12	568.258E-3	-23.2507E-3	-145.836E-12	550.700E-3	-15.4183E-3
-1.69835E-3	-147.296E-12	578.816E-3	-25.3568E-3	-146.658E-12	545.788E-3	-24.2171E-3
-1.70335E-3	-147.663E-12	578.442E-3	-22.8847E-3	-147.525E-12	539.802E-3	-32.3252E-3
-1.70835E-3	-147.206E-12	565.835E-3	-33.9005E-3	-147.374E-12	533.379E-3	-25.2345E-3
-1.71336E-3	-146.858E-12	580.591E-3	-38.8219E-3	-146.553E-12	531.296E-3	-13.4376E-3
-1.71836E-3	-146.478E-12	602.819E-3	-9.74940E-3	-146.417E-12	540.354E-3	-29.7670E-3
-1.72336E-3	-146.649E-12	603.785E-3	12.1238E-3	-146.667E-12	556.382E-3	-45.9861E-3
-1.72836E-3	-146.759E-12	605.812E-3	5.48379E-3	-147.440E-12	575.206E-3	-35.3169E-3
-1.73337E-3	-146.575E-12	600.415E-3	-4.75971E-3	-147.877E-12	582.852E-3	-19.1877E-3
-1.73837E-3	-146.389E-12	579.238E-3	-5.12748E-3	-146.813E-12	575.122E-3	-13.1185E-3
-1.74337E-3	-147.265E-12	571.977E-3	-958.095E-6	-147.297E-12	561.265E-3	-19.2015E-3
-1.74837E-3	-147.646E-12	564.260E-3	-8.54559E-3	-148.011E-12	559.322E-3	-33.0479E-3
-1.75338E-3	-148.342E-12	553.191E-3	-18.7167E-3	-148.201E-12	571.435E-3	-37.6189E-3
-1.75838E-3	-149.018E-12	567.382E-3	-9.86870E-3	-147.712E-12	578.951E-3	-22.8142E-3
-1.76338E-3	-149.235E-12	581.552E-3	4.98062E-3	-148.389E-12	563.318E-3	-4.33736E-3
-1.76838E-3	-150.182E-12	578.947E-3	2.80346E-3	-149.696E-12	545.215E-3	5.39268E-3
-1.77339E-3	-152.018E-12	579.479E-3	-18.7671E-3	-149.785E-12	554.683E-3	13.3418E-3
-1.77839E-3	-152.638E-12	586.091E-3	-35.8195E-3	-149.804E-12	564.069E-3	11.7442E-3
-1.78339E-3	-151.795E-12	582.368E-3	-25.1550E-3	-150.117E-12	580.084E-3	-1.30379E-3
-1.78839E-3	-151.945E-12	568.800E-3	-10.3166E-3	-150.085E-12	597.420E-3	-17.2512E-3
-1.79340E-3	-152.671E-12	571.978E-3	-11.7865E-3	-150.048E-12	579.862E-3	-37.0082E-3
-1.79840E-3	-152.181E-12	599.194E-3	-14.4061E-3	-149.687E-12	571.104E-3	-31.1327E-3
-1.80340E-3	-151.839E-12	618.190E-3	-18.3357E-3	-150.142E-12	594.325E-3	8.88087E-3
-1.80840E-3	-150.862E-12	604.240E-3	-22.7530E-3	-149.431E-12	605.916E-3	22.7730E-3
-1.81341E-3	-149.870E-12	587.290E-3	-30.6160E-3	-149.018E-12	604.953E-3	15.5763E-3
-1.81841E-3	-151.049E-12	596.658E-3	-38.6451E-3	-150.483E-12	616.551E-3	16.3669E-3
-1.82341E-3	-151.302E-12	604.531E-3	-15.2374E-3	-150.390E-12	638.548E-3	855.321E-6
-1.82841E-3	-151.241E-12	587.571E-3	3.07344E-3	-149.921E-12	633.720E-3	-16.3493E-3
-1.83342E-3	-151.878E-12	569.258E-3	-2.53543E-3	-151.590E-12	602.259E-3	-6.92684E-3
-1.83842E-3	-152.157E-12	547.672E-3	-18.6912E-3	-152.869E-12	599.612E-3	8.68564E-3
-1.84342E-3	-151.699E-12	534.262E-3	-49.5175E-3	-153.046E-12	617.665E-3	11.3807E-3
-1.84842E-3	-152.405E-12	567.855E-3	-46.9588E-3	-152.979E-12	635.011E-3	-1.35329E-3
-1.85343E-3	-152.940E-12	601.317E-3	-21.6495E-3	-154.484E-12	636.554E-3	-26.7348E-3
-1.85843E-3	-153.318E-12	599.749E-3	-11.9989E-3	-153.416E-12	612.635E-3	-30.9962E-3
-1.86343E-3	-153.576E-12	595.581E-3	-10.5050E-3	-154.241E-12	602.058E-3	-22.0564E-3
-1.86843E-3	-154.793E-12	614.812E-3	-18.7572E-3	-153.911E-12	608.203E-3	-38.8820E-3
-1.87344E-3	-155.019E-12	656.536E-3	-19.4333E-3	-154.611E-12	622.773E-3	-47.0342E-3
-1.87844E-3	-154.565E-12	669.022E-3	-12.1287E-3	-154.238E-12	634.798E-3	-21.7292E-3
-1.88344E-3	-154.317E-12	634.283E-3	-12.3874E-3	-153.411E-12	626.357E-3	-759.931E-6
-1.88844E-3	-154.437E-12	603.478E-3	-9.33534E-3	-153.529E-12	611.226E-3	-4.93744E-3
-1.89345E-3	-155.381E-12	598.118E-3	1.21100E-3	-153.924E-12	610.239E-3	-36.9792E-3
-1.89845E-3	-155.365E-12	597.160E-3	-7.45043E-3	-154.553E-12	618.327E-3	-71.7587E-3
-1.90345E-3	-154.147E-12	594.549E-3	-30.0812E-3	-152.839E-12	600.465E-3	-69.9267E-3
-1.90845E-3	-154.400E-12	588.801E-3	-22.6842E-3	-152.723E-12	568.266E-3	-36.3869E-3
-1.91346E-3	-155.412E-12	583.138E-3	-757.734E-6	-153.518E-12	561.945E-3	78.6478E-6
-1.91846E-3	-155.939E-12	586.266E-3	5.31520E-3	-154.906E-12	581.349E-3	11.0000E-3
-1.92346E-3	-154.666E-12	593.523E-3	-7.56930E-3	-156.066E-12	613.229E-3	-6.58507E-3
-1.92846E-3	-153.968E-12	603.948E-3	-27.3820E-3	-155.890E-12	639.178E-3	-18.6046E-3
-1.93347E-3	-154.338E-12	607.417E-3	-26.3260E-3	-156.187E-12	637.500E-3	-12.7293E-3
-1.93847E-3	-154.725E-12	599.931E-3	-22.5410E-3	-156.737E-12	623.338E-3	-12.8271E-3
-1.94347E-3	-155.290E-12	606.896E-3	-25.1034E-3	-158.243E-12	614.435E-3	-23.5110E-3
-1.94847E-3	-154.678E-12	622.256E-3	-18.3763E-3	-156.624E-12	607.281E-3	-34.9589E-3
-1.95348E-3	-154.720E-12	626.259E-3	-19.2385E-3	-155.940E-12	609.787E-3	-45.3213E-3
-1.95848E-3	-155.581E-12	620.022E-3	-24.4526E-3	-156.596E-12	621.236E-3	-37.1304E-3
-1.96348E-3	-156.617E-12	606.402E-3	-24.6057E-3	-157.837E-12	616.364E-3	-18.6139E-3
-1.96848E-3	-155.655E-12	605.152E-3	-21.8906E-3	-156.056E-12	597.554E-3	-23.3531E-3
-1.97349E-3	-155.449E-12	607.712E-3	-22.2423E-3	-154.361E-12	587.675E-3	-33.4938E-3
-1.97849E-3	-156.971E-12	597.014E-3	-27.4875E-3	-155.279E-12	582.398E-3	-34.5062E-3
-1.98349E-3	-158.297E-12	597.441E-3	-14.8404E-3	-155.675E-12	577.843E-3	-35.7835E-3
-1.98849E-3	-158.079E-12	613.889E-3	1.26266E-3	-156.987E-12	588.872E-3	-31.4389E-3
-1.99350E-3	-157.483E-12	630.919E-3	1.51047E-3	-155.377E-12	610.029E-3	-24.1789E-3
-1.99850E-3	-158.480E-12	643.188E-3	3.76706E-3	-156.219E-12	625.522E-3	-18.7882E-3
-2.00350E-3	-159.325E-12	647.037E-3	9.88396E-3	-156.606E-12	629.261E-3	-24.5523E-3
-2.00850E-3	-160.105E-12	650.713E-3	15.7633E-3	-158.571E-12	625.471E-3	-38.4602E-3
-2.01351E-3	-158.895E-12	654.344E-3	10.0623E-3	-158.207E-12	635.469E-3	-45.3502E-3
-2.01851E-3	-158.333E-12	648.456E-3	-11.8197E-3	-159.267E-12	639.075E-3	-38.1202E-3
-2.02351E-3	-159.465E-12	646.673E-3	-16.5025E-3	-160.113E-12	624.005E-3	-21.2101E-3
-2.02851E-3	-159.639E-12	640.205E-3	-6.91040E-3	-160.750E-12	633.735E-3	-20.3939E-3
-2.03352E-3	-159.291E-12	627.996E-3	-13.4356E-3	-160.610E-12	658.407E-3	-24.7932E-3
-2.03852E-3	-159.435E-12	637.080E-3	-8.32006E-3	-160.031E-12	658.529E-3	-24.3227E-3
-2.04352E-3	-160.137E-12	647.028E-3	-753.087E-6	-160.258E-12	648.548E-3	-15.8062E-3
-2.04852E-3	-159.069E-12	646.685E-3	-18.6478E-3	-159.719E-12	640.108E-3	-4.89478E-3
-2.05353E-3	-158.880E-12	640.138E-3	-23.5494E-3	-159.648E-12	631.457E-3	-13.1598E-3
-2.05853E-3	-158.996E-12	629.492E-3	-21.1530E-3	-159.082E-12	635.962E-3	-21.5610E-3
-2.06353E-3	-159.236E-12	625.779E-3	-27.0497E-3	-158.545E-12	645.226E-3	-24.7582E-3
-2.06853E-3	-159.779E-12	612.769E-3	-11.6963E-3	-159.013E-12	650.428E-3	-18.8076E-3
-2.07354E-3	-160.724E-12	607.694E-3	6.39427E-3	-159.133E-12	646.163E-3	-12.7566E-3
-2.07854E-3	-161.002E-12	616.388E-3	2.93263E-3	-159.581E-12	644.185E-3	-18.2890E-3
-2.08354E-3	-162.807E-12	611.022E-3	-11.0434E-3	-159.172E-12	655.331E-3	-27.2856E-3
-2.08854E-3	-163.787E-12	611.708E-3	-22.3314E-3	-160.021E-12	652.152E-3	-28.8529E-3
-2.09355E-3	-164.075E-12	630.748E-3	-31.1128E-3	-161.106E-12	649.168E-3	-16.0361E-3
-2.09855E-3	-163.565E-12	646.259E-3	-40.4050E-3	-161.959E-12	649.031E-3	-13.7448E-3
-2.10355E-3	-164.472E-12	647.149E-3	-41.5119E-3	-161.511E-12	640.188E-3	-25.3372E-3
-2.10855E-3	-165.308E-12	633.163E-3	-37.5326E-3	-161.224E-12	624.995E-3	-25.5602E-3
-2.11356E-3	-165.421E-12	620.582E-3	-28.5104E-3	-162.886E-12	607.493E-3	-16.7974E-3
-2.11856E-3	-164.086E-12	638.252E-3	-9.46979E-3	-164.371E-12	616.057E-3	-8.35349E-3
-2.12356E-3	-163.829E-12	700.738E-3	-16.5771E-3	-164.235E-12	625.838E-3	-8.33585E-3
-2.12856E-3	-164.644E-12	755.769E-3	-36.1276E-3	-164.764E-12	617.116E-3	-16.7109E-3
-2.13357E-3	-163.639E-12	728.142E-3	-47.7214E-3	-165.384E-12	618.545E-3	-8.36369E-3
-2.13857E-3	-162.854E-12	658.548E-3	-53.8738E-3	-166.130E-12	626.740E-3	7.78343E-3
-2.14357E-3	-162.015E-12	625.786E-3	-23.8112E-3	-164.641E-12	642.350E-3	-4.73318E-3
-2.14857E-3	-162.944E-12	635.401E-3	8.86053E-3	-164.139E-12	652.806E-3	-18.1096E-3
-2.15358E-3	-163.072E-12	643.489E-3	-4.71265E-3	-164.518E-12	647.293E-3	5.59146E-3
-2.15858E-3	-164.476E-12	631.282E-3	-32.7619E-3	-165.506E-12	657.010E-3	38.9420E-3
-2.16358E-3	-164.351E-12	648.244E-3	-17.8560E-3	-166.245E-12	666.968E-3	43.7762E-3
-2.16858E-3	-164.304E-12	663.270E-3	17.4173E-3	-165.529E-12	667.298E-3	12.2314E-3
-2.17359E-3	-165.910E-12	637.041E-3	15.0668E-3	-165.612E-12	666.507E-3	-22.3626E-3
-2.17859E-3	-166.010E-12	633.686E-3	-6.83731E-3	-166.597E-12	666.519E-3	-24.3713E-3
-2.18359E-3	-166.814E-12	648.171E-3	-19.9005E-3	-167.433E-12	677.446E-3	-26.2083E-3
-2.18859E-3	-168.064E-12	661.511E-3	-9.75542E-3	-167.257E-12	685.301E-3	-38.0538E-3
-2.19360E-3	-169.045E-12	681.428E-3	9.93152E-3	-168.190E-12	679.789E-3	-36.3049E-3
-2.19860E-3	-168.683E-12	669.014E-3	20.3047E-3	-168.392E-12	653.984E-3	-38.5067E-3
-2.20360E-3	-169.696E-12	645.166E-3	19.3326E-3	-168.858E-12	617.963E-3	-30.2112E-3
-2.20860E-3	-169.527E-12	637.992E-3	7.24919E-3	-168.737E-12	612.286E-3	-12.0800E-3
-2.21361E-3	-169.503E-12	634.532E-3	-2.55150E-3	-168.577E-12	626.924E-3	-11.1043E-3
-2.21861E-3	-168.214E-12	645.704E-3	-4.78918E-3	-167.990E-12	625.338E-3	-18.6250E-3
-2.22361E-3	-167.343E-12	655.490E-3	-213.991E-6	-167.648E-12	619.888E-3	-26.6131E-3
-2.22861E-3	-167.012E-12	662.035E-3	3.71477E-3	-168.640E-12	632.405E-3	-31.5096E-3
-2.23362E-3	-166.070E-12	664.755E-3	5.06069E-3	-167.994E-12	644.213E-3	-41.8102E-3
-2.23862E-3	-166.896E-12	653.239E-3	7.31473E-3	-167.298E-12	627.462E-3	-43.6680E-3
-2.24362E-3	-167.402E-12	653.276E-3	9.90789E-3	-166.140E-12	611.968E-3	-10.9459E-3
-2.24862E-3	-167.277E-12	675.882E-3	9.59205E-3	-166.912E-12	626.388E-3	5.99463E-3
-2.25363E-3	-168.188E-12	688.205E-3	11.4655E-3	-167.601E-12	630.182E-3	43.3520E-6
-2.25863E-3	-168.658E-12	673.565E-3	358.574E-6	-169.047E-12	619.768E-3	-319.676E-6
-2.26363E-3	-168.756E-12	656.945E-3	-17.5797E-3	-168.612E-12	625.376E-3	-8.00737E-3
-2.26863E-3	-168.095E-12	655.345E-3	-11.5597E-3	-167.887E-12	637.207E-3	-6.57653E-3
-2.27364E-3	-168.863E-12	668.025E-3	-1.56498E-3	-169.541E-12	654.317E-3	-1.77584E-3
-2.27864E-3	-169.533E-12	669.726E-3	-6.81604E-3	-169.941E-12	675.191E-3	-8.86424E-3
-2.28364E-3	-170.919E-12	667.876E-3	-8.92478E-3	-171.175E-12	676.471E-3	-16.2004E-3
-2.28864E-3	-170.787E-12	668.453E-3	-13.5320E-3	-171.579E-12	663.866E-3	-31.6063E-3
-2.29365E-3	-171.723E-12	635.865E-3	-20.0500E-3	-171.322E-12	650.176E-3	-37.6564E-3
-2.29865E-3	-171.920E-12	616.896E-3	-3.34099E-3	-171.607E-12	638.639E-3	-1.91762E-3
-2.30365E-3	-172.563E-12	642.171E-3	19.2374E-3	-172.099E-12	629.746E-3	10.3733E-3
-2.30865E-3	-172.852E-12	652.590E-3	23.4846E-3	-171.493E-12	626.695E-3	-12.8494E-3
-2.31366E-3	-172.714E-12	638.184E-3	8.62252E-3	-169.903E-12	625.316E-3	-38.8098E-6
-2.31866E-3	-172.365E-12	634.712E-3	6.30646E-3	-170.234E-12	614.430E-3	5.63620E-3
-2.32366E-3	-172.264E-12	650.789E-3	28.5213E-3	-171.140E-12	613.124E-3	-35.2226E-3
-2.32866E-3	-173.008E-12	657.497E-3	26.9529E-3	-170.593E-12	624.568E-3	-73.7037E-3
-2.33367E-3	-171.559E-12	657.163E-3	1.39621E-3	-169.451E-12	627.971E-3	-66.3105E-3
-2.33867E-3	-172.287E-12	659.991E-3	-14.4872E-3	-169.518E-12	630.865E-3	-36.9566E-3
-2.34367E-3	-172.473E-12	644.682E-3	-22.5095E-3	-171.695E-12	655.043E-3	-30.0600E-3
-2.34867E-3	-172.519E-12	633.363E-3	-37.8305E-3	-172.510E-12	690.115E-3	-33.7182E-3
-2.35368E-3	-172.164E-12	645.564E-3	-60.7609E-3	-172.540E-12	696.724E-3	-35.9241E-3
-2.35868E-3	-172.534E-12	653.707E-3	-72.3920E-3	-173.202E-12	667.857E-3	-52.7048E-3
-2.36368E-3	-172.685E-12	653.377E-3	-50.1393E-3	-175.104E-12	650.855E-3	-54.9626E-3
-2.36868E-3	-172.683E-12	648.708E-3	-8.01003E-3	-175.918E-12	666.383E-3	-36.3253E-3
-2.37369E-3	-173.372E-12	645.019E-3	23.1506E-3	-176.358E-12	667.928E-3	-28.9182E-3
-2.37869E-3	-173.531E-12	646.328E-3	36.2627E-3	-175.796E-12	654.056E-3	-25.8148E-3
-2.38369E-3	-174.361E-12	641.874E-3	18.0665E-3	-176.538E-12	653.709E-3	-14.6966E-3
-2.38869E-3	-174.816E-12	645.840E-3	-29.0271E-3	-176.290E-12	649.731E-3	-4.85866E-3
-2.39370E-3	-176.170E-12	661.391E-3	-49.0265E-3	-175.732E-12	646.473E-3	-20.9098E-3
-2.39870E-3	-176.163E-12	662.717E-3	-23.5752E-3	-173.948E-12	654.303E-3	-36.4800E-3
-2.40370E-3	-176.689E-12	648.530E-3	2.17980E-3	-174.421E-12	648.344E-3	-18.2547E-3
-2.40870E-3	-177.298E-12	645.240E-3	5.99167E-3	-174.143E-12	642.572E-3	-489.459E-6
-2.41371E-3	-178.150E-12	645.473E-3	-7.85224E-3	-174.568E-12	675.303E-3	-4.01209E-3
-2.41871E-3	-178.845E-12	640.846E-3	-8.28919E-3	-172.904E-12	700.166E-3	-18.9488E-3
-2.42371E-3	-178.633E-12	649.508E-3	5.34259E-3	-172.724E-12	664.160E-3	-23.6211E-3
-2.42871E-3	-179.128E-12	663.950E-3	17.5918E-3	-174.558E-12	617.289E-3	-30.7060E-3
-2.43372E-3	-179.475E-12	684.377E-3	22.7335E-3	-176.005E-12	616.743E-3	-49.1503E-3
-2.43872E-3	-178.902E-12	694.297E-3	5.54122E-3	-176.052E-12	651.559E-3	-38.5804E-3
-2.44372E-3	-178.554E-12	673.065E-3	-1.70882E-3	-175.019E-12	680.202E-3	-28.9180E-3
-2.44872E-3	-179.162E-12	641.036E-3	-1.31598E-3	-176.260E-12	666.239E-3	-38.2138E-3
-2.45373E-3	-178.354E-12	641.267E-3	-15.1047E-3	-179.468E-12	664.273E-3	-40.2321E-3
-2.45873E-3	-177.657E-12	655.358E-3	-19.6017E-3	-179.566E-12	708.512E-3	-37.4532E-3
-2.46373E-3	-178.496E-12	650.173E-3	-18.3292E-3	-180.222E-12	732.054E-3	-10.7810E-3
-2.46873E-3	-178.980E-12	654.199E-3	-10.8683E-3	-180.494E-12	715.983E-3	14.4818E-3
-2.47374E-3	-179.274E-12	654.668E-3	5.36906E-3	-182.039E-12	687.054E-3	5.05216E-3
-2.47874E-3	-178.941E-12	649.015E-3	10.0704E-3	-181.876E-12	652.479E-3	-31.3598E-3
-2.48374E-3	-178.737E-12	661.769E-3	-3.49485E-3	-182.334E-12	632.822E-3	-55.3658E-3
-2.48874E-3	-180.411E-12	670.767E-3	-20.0052E-3	-180.508E-12	651.614E-3	-40.6115E-3
-2.49375E-3	-180.995E-12	657.822E-3	-32.0040E-3	-179.896E-12	666.505E-3	-16.7928E-3
-2.49875E-3	-180.906E-12	663.680E-3	-31.2382E-3	-179.960E-12	656.793E-3	12.9772E-3
-2.50375E-3	-181.647E-12	707.222E-3	-3.36756E-3	-180.316E-12	654.111E-3	13.7251E-3
-2.50875E-3	-182.410E-12	719.704E-3	2.12873E-3	-179.783E-12	647.717E-3	-24.1136E-3
-2.51376E-3	-183.028E-12	696.196E-3	-22.0545E-3	-180.106E-12	635.464E-3	-42.6503E-3
-2.51876E-3	-182.838E-12	673.717E-3	-26.4496E-3	-180.205E-12	637.775E-3	-39.8177E-3
-2.52376E-3	-182.626E-12	646.110E-3	-24.2391E-3	-180.695E-12	641.208E-3	-31.4395E-3
-2.52876E-3	-183.416E-12	635.918E-3	-18.5721E-3	-181.056E-12	644.846E-3	-13.4020E-3
-2.53377E-3	-183.452E-12	648.272E-3	-9.81741E-3	-180.898E-12	661.418E-3	-8.34305E-3
-2.53877E-3	-182.598E-12	661.016E-3	-8.25833E-3	-181.214E-12	676.520E-3	-25.1647E-3
-2.54377E-3	-181.837E-12	672.574E-3	-11.1895E-3	-181.867E-12	669.907E-3	-17.2399E-3
-2.54877E-3	-182.290E-12	671.133E-3	-18.0655E-3	-183.356E-12	650.703E-3	6.75076E-3
-2.55378E-3	-180.753E-12	661.887E-3	-21.4895E-3	-183.898E-12	632.284E-3	8.37703E-3
-2.55878E-3	-181.420E-12	673.791E-3	-36.4907E-3	-184.339E-12	638.011E-3	-3.70374E-3
-2.56378E-3	-181.468E-12	696.009E-3	-45.0819E-3	-184.920E-12	672.354E-3	-34.9883E-3
-2.56878E-3	-181.361E-12	681.675E-3	-29.8285E-3	-184.592E-12	690.380E-3	-63.4917E-3
-2.57379E-3	-180.620E-12	649.989E-3	-22.8306E-3	-185.525E-12	692.690E-3	-39.8110E-3
-2.57879E-3	-181.628E-12	641.476E-3	-12.8190E-3	-184.657E-12	694.425E-3	-12.5690E-3
-2.58379E-3	-181.656E-12	634.741E-3	-4.53621E-3	-184.128E-12	687.620E-3	-26.0207E-3
-2.58879E-3	-182.498E-12	622.037E-3	-17.9462E-3	-184.945E-12	689.437E-3	-44.1402E-3
-2.59380E-3	-183.640E-12	624.583E-3	-22.8259E-3	-185.642E-12	705.230E-3	-48.4824E-3
-2.59880E-3	-183.736E-12	644.819E-3	1.53300E-3	-184.715E-12	709.711E-3	-40.9789E-3
-2.60380E-3	-185.139E-12	682.349E-3	31.6303E-3	-184.790E-12	694.478E-3	-23.8940E-3
-2.60880E-3	-185.237E-12	701.464E-3	28.6185E-3	-185.057E-12	682.251E-3	-15.1184E-3
-2.61381E-3	-186.816E-12	680.537E-3	3.05496E-3	-186.138E-12	675.691E-3	-18.2201E-3
-2.61881E-3	-187.271E-12	681.851E-3	-24.1809E-3	-186.899E-12	670.607E-3	-17.5514E-3
-2.62381E-3	-186.523E-12	701.693E-3	-30.2197E-3	-187.567E-12	677.869E-3	-26.7216E-3
-2.62881E-3	-187.043E-12	696.029E-3	-11.3411E-3	-187.676E-12	671.790E-3	-43.4636E-3
-2.63382E-3	-187.502E-12	684.215E-3	3.89873E-3	-187.886E-12	653.384E-3	-43.2976E-3
-2.63882E-3	-187.379E-12	679.859E-3	-6.11222E-3	-187.693E-12	671.129E-3	-34.9152E-3
-2.64382E-3	-186.310E-12	671.523E-3	-14.2212E-3	-187.832E-12	723.440E-3	-18.0325E-3
-2.64882E-3	-187.017E-12	663.915E-3	5.40254E-3	-187.489E-12	733.600E-3	10.2515E-3
-2.65383E-3	-186.824E-12	677.988E-3	8.33586E-3	-186.652E-12	673.786E-3	13.5252E-3
-2.65883E-3	-186.966E-12	675.678E-3	408.177E-6	-186.770E-12	625.036E-3	-10.4390E-3
-2.66383E-3	-187.227E-12	650.404E-3	-9.70241E-3	-186.709E-12	637.264E-3	-16.7335E-3
-2.66883E-3	-187.611E-12	648.213E-3	-19.9763E-3	-186.212E-12	667.744E-3	-4.32478E-3
-2.67384E-3	-186.791E-12	677.031E-3	3.87806E-3	-186.226E-12	675.808E-3	-10.0037E-3
-2.67884E-3	-186.949E-12	718.425E-3	17.8823E-3	-184.861E-12	678.208E-3	-23.9412E-3
-2.68384E-3	-187.193E-12	738.655E-3	1.21497E-3	-186.258E-12	679.868E-3	-16.7031E-3
-2.68884E-3	-188.296E-12	722.629E-3	1.52284E-3	-187.475E-12	688.356E-3	3.26309E-3
-2.69385E-3	-188.256E-12	710.933E-3	-8.14155E-3	-188.518E-12	706.189E-3	17.6955E-3
-2.69885E-3	-189.051E-12	721.632E-3	-17.6774E-3	-188.261E-12	693.269E-3	28.7330E-3
-2.70385E-3	-189.049E-12	714.093E-3	11.5210E-3	-189.988E-12	662.086E-3	18.1136E-3
-2.70885E-3	-190.282E-12	695.958E-3	32.4502E-3	-191.387E-12	653.716E-3	-18.4433E-3
-2.71386E-3	-190.764E-12	692.076E-3	33.7184E-3	-191.227E-12	653.233E-3	-25.9616E-3
-2.71886E-3	-191.166E-12	672.365E-3	19.4703E-3	-191.165E-12	658.435E-3	-11.1486E-3
-2.72386E-3	-189.919E-12	655.150E-3	-6.27422E-3	-191.624E-12	673.011E-3	-4.42759E-3
-2.72886E-3	-191.317E-12	657.445E-3	-7.62778E-3	-191.529E-12	685.014E-3	13.6856E-3
-2.73387E-3	-191.901E-12	638.014E-3	1.37867E-3	-190.542E-12	704.141E-3	19.1809E-3
-2.73887E-3	-191.904E-12	625.233E-3	-16.6605E-3	-190.846E-12	701.523E-3	-13.9926E-3
-2.74387E-3	-192.140E-12	653.609E-3	-39.2660E-3	-189.848E-12	656.691E-3	-58.0570E-3
-2.74887E-3	-192.314E-12	694.234E-3	-24.1856E-3	-190.198E-12	632.152E-3	-69.2819E-3
-2.75388E-3	-191.998E-12	708.026E-3	-11.5041E-3	-189.644E-12	642.804E-3	-51.2108E-3
-2.75888E-3	-192.468E-12	692.860E-3	-35.8402E-3	-188.564E-12	663.722E-3	-45.0397E-3
-2.76388E-3	-190.742E-12	675.161E-3	-41.2511E-3	-189.262E-12	700.344E-3	-36.3698E-3
-2.76888E-3	-190.962E-12	655.175E-3	-10.1764E-3	-188.669E-12	720.740E-3	-25.0673E-3
-2.77389E-3	-191.913E-12	642.602E-3	-5.51993E-3	-190.147E-12	713.961E-3	-37.5023E-3
-2.77889E-3	-192.327E-12	633.567E-3	-41.4118E-3	-190.346E-12	688.086E-3	-34.3407E-3
-2.78389E-3	-191.902E-12	622.295E-3	-51.4907E-3	-192.274E-12	657.446E-3	9.54912E-3
-2.78889E-3	-192.542E-12	631.238E-3	-25.0715E-3	-192.290E-12	661.620E-3	32.2241E-3
-2.79390E-3	-192.653E-12	666.632E-3	-16.8210E-3	-195.104E-12	676.649E-3	-1.85839E-3
-2.79890E-3	-194.471E-12	689.674E-3	-25.7995E-3	-195.877E-12	680.548E-3	-37.1742E-3
-2.80390E-3	-195.588E-12	675.717E-3	-12.3469E-3	-196.715E-12	680.345E-3	-12.8684E-3
-2.80890E-3	-194.831E-12	678.709E-3	15.1682E-3	-197.666E-12	657.542E-3	29.6128E-3
-2.81391E-3	-194.751E-12	693.300E-3	11.5090E-3	-197.395E-12	652.763E-3	37.0195E-3
-2.81891E-3	-196.092E-12	681.655E-3	-19.0169E-3	-197.752E-12	682.693E-3	21.1101E-3
-2.82391E-3	-197.614E-12	673.904E-3	-17.2727E-3	-195.591E-12	701.092E-3	-5.60780E-3
-2.82891E-3	-197.497E-12	666.911E-3	17.5460E-3	-196.854E-12	702.526E-3	-29.0754E-3
-2.83392E-3	-197.144E-12	656.405E-3	30.5457E-3	-195.377E-12	671.867E-3	-11.8982E-3
-2.83892E-3	-198.007E-12	668.883E-3	182.486E-6	-194.636E-12	636.654E-3	11.8678E-3
-2.84392E-3	-198.755E-12	699.610E-3	-29.4831E-3	-194.441E-12	663.128E-3	-2.17468E-3
-2.84892E-3	-198.907E-12	731.351E-3	-31.8910E-3	-194.258E-12	713.639E-3	3.16815E-3
-2.85393E-3	-198.206E-12	746.837E-3	-28.3708E-3	-194.321E-12	713.681E-3	36.1825E-3
-2.85893E-3	-197.294E-12	721.958E-3	-16.0029E-3	-194.178E-12	698.425E-3	35.5000E-3
-2.86393E-3	-197.923E-12	677.244E-3	-10.3733E-3	-194.566E-12	704.502E-3	-43.3953E-6
-2.86893E-3	-197.497E-12	672.180E-3	-29.6717E-3	-195.388E-12	684.453E-3	-20.2507E-3
-2.87394E-3	-197.282E-12	689.124E-3	-35.0376E-3	-196.604E-12	655.289E-3	-10.4004E-3
-2.87894E-3	-196.193E-12	691.533E-3	-16.3918E-3	-198.569E-12	668.927E-3	-8.21545E-3
-2.88394E-3	-197.055E-12	675.305E-3	-15.7141E-3	-198.779E-12	694.745E-3	-27.0608E-3
-2.88894E-3	-197.082E-12	657.137E-3	-40.1519E-3	-198.634E-12	710.331E-3	-36.0746E-3
-2.89395E-3	-197.463E-12	672.852E-3	-61.9185E-3	-199.875E-12	724.320E-3	-12.8105E-3
-2.89895E-3	-197.362E-12	711.631E-3	-66.5411E-3	-201.706E-12	714.471E-3	8.99152E-3
-2.90395E-3	-196.806E-12	738.139E-3	-53.2054E-3	-201.638E-12	695.322E-3	-22.5452E-3
-2.90895E-3	-198.028E-12	722.126E-3	-32.5881E-3	-199.852E-12	707.279E-3	-58.6303E-3
-2.91396E-3	-198.312E-12	691.422E-3	-21.4201E-3	-200.522E-12	719.003E-3	-49.7437E-3
-2.91896E-3	-199.306E-12	689.369E-3	-10.0220E-3	-200.467E-12	725.490E-3	-50.6413E-3
-2.92396E-3	-198.864E-12	695.481E-3	-9.86425E-3	-199.704E-12	731.261E-3	-59.9020E-3
-2.92896E-3	-199.023E-12	694.972E-3	-37.6203E-3	-199.658E-12	712.311E-3	-39.9576E-3
-2.93397E-3	-200.256E-12	713.007E-3	-52.4056E-3	-198.136E-12	709.123E-3	-4.36302E-3
-2.93897E-3	-199.680E-12	734.063E-3	-40.7267E-3	-199.033E-12	725.938E-3	14.9874E-3
-2.94397E-3	-199.658E-12	722.315E-3	-53.7032E-3	-200.062E-12	714.578E-3	-6.22074E-3
-2.94897E-3	-198.350E-12	701.122E-3	-61.4055E-3	-200.010E-12	699.146E-3	-25.9851E-3
-2.95398E-3	-200.502E-12	697.613E-3	-29.9426E-3	-198.728E-12	697.537E-3	-29.1846E-3
-2.95898E-3	-200.582E-12	700.905E-3	-6.84019E-3	-199.894E-12	686.849E-3	-28.0766E-3
-2.96398E-3	-201.571E-12	695.917E-3	-7.29047E-3	-202.190E-12	672.127E-3	-16.5344E-3
-2.96898E-3	-200.718E-12	690.337E-3	-25.1862E-3	-203.172E-12	672.215E-3	-16.2090E-3
-2.97399E-3	-200.979E-12	694.605E-3	-38.0259E-3	-203.263E-12	684.535E-3	-17.4899E-3
-2.97899E-3	-201.346E-12	696.439E-3	-6.81148E-3	-203.005E-12	692.509E-3	-4.97815E-3
-2.98399E-3	-200.979E-12	689.798E-3	27.5587E-3	-203.382E-12	694.372E-3	6.85140E-3
-2.98899E-3	-200.673E-12	689.771E-3	12.1768E-3	-203.776E-12	702.368E-3	15.2243E-3
-2.99400E-3	-200.050E-12	700.681E-3	-2.67392E-3	-203.883E-12	700.548E-3	21.7139E-3
-2.99900E-3	-201.881E-12	696.250E-3	945.278E-6	-203.207E-12	674.786E-3	21.4100E-3
-3.00400E-3	-202.954E-12	692.924E-3	-23.6062E-3	-202.453E-12	666.621E-3	11.5970E-3
-3.00900E-3	-202.553E-12	704.972E-3	-44.8038E-3	-201.722E-12	680.114E-3	10.9515E-3
-3.01401E-3	-202.769E-12	701.226E-3	-7.80996E-3	-202.181E-12	680.701E-3	9.14607E-3
-3.01901E-3	-203.447E-12	683.776E-3	21.7154E-3	-202.385E-12	663.826E-3	143.276E-6
-3.02401E-3	-205.990E-12	683.400E-3	10.1626E-3	-201.238E-12	650.528E-3	-8.73591E-3
-3.02901E-3	-206.113E-12	697.936E-3	16.6927E-3	-201.018E-12	650.454E-3	-11.7027E-3
-3.03402E-3	-205.657E-12	699.070E-3	21.8343E-3	-202.427E-12	655.422E-3	-7.37660E-3
-3.03902E-3	-205.494E-12	708.049E-3	7.75033E-3	-203.838E-12	672.125E-3	1.56198E-3
-3.04402E-3	-208.140E-12	710.783E-3	-22.1519E-3	-204.413E-12	717.446E-3	18.2064E-3
-3.04902E-3	-207.190E-12	681.002E-3	-55.5346E-3	-203.791E-12	743.557E-3	11.2847E-3
-3.05403E-3	-207.227E-12	675.309E-3	-70.8315E-3	-205.431E-12	711.103E-3	-19.9209E-3
-3.05903E-3	-206.733E-12	684.525E-3	-71.6690E-3	-205.934E-12	695.414E-3	-39.1751E-3
-3.06403E-3	-207.659E-12	667.411E-3	-38.2518E-3	-207.335E-12	724.717E-3	-56.3014E-3
-3.06903E-3	-208.302E-12	652.849E-3	-2.65273E-3	-206.264E-12	725.351E-3	-56.4074E-3
-3.07404E-3	-207.126E-12	659.373E-3	-11.5282E-3	-206.028E-12	695.374E-3	-38.4420E-3
-3.07904E-3	-206.066E-12	675.150E-3	-31.9960E-3	-206.175E-12	677.186E-3	-50.7547E-3
-3.08404E-3	-205.184E-12	685.678E-3	-29.8849E-3	-207.575E-12	663.770E-3	-57.4694E-3
-3.08904E-3	-206.937E-12	702.769E-3	-16.0101E-3	-206.301E-12	671.645E-3	-25.6789E-3
-3.09405E-3	-206.156E-12	700.528E-3	3.33675E-3	-205.259E-12	691.264E-3	-5.84575E-3
-3.09905E-3	-206.142E-12	671.214E-3	13.3783E-3	-203.988E-12	697.661E-3	-6.02295E-3
-3.10405E-3	-205.047E-12	665.934E-3	-7.65615E-3	-205.569E-12	704.527E-3	-18.6446E-3
-3.10905E-3	-206.907E-12	663.956E-3	-24.0165E-3	-205.687E-12	699.710E-3	-45.7874E-3
-3.11406E-3	-208.483E-12	639.300E-3	-34.8431E-3	-205.178E-12	680.050E-3	-28.3031E-3
-3.11906E-3	-207.622E-12	633.603E-3	-47.8292E-3	-204.964E-12	673.886E-3	8.82989E-3
-3.12406E-3	-207.261E-12	659.756E-3	-17.7549E-3	-206.419E-12	682.526E-3	-1.04069E-3
-3.12906E-3	-208.634E-12	691.212E-3	7.95519E-3	-209.108E-12	693.355E-3	-5.62338E-3
-3.13407E-3	-209.900E-12	718.380E-3	-11.5734E-3	-209.835E-12	700.364E-3	-9.35108E-3
-3.13907E-3	-209.509E-12	716.690E-3	-49.1519E-3	-210.235E-12	698.499E-3	-43.8724E-3
-3.14407E-3	-209.808E-12	677.174E-3	-65.9316E-3	-211.327E-12	695.074E-3	-59.5133E-3
-3.14907E-3	-210.701E-12	670.819E-3	-53.1284E-3	-213.205E-12	697.793E-3	-57.4686E-3
-3.15408E-3	-211.302E-12	697.287E-3	-37.6725E-3	-212.860E-12	702.593E-3	-52.5051E-3
-3.15908E-3	-211.637E-12	687.722E-3	-16.9391E-3	-212.507E-12	679.143E-3	-35.3159E-3
-3.16408E-3	-209.940E-12	682.252E-3	3.62006E-3	-211.840E-12	651.513E-3	-21.1995E-3
-3.16908E-3	-210.654E-12	691.225E-3	-15.1977E-3	-211.748E-12	668.002E-3	-18.1685E-3
-3.17409E-3	-211.739E-12	681.971E-3	-57.4651E-3	-211.339E-12	692.045E-3	2.11031E-3
-3.17909E-3	-211.553E-12	679.282E-3	-65.8025E-3	-210.245E-12	705.981E-3	32.5296E-3
-3.18409E-3	-211.281E-12	665.657E-3	-58.6657E-3	-208.804E-12	710.070E-3	4.11176E-3
-3.18909E-3	-210.405E-12	639.749E-3	-61.4279E-3	-208.914E-12	687.060E-3	-43.6193E-3
-3.19410E-3	-210.240E-12	644.650E-3	-61.2472E-3	-210.753E-12	668.468E-3	-24.9702E-3
-3.19910E-3	-210.170E-12	673.402E-3	-45.4503E-3	-210.614E-12	685.220E-3	10.3179E-3
-3.20410E-3	-210.943E-12	691.376E-3	-33.3239E-3	-209.768E-12	706.555E-3	268.808E-6
-3.20910E-3	-211.222E-12	694.731E-3	-26.7403E-3	-210.981E-12	690.191E-3	-22.0040E-3
-3.21411E-3	-211.115E-12	686.568E-3	2.64334E-3	-212.888E-12	689.284E-3	-36.0374E-3
-3.21911E-3	-211.309E-12	653.644E-3	15.6727E-3	-214.520E-12	705.790E-3	-19.7943E-3
-3.22411E-3	-212.922E-12	625.645E-3	2.84773E-3	-213.738E-12	697.931E-3	12.7892E-3
-3.22911E-3	-212.654E-12	619.107E-3	-2.76152E-3	-215.357E-12	710.326E-3	6.43585E-3
-3.23412E-3	-213.704E-12	630.866E-3	1.54408E-3	-218.227E-12	729.113E-3	-18.5004E-3
-3.23912E-3	-214.901E-12	675.666E-3	2.13765E-3	-218.437E-12	720.050E-3	-37.7598E-3
-3.24412E-3	-215.202E-12	693.657E-3	2.22402E-3	-218.433E-12	699.521E-3	-48.8029E-3
-3.24912E-3	-215.421E-12	660.496E-3	6.30613E-3	-218.743E-12	700.919E-3	-35.0202E-3
-3.25413E-3	-215.191E-12	655.751E-3	-4.26065E-3	-217.339E-12	708.601E-3	-8.99117E-3
-3.25913E-3	-215.797E-12	691.463E-3	-1.48926E-3	-216.158E-12	694.190E-3	10.7968E-3
-3.26413E-3	-214.835E-12	706.927E-3	255.685E-6	-216.491E-12	681.879E-3	32.7659E-3
-3.26913E-3	-214.886E-12	698.499E-3	-28.0061E-3	-214.725E-12	701.371E-3	39.1631E-3
-3.27414E-3	-213.823E-12	698.393E-3	-23.4513E-3	-213.317E-12	729.564E-3	21.4638E-3
-3.27914E-3	-213.636E-12	699.053E-3	10.3842E-3	-213.515E-12	715.615E-3	6.09671E-3
-3.28414E-3	-215.508E-12	693.348E-3	7.81501E-3	-213.925E-12	676.619E-3	19.1079E-3
-3.28914E-3	-215.177E-12	696.284E-3	-16.7343E-3	-213.180E-12	666.022E-3	37.2413E-3
-3.29415E-3	-215.175E-12	677.938E-3	-26.7729E-3	-212.569E-12	657.551E-3	16.3268E-3
-3.29915E-3	-212.508E-12	657.975E-3	-15.8501E-3	-213.324E-12	637.594E-3	-11.1792E-3
-3.30415E-3	-213.453E-12	675.532E-3	6.49113E-3	-216.575E-12	661.254E-3	-15.6095E-3
-3.30915E-3	-215.677E-12	681.981E-3	6.91002E-3	-217.407E-12	679.223E-3	-14.6602E-3
-3.31416E-3	-216.600E-12	681.604E-3	-14.1436E-3	-216.949E-12	652.738E-3	-13.7773E-3
-3.31916E-3	-215.364E-12	700.323E-3	-16.9966E-3	-217.587E-12	642.520E-3	-6.92800E-3
-3.32416E-3	-215.654E-12	696.815E-3	-10.7678E-3	-220.087E-12	657.385E-3	-1.49793E-3
-3.32916E-3	-217.889E-12	668.834E-3	-21.9811E-3	-220.430E-12	653.186E-3	-8.46677E-3
-3.33417E-3	-217.266E-12	666.590E-3	-28.8283E-3	-219.688E-12	647.025E-3	7.25187E-3
-3.33917E-3	-216.748E-12	691.035E-3	-25.1480E-3	-218.445E-12	673.062E-3	37.1236E-3
-3.34417E-3	-217.666E-12	711.586E-3	-23.8148E-3	-217.404E-12	689.758E-3	6.29731E-3
-3.34917E-3	-219.382E-12	704.058E-3	-4.06635E-3	-217.067E-12	674.026E-3	-30.3157E-3
-3.35418E-3	-217.364E-12	667.936E-3	21.8395E-3	-216.732E-12	669.659E-3	-17.2357E-3
-3.35918E-3	-215.796E-12	639.485E-3	2.75869E-3	-215.383E-12	688.692E-3	-19.8996E-3
-3.36418E-3	-217.396E-12	617.711E-3	-35.3166E-3	-214.889E-12	671.005E-3	-16.5148E-3
-3.36918E-3	-218.940E-12	607.392E-3	-32.2719E-3	-215.873E-12	643.938E-3	377.956E-6
-3.37419E-3	-219.452E-12	636.787E-3	-15.4857E-3	-216.185E-12	669.424E-3	-25.5190E-3
-3.37919E-3	-217.285E-12	685.533E-3	-4.60057E-3	-216.691E-12	690.500E-3	-43.6661E-3
-3.38419E-3	-217.476E-12	701.422E-3	21.6340E-3	-217.457E-12	675.076E-3	-25.3588E-3
-3.38919E-3	-218.295E-12	693.327E-3	11.2193E-3	-218.105E-12	668.183E-3	-19.9831E-3
-3.39420E-3	-219.748E-12	690.543E-3	-28.4280E-3	-220.688E-12	671.126E-3	-24.0052E-3
-3.39920E-3	-218.290E-12	670.654E-3	-42.2334E-3	-222.796E-12	661.340E-3	-26.7595E-3
-3.40420E-3	-217.766E-12	643.513E-3	-47.0689E-3	-223.149E-12	667.045E-3	-34.6274E-3
-3.40920E-3	-218.941E-12	650.208E-3	-51.3521E-3	-222.679E-12	695.747E-3	-34.6775E-3
-3.41421E-3	-219.637E-12	657.944E-3	-42.2580E-3	-224.723E-12	711.364E-3	-26.2763E-3
-3.41921E-3	-221.360E-12	639.614E-3	-26.0345E-3	-225.580E-12	703.090E-3	-18.2802E-3
-3.42421E-3	-219.631E-12	637.906E-3	-13.7718E-3	-223.970E-12	685.199E-3	-28.7743E-3
-3.42921E-3	-220.411E-12	660.358E-3	10.7108E-3	-222.430E-12	672.159E-3	-48.7892E-3
-3.43422E-3	-220.100E-12	681.591E-3	26.7459E-3	-222.803E-12	670.707E-3	-45.8831E-3
-3.43922E-3	-222.633E-12	684.032E-3	1.33149E-3	-222.324E-12	667.534E-3	-26.4289E-3
-3.44422E-3	-222.583E-12	663.598E-3	-24.5009E-3	-221.442E-12	670.206E-3	-12.0895E-3
-3.44922E-3	-223.385E-12	649.656E-3	-18.1989E-3	-221.216E-12	683.222E-3	-31.3812E-3
-3.45423E-3	-223.151E-12	655.553E-3	-14.9679E-3	-220.974E-12	673.350E-3	-62.7820E-3
-3.45923E-3	-224.469E-12	669.025E-3	-38.8739E-3	-221.842E-12	682.706E-3	-52.9330E-3
-3.46423E-3	-225.283E-12	661.990E-3	-51.9153E-3	-222.426E-12	715.737E-3	-46.5056E-3
-3.46923E-3	-224.965E-12	648.913E-3	-40.9197E-3	-222.686E-12	686.637E-3	-56.5724E-3
-3.47424E-3	-225.572E-12	669.581E-3	-40.4538E-3	-222.646E-12	645.323E-3	-22.6022E-3
-3.47924E-3	-225.837E-12	705.429E-3	-35.0628E-3	-226.156E-12	662.298E-3	-3.36779E-3
-3.48424E-3	-226.478E-12	716.241E-3	-44.2860E-3	-228.690E-12	665.683E-3	-16.4389E-3
-3.48924E-3	-225.067E-12	692.645E-3	-60.3907E-3	-229.188E-12	642.996E-3	-8.62012E-3
-3.49425E-3	-224.688E-12	666.930E-3	-42.6705E-3	-227.592E-12	651.294E-3	-18.6475E-3
-3.49925E-3	-224.350E-12	671.610E-3	-30.9556E-3	-228.639E-12	671.344E-3	-45.1576E-3
-3.50425E-3	-223.930E-12	709.474E-3	-19.3716E-3	-230.825E-12	679.661E-3	-53.4177E-3
-3.50925E-3	-223.120E-12	719.412E-3	-3.12395E-3	-230.341E-12	675.478E-3	-53.2917E-3
-3.51426E-3	-223.049E-12	688.638E-3	-8.78238E-3	-228.174E-12	671.190E-3	-43.0480E-3
-3.51926E-3	-223.567E-12	662.906E-3	-25.0055E-3	-226.761E-12	665.434E-3	-23.5323E-3
-3.52426E-3	-224.273E-12	634.293E-3	-32.4710E-3	-226.756E-12	652.137E-3	-9.45467E-3
-3.52926E-3	-224.508E-12	636.741E-3	-42.2750E-3	-226.924E-12	644.892E-3	-8.12472E-3
-3.53427E-3	-225.361E-12	674.024E-3	-50.2533E-3	-225.864E-12	640.354E-3	7.03200E-3
-3.53927E-3	-227.086E-12	687.639E-3	-38.2839E-3	-224.793E-12	634.872E-3	25.6764E-3
-3.54427E-3	-228.080E-12	678.753E-3	-19.9413E-3	-224.241E-12	629.169E-3	8.02128E-3
-3.54927E-3	-228.009E-12	662.072E-3	-18.2306E-3	-226.483E-12	627.351E-3	-26.2782E-3
-3.55428E-3	-228.348E-12	656.156E-3	-17.4897E-3	-228.224E-12	649.961E-3	-55.7369E-3
-3.55928E-3	-229.380E-12	663.531E-3	1.24509E-3	-227.587E-12	677.496E-3	-69.8417E-3
-3.56428E-3	-229.649E-12	659.028E-3	11.9206E-3	-228.372E-12	668.131E-3	-42.9125E-3
-3.56928E-3	-229.864E-12	661.896E-3	-13.2756E-3	-229.902E-12	655.312E-3	1.34495E-3
-3.57429E-3	-229.770E-12	683.350E-3	-40.1093E-3	-232.414E-12	656.313E-3	14.9002E-3
-3.57929E-3	-229.727E-12	692.562E-3	-40.0434E-3	-231.725E-12	661.052E-3	20.1515E-3
-3.58429E-3	-228.652E-12	661.810E-3	-41.1062E-3	-230.649E-12	679.148E-3	29.6127E-3
-3.58929E-3	-229.975E-12	620.381E-3	-46.9098E-3	-231.826E-12	677.467E-3	23.8070E-3
-3.59430E-3	-229.443E-12	611.499E-3	-41.3057E-3	-234.198E-12	655.934E-3	33.2367E-3
-3.59930E-3	-228.580E-12	619.498E-3	-6.86886E-3	-232.854E-12	666.479E-3	33.8771E-3
-3.60430E-3	-227.085E-12	627.379E-3	4.32722E-3	-230.086E-12	684.314E-3	-17.9532E-3
-3.60930E-3	-228.314E-12	643.552E-3	-41.1863E-3	-229.047E-12	641.651E-3	-30.8296E-3
-3.61431E-3	-228.040E-12	657.393E-3	-53.4638E-3	-230.202E-12	599.858E-3	8.10600E-3
-3.61931E-3	-229.846E-12	663.662E-3	-35.8400E-3	-228.453E-12	620.350E-3	17.2752E-3
-3.62431E-3	-228.839E-12	673.488E-3	-24.0286E-3	-228.530E-12	650.106E-3	19.7494E-3
-3.62931E-3	-228.414E-12	655.914E-3	-4.13822E-3	-228.347E-12	662.340E-3	11.5869E-3
-3.63432E-3	-228.975E-12	634.784E-3	837.089E-6	-229.456E-12	650.641E-3	-19.6354E-3
-3.63932E-3	-231.268E-12	666.340E-3	-5.07809E-3	-230.137E-12	632.282E-3	-15.4960E-3
-3.64432E-3	-230.932E-12	696.703E-3	-14.1674E-3	-230.811E-12	636.418E-3	1.25174E-3
-3.64932E-3	-230.027E-12	685.466E-3	-37.1962E-3	-232.770E-12	649.715E-3	-9.72154E-3
-3.65433E-3	-231.615E-12	674.125E-3	-66.3866E-3	-233.489E-12	661.629E-3	-35.8506E-3
-3.65933E-3	-233.293E-12	671.322E-3	-43.3534E-3	-232.778E-12	671.707E-3	-48.4449E-3
-3.66433E-3	-234.670E-12	658.282E-3	-1.56840E-3	-233.975E-12	678.535E-3	-37.0093E-3
-3.66933E-3	-234.931E-12	654.643E-3	-12.6860E-3	-236.918E-12	672.043E-3	-14.5474E-3
-3.67434E-3	-232.878E-12	655.667E-3	-16.6448E-3	-235.283E-12	667.995E-3	2.23734E-3
-3.67934E-3	-234.984E-12	634.500E-3	-1.23006E-3	-234.891E-12	682.051E-3	1.64433E-3
-3.68434E-3	-235.883E-12	630.159E-3	-4.79867E-3	-234.674E-12	670.884E-3	-17.6647E-3
-3.68934E-3	-236.757E-12	667.113E-3	-10.3833E-3	-233.638E-12	642.114E-3	-36.6571E-3
-3.69435E-3	-235.442E-12	696.799E-3	-21.6202E-3	-232.156E-12	635.647E-3	-31.5242E-3
-3.69935E-3	-234.812E-12	700.557E-3	-49.9252E-3	-231.598E-12	636.072E-3	-23.6468E-3
-3.70435E-3	-235.997E-12	694.316E-3	-52.4988E-3	-230.576E-12	632.978E-3	-17.9311E-3
-3.70935E-3	-236.211E-12	682.141E-3	-18.0425E-3	-230.966E-12	632.108E-3	-17.1845E-3
-3.71436E-3	-236.305E-12	681.645E-3	1.33698E-3	-231.936E-12	630.334E-3	-14.4166E-3
-3.71936E-3	-235.357E-12	709.049E-3	-16.3817E-3	-230.791E-12	655.786E-3	7.04336E-3
-3.72436E-3	-235.631E-12	701.192E-3	-32.3238E-3	-231.289E-12	698.312E-3	11.8037E-3
-3.72936E-3	-235.584E-12	640.642E-3	-21.7225E-3	-232.764E-12	692.539E-3	-7.82990E-3
-3.73437E-3	-236.699E-12	630.079E-3	-3.80709E-3	-234.304E-12	661.586E-3	-23.0164E-3
-3.73937E-3	-236.019E-12	663.160E-3	4.76430E-3	-235.394E-12	653.054E-3	-10.1720E-3
-3.74437E-3	-235.110E-12	664.646E-3	-12.2852E-3	-235.043E-12	625.482E-3	48.1475E-3
-3.74937E-3	-236.536E-12	651.586E-3	-47.1742E-3	-236.534E-12	606.326E-3	97.8867E-3
-3.75438E-3	-238.807E-12	637.979E-3	-50.6042E-3	-237.434E-12	641.126E-3	72.0613E-3
-3.75938E-3	-240.307E-12	626.369E-3	-30.6572E-3	-239.150E-12	667.834E-3	33.1846E-3
-3.76438E-3	-240.527E-12	633.556E-3	-5.07159E-3	-238.513E-12	659.067E-3	26.7863E-3
-3.76938E-3	-239.446E-12	630.224E-3	14.9733E-3	-237.618E-12	649.454E-3	-8.57321E-3
-3.77439E-3	-241.029E-12	623.036E-3	-12.7276E-3	-236.443E-12	658.164E-3	-57.1411E-3
-3.77939E-3	-242.662E-12	640.409E-3	-56.9123E-3	-237.822E-12	669.723E-3	-65.9719E-3
-3.78439E-3	-242.723E-12	656.810E-3	-53.1772E-3	-236.309E-12	679.642E-3	-58.9099E-3
-3.78939E-3	-240.771E-12	665.290E-3	-6.85239E-3	-235.179E-12	674.756E-3	-56.4401E-3
-3.79440E-3	-240.860E-12	672.789E-3	31.8658E-3	-234.904E-12	649.980E-3	-35.2100E-3
-3.79940E-3	-240.876E-12	673.649E-3	32.1464E-3	-235.446E-12	647.182E-3	3.82801E-3
-3.80440E-3	-240.767E-12	670.571E-3	18.4583E-3	-236.607E-12	654.022E-3	26.0477E-3
-3.80940E-3	-240.306E-12	674.113E-3	285.121E-6	-236.413E-12	656.111E-3	29.4121E-3
-3.81441E-3	-238.309E-12	694.202E-3	-9.99253E-3	-238.243E-12	670.592E-3	18.6052E-3
-3.81941E-3	-238.217E-12	702.860E-3	14.1301E-3	-239.153E-12	656.716E-3	-6.05711E-3
-3.82441E-3	-239.277E-12	682.812E-3	23.7367E-3	-241.392E-12	625.727E-3	-1.49635E-3
-3.82941E-3	-240.727E-12	662.138E-3	15.7491E-3	-242.422E-12	633.394E-3	33.4940E-3
-3.83442E-3	-239.373E-12	656.958E-3	14.0338E-3	-242.047E-12	665.305E-3	42.8809E-3
-3.83942E-3	-239.427E-12	658.547E-3	20.0777E-3	-242.681E-12	685.035E-3	40.6572E-3
-3.84442E-3	-239.355E-12	643.294E-3	37.3887E-3	-242.666E-12	684.561E-3	48.5541E-3
-3.84942E-3	-241.341E-12	632.261E-3	19.4706E-3	-244.122E-12	667.253E-3	26.3471E-3
-3.85443E-3	-241.902E-12	652.983E-3	-21.2858E-3	-243.612E-12	649.878E-3	-23.8517E-3
-3.85943E-3	-241.548E-12	676.729E-3	-28.7243E-3	-242.557E-12	659.049E-3	-43.0017E-3
-3.86443E-3	-241.507E-12	691.427E-3	-10.2059E-3	-241.146E-12	681.286E-3	-19.8257E-3
-3.86943E-3	-243.626E-12	694.213E-3	-4.83977E-3	-239.921E-12	680.642E-3	-2.03865E-3
-3.87444E-3	-245.693E-12	671.998E-3	-25.8309E-3	-239.392E-12	664.878E-3	-24.7761E-3
-3.87944E-3	-244.432E-12	654.508E-3	-38.8748E-3	-237.673E-12	654.287E-3	-45.2814E-3
-3.88444E-3	-242.790E-12	669.358E-3	-26.3049E-3	-238.445E-12	654.186E-3	-37.0832E-3
-3.88944E-3	-242.955E-12	718.006E-3	-18.8222E-3	-237.744E-12	668.708E-3	-16.6151E-3
-3.89445E-3	-244.509E-12	747.144E-3	-18.5834E-3	-240.136E-12	687.682E-3	54.8176E-6
-3.89945E-3	-243.629E-12	719.477E-3	-17.9461E-3	-241.796E-12	699.531E-3	-7.50353E-3
-3.90445E-3	-243.160E-12	684.205E-3	-11.1177E-3	-243.937E-12	701.935E-3	-22.1753E-3
-3.90945E-3	-243.117E-12	671.506E-3	19.6127E-3	-243.212E-12	712.388E-3	-7.26001E-3
-3.91446E-3	-242.926E-12	659.103E-3	44.6123E-3	-244.595E-12	711.808E-3	18.0806E-3
-3.91946E-3	-241.773E-12	668.564E-3	37.8216E-3	-245.714E-12	697.211E-3	31.2188E-3
-3.92446E-3	-241.035E-12	690.778E-3	14.3794E-3	-245.509E-12	694.620E-3	36.3922E-3
-3.92946E-3	-239.891E-12	676.454E-3	-17.2499E-3	-247.896E-12	668.819E-3	16.8867E-3
-3.93447E-3	-240.106E-12	657.516E-3	-33.8610E-3	-247.180E-12	634.067E-3	-8.73418E-3
-3.93947E-3	-241.726E-12	650.929E-3	-20.9599E-3	-245.906E-12	658.832E-3	-22.2262E-3
-3.94447E-3	-242.864E-12	668.865E-3	-18.1131E-3	-244.588E-12	699.349E-3	-5.94548E-3
-3.94947E-3	-242.920E-12	697.153E-3	-17.7302E-3	-245.393E-12	694.700E-3	32.5579E-3
-3.95448E-3	-243.722E-12	694.022E-3	-12.4949E-3	-244.912E-12	668.736E-3	16.4477E-3
-3.95948E-3	-245.311E-12	677.477E-3	-18.0694E-3	-241.979E-12	646.711E-3	1.60314E-3
-3.96448E-3	-248.072E-12	671.839E-3	3.17298E-3	-241.466E-12	646.473E-3	22.7774E-3
-3.96948E-3	-247.637E-12	694.903E-3	32.1931E-3	-242.410E-12	657.091E-3	12.1402E-3
-3.97449E-3	-246.108E-12	731.316E-3	19.6778E-3	-244.122E-12	655.436E-3	20.6521E-3
-3.97949E-3	-248.100E-12	738.879E-3	-17.3354E-3	-243.303E-12	651.165E-3	14.4285E-3
-3.98449E-3	-249.099E-12	737.926E-3	-54.6280E-3	-243.890E-12	664.335E-3	-46.0506E-3
-3.98949E-3	-248.657E-12	723.903E-3	-57.7050E-3	-245.058E-12	692.330E-3	-53.3356E-3
-3.99450E-3	-247.827E-12	676.929E-3	-32.8268E-3	-247.873E-12	702.857E-3	8.98263E-3
-3.99950E-3	-247.311E-12	644.150E-3	-3.82158E-3	-248.816E-12	682.608E-3	33.7001E-3
-4.00450E-3	-247.753E-12	648.731E-3	12.9827E-3	-247.422E-12	647.727E-3	-6.63806E-3
-4.00950E-3	-248.639E-12	675.100E-3	-4.89738E-3	-247.948E-12	622.769E-3	-22.9653E-3
-4.01451E-3	-248.050E-12	698.424E-3	5.32711E-3	-249.572E-12	660.542E-3	-12.8878E-3
-4.01951E-3	-246.131E-12	698.415E-3	22.1634E-3	-249.763E-12	708.381E-3	-26.9374E-3
-4.02451E-3	-246.170E-12	690.834E-3	2.25175E-3	-248.472E-12	679.624E-3	-9.51767E-3
-4.02951E-3	-245.815E-12	681.021E-3	5.92334E-3	-248.299E-12	646.762E-3	33.8399E-3
-4.03452E-3	-247.258E-12	654.721E-3	10.5676E-3	-246.720E-12	646.963E-3	17.6781E-3
-4.03952E-3	-247.449E-12	659.096E-3	-10.4777E-3	-246.498E-12	656.233E-3	-33.7138E-3
-4.04452E-3	-246.612E-12	697.628E-3	-28.7939E-3	-246.998E-12	678.436E-3	-65.3770E-3
-4.04952E-3	-247.324E-12	706.539E-3	-37.2507E-3	-245.692E-12	690.931E-3	-72.7155E-3
-4.05453E-3	-248.737E-12	687.082E-3	-34.1874E-3	-243.506E-12	679.276E-3	-42.0317E-3
-4.05953E-3	-250.075E-12	687.643E-3	-30.8394E-3	-246.227E-12	677.810E-3	-5.74051E-3
-4.06453E-3	-249.634E-12	710.041E-3	-34.5767E-3	-249.086E-12	715.278E-3	-9.44743E-3
-4.06953E-3	-250.958E-12	722.634E-3	-26.3909E-3	-249.944E-12	737.411E-3	-25.8510E-3
-4.07454E-3	-250.683E-12	726.597E-3	-16.1160E-3	-249.544E-12	711.678E-3	-32.2935E-3
-4.07954E-3	-252.740E-12	708.039E-3	-23.0015E-3	-251.660E-12	672.777E-3	-45.1895E-3
-4.08454E-3	-255.254E-12	682.282E-3	-36.8913E-3	-254.125E-12	654.399E-3	-78.7665E-3
-4.08954E-3	-254.290E-12	674.448E-3	-46.1664E-3	-254.599E-12	677.963E-3	-85.9188E-3
-4.09455E-3	-252.763E-12	654.846E-3	-25.6830E-3	-253.459E-12	725.139E-3	-48.6870E-3
-4.09955E-3	-253.634E-12	642.964E-3	-4.36694E-3	-253.141E-12	752.533E-3	-16.2487E-3
-4.10455E-3	-255.259E-12	676.142E-3	-27.2825E-3	-253.044E-12	731.358E-3	-11.3863E-3
-4.10955E-3	-254.660E-12	721.694E-3	-48.6687E-3	-252.402E-12	691.821E-3	-36.5524E-3
-4.11456E-3	-254.933E-12	745.508E-3	-36.8959E-3	-251.477E-12	670.430E-3	-49.4689E-3
-4.11956E-3	-252.730E-12	745.777E-3	-10.4695E-3	-252.375E-12	669.063E-3	-35.7792E-3
-4.12456E-3	-254.279E-12	709.122E-3	5.58376E-3	-250.902E-12	682.235E-3	-14.1564E-3
-4.12956E-3	-253.458E-12	667.645E-3	-24.2197E-3	-249.879E-12	674.198E-3	436.044E-6
-4.13457E-3	-251.625E-12	669.152E-3	-50.8793E-3	-249.753E-12	680.440E-3	-30.2711E-3
-4.13957E-3	-250.773E-12	687.146E-3	-18.2000E-3	-250.279E-12	740.625E-3	-57.2166E-3
-4.14457E-3	-252.478E-12	664.375E-3	-4.29916E-3	-250.260E-12	769.196E-3	-36.1664E-3
-4.14957E-3	-252.619E-12	623.513E-3	-28.9828E-3	-250.562E-12	746.826E-3	-1.53919E-3
-4.15458E-3	-252.774E-12	614.782E-3	-13.7233E-3	-252.847E-12	704.387E-3	25.5088E-3
-4.15958E-3	-253.864E-12	620.065E-3	15.4221E-3	-254.083E-12	639.026E-3	26.4966E-3
-4.16458E-3	-254.033E-12	634.556E-3	16.1217E-3	-255.194E-12	604.950E-3	27.2607E-3
-4.16958E-3	-255.093E-12	660.246E-3	16.4488E-3	-256.848E-12	648.153E-3	27.5787E-3
-4.17459E-3	-254.781E-12	661.046E-3	27.9869E-3	-258.335E-12	700.863E-3	7.18077E-3
-4.17959E-3	-256.859E-12	633.289E-3	14.9812E-3	-258.510E-12	696.932E-3	-8.39173E-3
-4.18459E-3	-257.289E-12	628.704E-3	-14.7692E-3	-257.599E-12	675.106E-3	-33.8366E-3
-4.18959E-3	-257.325E-12	648.298E-3	-22.5106E-3	-257.560E-12	662.700E-3	-44.4841E-3
-4.19460E-3	-258.841E-12	665.011E-3	-14.7858E-3	-258.196E-12	691.890E-3	-19.8523E-3
-4.19960E-3	-259.907E-12	677.485E-3	-738.874E-6	-257.488E-12	743.496E-3	1.06546E-3
-4.20460E-3	-260.472E-12	684.961E-3	-116.926E-6	-256.550E-12	729.360E-3	340.959E-6
-4.20960E-3	-259.302E-12	714.357E-3	-41.4801E-3	-255.853E-12	686.133E-3	-12.2869E-3
-4.21461E-3	-256.844E-12	738.911E-3	-83.4376E-3	-254.964E-12	675.457E-3	-20.2097E-3
-4.21961E-3	-256.632E-12	720.161E-3	-62.7961E-3	-255.873E-12	686.671E-3	-35.3242E-3
-4.22461E-3	-257.708E-12	709.211E-3	-3.41424E-3	-254.958E-12	722.049E-3	-55.4626E-3
-4.22961E-3	-255.945E-12	690.424E-3	15.1425E-3	-256.505E-12	750.980E-3	-6.52708E-3
-4.23462E-3	-253.809E-12	680.386E-3	-30.4857E-3	-256.042E-12	728.903E-3	66.2869E-3
-4.23962E-3	-254.488E-12	704.636E-3	-64.1701E-3	-258.145E-12	675.349E-3	50.5299E-3
-4.24462E-3	-255.732E-12	700.941E-3	-37.4969E-3	-259.810E-12	673.383E-3	21.1574E-3
-4.24962E-3	-258.055E-12	693.734E-3	13.4719E-3	-261.368E-12	718.899E-3	24.9261E-3
-4.25463E-3	-257.187E-12	706.818E-3	48.3336E-3	-261.948E-12	726.069E-3	21.2970E-3
-4.25963E-3	-256.707E-12	701.923E-3	45.2567E-3	-263.817E-12	723.339E-3	6.97242E-3
-4.26463E-3	-258.526E-12	689.853E-3	-7.31813E-3	-265.000E-12	722.846E-3	-14.0268E-3
-4.26963E-3	-260.242E-12	693.387E-3	-60.4419E-3	-265.365E-12	692.594E-3	-14.0648E-3
-4.27464E-3	-261.123E-12	688.549E-3	-21.0986E-3	-263.958E-12	691.560E-3	12.7538E-3
-4.27964E-3	-260.664E-12	655.112E-3	47.1544E-3	-264.042E-12	704.311E-3	11.4535E-3
-4.28464E-3	-261.107E-12	647.835E-3	37.6724E-3	-263.761E-12	652.040E-3	-38.6265E-3
-4.28964E-3	-261.488E-12	686.091E-3	-2.30613E-3	-263.327E-12	612.859E-3	-61.1727E-3
-4.29465E-3	-262.662E-12	705.302E-3	-31.6778E-3	-263.042E-12	662.794E-3	-51.0704E-3
-4.29965E-3	-264.234E-12	711.663E-3	-49.4908E-3	-261.298E-12	704.575E-3	-49.0772E-3
-4.30465E-3	-263.904E-12	730.725E-3	-35.9650E-3	-258.950E-12	689.510E-3	-28.9119E-3
-4.30965E-3	-263.989E-12	720.578E-3	-7.17992E-3	-259.556E-12	674.816E-3	-24.8963E-3
-4.31466E-3	-263.604E-12	707.287E-3	-22.7962E-3	-260.711E-12	679.309E-3	-42.5945E-3
-4.31966E-3	-265.008E-12	746.130E-3	-47.7885E-3	-262.224E-12	700.089E-3	-34.1647E-3
-4.32466E-3	-263.088E-12	763.298E-3	-29.6879E-3	-263.265E-12	699.101E-3	-22.6602E-3
-4.32966E-3	-264.224E-12	724.900E-3	-33.5021E-3	-263.380E-12	669.886E-3	-18.4960E-3
-4.33467E-3	-264.212E-12	700.884E-3	-72.6510E-3	-264.608E-12	679.217E-3	9.56218E-3
-4.33967E-3	-264.972E-12	685.807E-3	-82.0466E-3	-266.129E-12	718.090E-3	2.76384E-3
-4.34467E-3	-263.983E-12	666.358E-3	-56.4125E-3	-267.483E-12	713.724E-3	-55.6139E-3
-4.34967E-3	-264.497E-12	659.488E-3	-20.0897E-3	-266.739E-12	685.336E-3	-49.2563E-3
-4.35468E-3	-264.254E-12	671.059E-3	12.9551E-3	-266.774E-12	690.806E-3	14.5036E-3
-4.35968E-3	-264.501E-12	679.218E-3	8.66117E-3	-266.917E-12	676.939E-3	31.9700E-3
-4.36468E-3	-265.041E-12	686.244E-3	-27.4680E-3	-266.724E-12	652.426E-3	27.5571E-3
-4.36968E-3	-265.555E-12	717.091E-3	-39.3122E-3	-265.318E-12	689.950E-3	20.2825E-3
-4.37469E-3	-265.441E-12	714.222E-3	-18.8931E-3	-264.626E-12	717.726E-3	-18.3749E-3
-4.37969E-3	-265.638E-12	691.535E-3	-16.4150E-3	-265.275E-12	680.757E-3	-56.8647E-3
-4.38469E-3	-265.950E-12	686.961E-3	-16.5234E-3	-264.512E-12	643.437E-3	-50.9619E-3
-4.38969E-3	-267.739E-12	656.619E-3	-11.1026E-3	-263.772E-12	623.688E-3	-587.550E-6
-4.39470E-3	-268.040E-12	641.324E-3	-8.10509E-3	-263.416E-12	599.663E-3	14.9913E-3
-4.39970E-3	-267.572E-12	642.878E-3	15.3679E-3	-263.816E-12	592.478E-3	-19.7546E-3
-4.40470E-3	-267.682E-12	606.756E-3	-7.91522E-3	-265.887E-12	627.671E-3	-22.5555E-3
-4.40970E-3	-269.889E-12	616.592E-3	-64.0159E-3	-265.772E-12	657.737E-3	29.6651E-3
-4.41471E-3	-270.235E-12	655.708E-3	-63.1601E-3	-265.747E-12	664.558E-3	53.7378E-3
-4.41971E-3	-270.015E-12	628.796E-3	-24.7055E-3	-268.079E-12	669.148E-3	17.8385E-3
-4.42471E-3	-269.054E-12	609.828E-3	-2.73571E-3	-269.030E-12	655.554E-3	729.623E-6
-4.42971E-3	-269.006E-12	630.020E-3	4.36343E-3	-270.488E-12	653.413E-3	8.00399E-3
-4.43472E-3	-269.862E-12	670.620E-3	18.8510E-3	-270.461E-12	663.480E-3	-9.55732E-3
-4.43972E-3	-269.428E-12	699.619E-3	-449.645E-6	-270.095E-12	652.844E-3	-25.8564E-3
-4.44472E-3	-269.249E-12	683.159E-3	-29.4202E-3	-268.406E-12	646.898E-3	-35.8135E-3
-4.44972E-3	-268.187E-12	679.709E-3	-19.6632E-3	-268.853E-12	675.681E-3	-62.6676E-3
-4.45473E-3	-267.644E-12	714.530E-3	-9.01393E-3	-268.658E-12	715.953E-3	-73.1058E-3
-4.45973E-3	-266.277E-12	749.591E-3	-4.55349E-3	-267.627E-12	702.171E-3	-61.4742E-3
-4.46473E-3	-265.606E-12	730.444E-3	14.8791E-3	-266.146E-12	640.140E-3	-47.5586E-3
-4.46973E-3	-266.069E-12	676.559E-3	15.3330E-3	-266.697E-12	606.916E-3	-30.2661E-3
-4.47474E-3	-267.012E-12	655.306E-3	-30.3011E-3	-265.661E-12	636.847E-3	-27.7580E-3
-4.47974E-3	-266.885E-12	654.058E-3	-46.4469E-3	-264.955E-12	672.124E-3	-41.4730E-3
-4.48474E-3	-267.972E-12	648.083E-3	-31.4931E-3	-264.652E-12	667.472E-3	-17.0907E-3
-4.48974E-3	-268.965E-12	635.738E-3	-38.5540E-3	-266.442E-12	664.815E-3	12.6033E-3
-4.49475E-3	-268.853E-12	633.955E-3	-43.8231E-3	-268.141E-12	670.984E-3	-10.1080E-3
-4.49975E-3	-269.833E-12	677.696E-3	-28.1223E-3	-268.638E-12	657.107E-3	-41.3169E-3
-4.50475E-3	-272.335E-12	715.493E-3	19.8243E-3	-269.761E-12	642.430E-3	-49.5571E-3
-4.50975E-3	-273.370E-12	675.308E-3	23.1199E-3	-269.918E-12	641.165E-3	-46.7963E-3
-4.51476E-3	-273.352E-12	611.865E-3	-5.71927E-3	-272.000E-12	632.764E-3	-42.9271E-3
-4.51976E-3	-272.893E-12	605.953E-3	9.94093E-3	-273.171E-12	632.809E-3	-8.46474E-3
-4.52476E-3	-274.260E-12	623.499E-3	15.0862E-3	-274.023E-12	642.251E-3	31.0220E-3
-4.52976E-3	-274.205E-12	643.318E-3	-12.3829E-3	-273.963E-12	648.913E-3	15.7191E-3
-4.53477E-3	-274.422E-12	678.470E-3	-12.2886E-3	-273.607E-12	669.272E-3	-6.04886E-3
-4.53977E-3	-273.079E-12	676.479E-3	13.0204E-3	-272.930E-12	677.676E-3	-15.7036E-3
-4.54477E-3	-272.337E-12	647.376E-3	29.2928E-3	-271.408E-12	650.508E-3	-37.7993E-3
-4.54977E-3	-271.999E-12	624.987E-3	32.2098E-3	-271.056E-12	640.659E-3	-28.7142E-3
-4.55478E-3	-270.891E-12	618.125E-3	2.84905E-3	-268.727E-12	670.529E-3	18.5857E-3
-4.55978E-3	-270.068E-12	641.983E-3	-14.6220E-3	-269.305E-12	679.766E-3	29.8951E-3
-4.56478E-3	-270.844E-12	661.812E-3	-17.2606E-3	-269.014E-12	660.292E-3	19.4771E-3
-4.56978E-3	-271.818E-12	668.754E-3	-18.5915E-3	-270.065E-12	663.557E-3	45.9641E-3
-4.57479E-3	-272.410E-12	670.860E-3	-15.1133E-3	-268.258E-12	675.997E-3	38.6735E-3
-4.57979E-3	-272.169E-12	645.445E-3	-39.0131E-3	-269.369E-12	665.089E-3	-27.4296E-3
-4.58479E-3	-272.350E-12	628.943E-3	-46.8040E-3	-273.461E-12	662.385E-3	-54.9708E-3
-4.58979E-3	-272.721E-12	647.693E-3	-10.1779E-3	-275.036E-12	685.206E-3	-35.8785E-3
-4.59480E-3	-274.367E-12	684.981E-3	25.1372E-3	-275.385E-12	699.778E-3	-15.9705E-3
-4.59980E-3	-274.872E-12	690.926E-3	19.9249E-3	-275.699E-12	692.828E-3	20.6107E-3
-4.60480E-3	-275.501E-12	643.644E-3	-12.3458E-3	-277.701E-12	691.493E-3	48.1393E-3
-4.60980E-3	-276.624E-12	614.239E-3	-6.37630E-3	-279.059E-12	693.420E-3	29.4721E-3
-4.61481E-3	-277.920E-12	641.912E-3	14.6632E-3	-280.296E-12	678.777E-3	-9.72905E-3
-4.61981E-3	-277.861E-12	665.943E-3	3.19697E-3	-279.920E-12	656.629E-3	-43.0169E-3
-4.62481E-3	-278.238E-12	640.309E-3	-9.55386E-3	-280.504E-12	645.000E-3	-29.3127E-3
-4.62981E-3	-279.330E-12	620.056E-3	-11.8504E-3	-280.384E-12	635.937E-3	22.9331E-3
-4.63482E-3	-279.290E-12	626.807E-3	4.64262E-3	-280.221E-12	624.100E-3	57.6481E-3
-4.63982E-3	-277.580E-12	652.785E-3	12.4916E-3	-278.114E-12	628.816E-3	45.4590E-3
-4.64482E-3	-276.664E-12	663.121E-3	-6.06078E-3	-278.949E-12	626.649E-3	4.60981E-3
-4.64982E-3	-277.744E-12	639.962E-3	-11.2581E-3	-279.192E-12	606.279E-3	-21.8888E-3
-4.65483E-3	-276.832E-12	649.330E-3	-21.2575E-3	-279.731E-12	627.931E-3	-26.6293E-3
-4.65983E-3	-275.597E-12	680.437E-3	-33.2902E-3	-277.898E-12	688.893E-3	-882.995E-6
-4.66483E-3	-276.022E-12	659.678E-3	-24.2640E-3	-278.048E-12	706.783E-3	31.3602E-3
-4.66983E-3	-277.617E-12	616.072E-3	-19.8186E-3	-279.163E-12	654.898E-3	12.4264E-3
-4.67484E-3	-278.526E-12	595.201E-3	-5.51331E-3	-280.149E-12	612.634E-3	-32.5991E-3
-4.67984E-3	-278.751E-12	589.522E-3	-4.53222E-3	-279.603E-12	642.245E-3	-78.1644E-3
-4.68484E-3	-279.470E-12	593.869E-3	-40.1498E-3	-279.859E-12	675.787E-3	-86.9499E-3
-4.68984E-3	-280.091E-12	603.188E-3	-58.2625E-3	-280.609E-12	667.057E-3	-23.2751E-3
-4.69485E-3	-280.349E-12	612.093E-3	-46.3683E-3	-281.782E-12	636.698E-3	-18.4128E-3
-4.69985E-3	-279.063E-12	615.657E-3	-31.3552E-3	-280.749E-12	607.881E-3	-83.3193E-3
-4.70485E-3	-281.340E-12	630.033E-3	-33.4695E-3	-280.704E-12	635.525E-3	-77.9876E-3
-4.70985E-3	-283.176E-12	673.365E-3	-35.9534E-3	-281.269E-12	681.557E-3	-19.8588E-3
-4.71486E-3	-282.495E-12	711.506E-3	-24.6083E-3	-280.368E-12	675.460E-3	24.2560E-3
-4.71986E-3	-281.141E-12	714.500E-3	-33.4094E-3	-281.091E-12	671.612E-3	52.4886E-3
-4.72486E-3	-281.630E-12	695.184E-3	-30.4560E-3	-279.849E-12	662.829E-3	52.6720E-3
-4.72986E-3	-284.058E-12	671.117E-3	-8.14323E-3	-279.066E-12	619.556E-3	23.2429E-3
-4.73487E-3	-284.409E-12	679.449E-3	-12.2392E-3	-279.705E-12	628.481E-3	8.38176E-3
-4.73987E-3	-283.909E-12	702.880E-3	-10.0199E-3	-279.853E-12	685.581E-3	634.234E-6
-4.74487E-3	-282.993E-12	682.505E-3	9.29355E-3	-277.772E-12	719.452E-3	-25.6003E-3
-4.74988E-3	-284.203E-12	662.438E-3	19.9040E-3	-276.452E-12	694.587E-3	-22.1808E-3
-4.75488E-3	-284.884E-12	665.797E-3	37.3388E-3	-278.621E-12	631.024E-3	3.55132E-3
-4.75988E-3	-283.465E-12	663.036E-3	39.9074E-3	-279.941E-12	611.185E-3	13.0077E-3
-4.76488E-3	-281.458E-12	662.984E-3	27.4173E-3	-280.548E-12	636.862E-3	19.2849E-3
-4.76988E-3	-281.797E-12	668.895E-3	33.9795E-3	-278.833E-12	680.193E-3	18.9619E-3
-4.77489E-3	-283.837E-12	678.494E-3	3.23373E-3	-280.432E-12	698.242E-3	-19.4121E-3
-4.77989E-3	-284.551E-12	672.581E-3	-65.6080E-3	-283.706E-12	638.347E-3	-46.6396E-3
-4.78489E-3	-282.238E-12	628.851E-3	-64.6458E-3	-283.355E-12	598.404E-3	-7.98016E-3
-4.78989E-3	-281.020E-12	585.853E-3	-37.4737E-3	-280.452E-12	620.514E-3	22.6939E-3
-4.79490E-3	-282.526E-12	616.772E-3	-51.4181E-3	-278.586E-12	610.803E-3	-18.7840E-3
-4.79990E-3	-281.935E-12	674.415E-3	-40.6495E-3	-282.839E-12	585.831E-3	-52.1906E-3
-4.80490E-3	-281.332E-12	683.647E-3	-21.0827E-3	-282.386E-12	600.858E-3	-39.0368E-3
-4.80990E-3	-279.883E-12	680.631E-3	-17.1825E-3	-279.952E-12	628.098E-3	-35.7622E-3
-4.81491E-3	-280.141E-12	667.071E-3	-9.51447E-3	-277.666E-12	638.206E-3	-28.8413E-3
-4.81991E-3	-281.893E-12	636.502E-3	-7.08099E-3	-280.456E-12	642.268E-3	-17.4093E-3
-4.82491E-3	-282.238E-12	647.061E-3	-15.8037E-3	-282.752E-12	642.757E-3	-29.0175E-3
-4.82991E-3	-280.377E-12	664.579E-3	-33.9424E-3	-282.145E-12	640.762E-3	-57.7812E-3
-4.83492E-3	-278.925E-12	658.384E-3	-56.1565E-3	-280.954E-12	643.559E-3	-64.8093E-3
-4.83992E-3	-282.430E-12	651.800E-3	-70.2152E-3	-280.881E-12	636.041E-3	-35.7794E-3
-4.84492E-3	-284.633E-12	662.344E-3	-52.9003E-3	-285.462E-12	641.556E-3	-22.0001E-3
-4.84992E-3	-284.412E-12	660.889E-3	-25.9365E-3	-286.787E-12	663.277E-3	-35.2302E-3
-4.85493E-3	-281.888E-12	614.299E-3	-33.0036E-3	-286.019E-12	656.114E-3	-22.8617E-3
-4.85993E-3	-283.232E-12	604.113E-3	-44.4351E-3	-284.758E-12	642.358E-3	-1.72003E-3
-4.86493E-3	-286.720E-12	634.183E-3	-38.4685E-3	-287.251E-12	634.442E-3	-33.8612E-3
-4.86993E-3	-286.831E-12	648.348E-3	-28.5470E-3	-289.797E-12	625.834E-3	-80.2592E-3
-4.87494E-3	-284.561E-12	663.584E-3	-11.7708E-3	-288.044E-12	631.254E-3	-76.3165E-3
-4.87994E-3	-283.341E-12	649.213E-3	-2.55947E-3	-286.412E-12	640.064E-3	-44.9997E-3
-4.88494E-3	-285.421E-12	607.685E-3	-8.53333E-3	-288.252E-12	651.947E-3	-27.2878E-3
-4.88995E-3	-286.543E-12	594.785E-3	-3.86241E-3	-288.413E-12	665.493E-3	-31.7931E-3
-4.89495E-3	-285.093E-12	601.893E-3	22.0116E-3	-287.457E-12	680.097E-3	-56.6625E-3
-4.89995E-3	-283.657E-12	634.167E-3	38.1409E-3	-284.389E-12	677.468E-3	-61.0278E-3
-4.90495E-3	-283.830E-12	685.344E-3	29.9536E-3	-284.542E-12	634.322E-3	-10.7657E-3
-4.90995E-3	-285.815E-12	679.032E-3	14.7429E-3	-286.746E-12	601.700E-3	37.7077E-3
-4.91496E-3	-287.077E-12	634.459E-3	18.4979E-3	-288.297E-12	604.832E-3	18.3452E-3
-4.91996E-3	-285.098E-12	622.524E-3	22.6319E-3	-287.006E-12	600.286E-3	-1.22853E-3
-4.92496E-3	-284.385E-12	626.429E-3	-3.13593E-3	-286.476E-12	599.601E-3	25.2651E-3
-4.92996E-3	-286.924E-12	627.671E-3	-25.5528E-3	-290.415E-12	613.998E-3	13.5136E-3
-4.93497E-3	-288.634E-12	661.045E-3	-20.8825E-3	-291.372E-12	630.828E-3	-33.1728E-3
-4.93997E-3	-289.307E-12	710.641E-3	13.3694E-3	-291.897E-12	641.333E-3	-64.1340E-3
-4.94497E-3	-288.788E-12	695.147E-3	41.7643E-3	-289.773E-12	631.126E-3	-65.3346E-3
-4.94997E-3	-290.278E-12	667.083E-3	28.9490E-3	-290.792E-12	635.281E-3	-28.4575E-3
-4.95498E-3	-291.778E-12	706.960E-3	3.91363E-3	-292.760E-12	664.144E-3	-6.87274E-3
-4.95998E-3	-292.247E-12	716.087E-3	-17.4827E-3	-294.544E-12	672.230E-3	-12.5981E-3
-4.96498E-3	-292.201E-12	664.396E-3	-25.6061E-3	-292.563E-12	643.966E-3	-14.6258E-3
-4.96998E-3	-293.403E-12	669.714E-3	-12.2996E-3	-290.377E-12	639.864E-3	-18.5483E-3
-4.97499E-3	-293.169E-12	702.865E-3	-20.9116E-3	-290.962E-12	668.588E-3	-19.4003E-3
-4.97999E-3	-293.893E-12	722.777E-3	-61.5205E-3	-292.099E-12	653.986E-3	6.22490E-3
-4.98499E-3	-292.329E-12	735.530E-3	-54.3603E-3	-293.439E-12	630.233E-3	6.46283E-3
-4.98999E-3	-293.465E-12	662.091E-3	-23.5725E-3	-291.191E-12	651.891E-3	-22.5910E-3
-4.99500E-3	-292.295E-12	580.536E-3	-44.7485E-3	-292.060E-12	670.303E-3	-22.4137E-3
-5.00000E-3	-293.344E-12	598.289E-3	-52.4902E-3	-292.428E-12	648.460E-3	-26.9395E-3
