Experiment	bias spectroscopy	
Date	19.01.2016 18:42:15	
User		
X (m)	50.4702E-9	
Y (m)	256.367E-9	
Z (m)	-132.615E-9	
Z offset (m)	0E+0	
Settling time (s)	200E-6	
Integration time (s)	5E-3	
Z-Ctrl hold	TRUE	
Final Z (m)	N/A	
Filter type	None	
Order		
Cutoff frq		
Comment01	MnPc/Pb(111)	
Comment02	dz =00pm	
Comment03	7 Sweeps	
Comment04	MagField =0.T	
Comment05	Divider 1:10	
Comment06	Setpoint:5mV,200 pA	
Comment07	Lockin: 50uVrms,5ms,5mV	
Comment08	Gain:9; 912Hz modulation	
Comment09	T=1.06K	
Bias>Bias (V)	5E-3	
Bias>Calibration (V/V)	81.475E-3	
Bias>Offset (V)	1.046E-3	
Bias Spectroscopy>Sweep Start (V)	5E-3	
Bias Spectroscopy>Sweep End (V)	-5E-3	
Bias Spectroscopy>Num Pixel	2000	
Bias Spectroscopy>Z Avg time (s)	500E-3	
Bias Spectroscopy>Z offset (m)	0E+0	
Bias Spectroscopy>1st Settling time (s)	500E-3	
Bias Spectroscopy>Settling time (s)	200E-6	
Bias Spectroscopy>Integration time (s)	5E-3	
Bias Spectroscopy>End Settling time (s)	500E-3	
Bias Spectroscopy>Z control time (s)	500E-3	
Bias Spectroscopy>Max Slew rate (V/s)	Inf	
Bias Spectroscopy>backward sweep	TRUE	
Bias Spectroscopy>Z-controller hold	TRUE	
Bias Spectroscopy>Number of sweeps	7	
Bias Spectroscopy>Channels	Current (A);X% LockIn (V);Y% LockIn (V)	
Bias Spectroscopy>Reset Bias	TRUE	
Bias Spectroscopy>Record final Z	FALSE	
Bias Spectroscopy>Lock-In run	FALSE	
Bias Spectroscopy>Sweep mode	Linear	
Bias Spectroscopy>MultiLine Settings : Segment Start (V), Segment End (V), Settling (s), Integration (s), Steps (xn)	100E-3,3.3E-3,100E-6,10E-3,2500;3.3E-3,-3.3E-3,100E-6,10E-3,10;-3.3E-3,-100E-3,100E-6,10E-3,2500	
Current>Current (A)	200.026E-12	
Current>Calibration (A/V)	999.99900E-12	
Current>Offset (A)	-455.429E-15	
Current>Gain	LN 10^9	
Z-Controller>Z (m)	-132.617E-9	
Z-Controller>Controller name	log Current	
Z-Controller>Controller status	ON	
Z-Controller>Setpoint	200E-12	
Z-Controller>Setpoint unit	A	
Z-Controller>P gain	2.96994E-12	
Z-Controller>I gain	67.0321E-9	
Z-Controller>Time const (s)	44.3062E-6	
Z-Controller>TipLift (m)	0E+0	
Z-Controller>Switch off delay (s)	50E-3	
Current (A)	200.266E-12	
Z (m)	-132.617E-9	

[DATA]
Bias calc (V)	Current (A)	X% LockIn (V)	Y% LockIn (V)	Current [bwd] (A)	X% LockIn [bwd] (V)	Y% LockIn [bwd] (V)
5.00000E-3	202.672E-12	642.698E-3	-24.3896E-3	197.876E-12	671.159E-3	956.873E-6
4.99500E-3	202.888E-12	643.886E-3	-31.2607E-3	196.536E-12	653.916E-3	-20.5184E-3
4.98999E-3	204.386E-12	615.218E-3	-44.8868E-3	195.411E-12	605.538E-3	-43.1444E-3
4.98499E-3	204.538E-12	606.565E-3	-57.3282E-3	195.056E-12	575.277E-3	-32.1962E-3
4.97999E-3	203.015E-12	630.847E-3	-50.6666E-3	193.252E-12	564.327E-3	3.49166E-3
4.97499E-3	201.604E-12	632.553E-3	-28.3658E-3	193.321E-12	563.827E-3	5.28475E-3
4.96998E-3	199.992E-12	629.389E-3	-14.7246E-3	194.101E-12	585.562E-3	-22.7128E-3
4.96498E-3	197.532E-12	624.437E-3	-10.4016E-3	194.216E-12	617.580E-3	-39.9280E-3
4.95998E-3	194.990E-12	620.443E-3	-10.1240E-3	194.294E-12	641.852E-3	-24.1135E-3
4.95498E-3	192.776E-12	618.195E-3	-16.5686E-3	194.969E-12	656.923E-3	-7.05306E-3
4.94997E-3	191.405E-12	631.791E-3	-17.7509E-3	196.168E-12	651.803E-3	-13.4130E-3
4.94497E-3	189.401E-12	642.188E-3	-25.1608E-3	197.795E-12	636.627E-3	-16.7884E-3
4.93997E-3	188.574E-12	627.170E-3	-40.3990E-3	197.954E-12	640.787E-3	-36.7789E-3
4.93497E-3	188.025E-12	616.920E-3	-41.9735E-3	198.629E-12	664.370E-3	-65.5922E-3
4.92996E-3	188.698E-12	615.814E-3	-33.1033E-3	199.861E-12	678.737E-3	-48.1602E-3
4.92496E-3	188.610E-12	607.997E-3	-30.4103E-3	200.185E-12	651.801E-3	8.67709E-3
4.91996E-3	191.169E-12	594.119E-3	-34.5758E-3	199.273E-12	618.941E-3	46.9891E-3
4.91496E-3	193.075E-12	594.331E-3	-47.7015E-3	198.595E-12	607.941E-3	46.5275E-3
4.90995E-3	195.442E-12	599.319E-3	-52.8105E-3	198.013E-12	605.857E-3	34.9453E-3
4.90495E-3	196.949E-12	592.714E-3	-31.6162E-3	196.642E-12	617.904E-3	33.3529E-3
4.89995E-3	200.112E-12	598.891E-3	4.47580E-3	195.737E-12	629.258E-3	24.0696E-3
4.89495E-3	202.321E-12	624.708E-3	21.4799E-3	194.705E-12	636.202E-3	-19.5400E-3
4.88995E-3	202.823E-12	630.754E-3	2.06834E-3	193.676E-12	656.004E-3	-40.7674E-3
4.88494E-3	202.562E-12	630.267E-3	-11.9353E-3	192.897E-12	655.980E-3	-16.7329E-3
4.87994E-3	201.415E-12	635.974E-3	-3.56548E-3	192.538E-12	649.875E-3	-16.0424E-3
4.87494E-3	201.424E-12	628.902E-3	-451.286E-6	192.440E-12	662.594E-3	-23.4508E-3
4.86993E-3	198.257E-12	621.172E-3	-7.91584E-3	192.293E-12	652.919E-3	-12.5719E-3
4.86493E-3	196.208E-12	632.795E-3	-10.0353E-3	192.966E-12	633.981E-3	-7.69768E-3
4.85993E-3	194.363E-12	643.057E-3	-30.4614E-3	193.304E-12	644.965E-3	-21.8246E-3
4.85493E-3	191.790E-12	641.557E-3	-61.7149E-3	193.330E-12	664.126E-3	-36.6733E-3
4.84992E-3	189.836E-12	656.491E-3	-47.3855E-3	194.432E-12	664.476E-3	-30.2656E-3
4.84492E-3	188.148E-12	656.068E-3	-32.6165E-3	194.682E-12	644.589E-3	-17.7421E-3
4.83992E-3	187.451E-12	632.626E-3	-40.5313E-3	195.345E-12	618.082E-3	-10.7178E-3
4.83492E-3	187.170E-12	636.485E-3	-24.2425E-3	195.466E-12	609.989E-3	-18.1677E-3
4.82991E-3	188.049E-12	647.044E-3	7.71334E-3	195.898E-12	612.912E-3	-35.9005E-3
4.82491E-3	189.059E-12	634.959E-3	16.4215E-3	195.976E-12	613.931E-3	-33.4312E-3
4.81991E-3	190.646E-12	630.985E-3	1.11645E-3	194.860E-12	609.168E-3	-22.2243E-3
4.81491E-3	192.415E-12	639.470E-3	-16.1056E-3	194.910E-12	604.108E-3	-16.8551E-3
4.80990E-3	194.816E-12	640.768E-3	-16.0039E-3	194.617E-12	618.496E-3	-904.873E-6
4.80490E-3	196.353E-12	630.864E-3	-5.99726E-3	194.310E-12	641.388E-3	5.68989E-3
4.79990E-3	198.122E-12	617.647E-3	-6.24298E-3	192.639E-12	656.586E-3	4.35982E-3
4.79490E-3	198.732E-12	613.805E-3	-8.09458E-3	191.518E-12	645.732E-3	11.4109E-3
4.78989E-3	199.450E-12	635.330E-3	-7.99030E-3	190.702E-12	613.739E-3	10.8515E-3
4.78489E-3	199.025E-12	665.432E-3	-10.6074E-3	190.248E-12	603.763E-3	12.8903E-3
4.77989E-3	198.037E-12	676.059E-3	-8.84930E-3	189.070E-12	612.252E-3	8.94212E-3
4.77489E-3	197.026E-12	654.661E-3	2.91734E-3	188.884E-12	634.519E-3	-21.1199E-3
4.76988E-3	194.752E-12	635.965E-3	17.8276E-3	188.745E-12	653.774E-3	-55.2960E-3
4.76488E-3	191.647E-12	665.337E-3	2.64746E-3	188.557E-12	634.377E-3	-57.8872E-3
4.75988E-3	189.380E-12	689.382E-3	-20.8999E-3	187.187E-12	612.985E-3	-23.7256E-3
4.75488E-3	188.084E-12	666.762E-3	-32.4109E-3	187.420E-12	614.867E-3	6.32980E-3
4.74988E-3	185.938E-12	638.106E-3	-41.5499E-3	186.632E-12	619.352E-3	294.347E-6
4.74487E-3	184.363E-12	610.054E-3	-39.1544E-3	186.927E-12	629.356E-3	-27.9301E-3
4.73987E-3	183.062E-12	580.445E-3	-40.2752E-3	186.758E-12	625.661E-3	-44.3345E-3
4.73487E-3	183.384E-12	576.892E-3	-33.2184E-3	186.430E-12	611.180E-3	-35.4285E-3
4.72986E-3	182.728E-12	602.809E-3	-20.5919E-3	187.393E-12	614.982E-3	-24.1378E-3
4.72486E-3	182.898E-12	624.552E-3	-8.59633E-3	187.315E-12	620.502E-3	-20.8934E-3
4.71986E-3	183.318E-12	613.302E-3	-13.8240E-3	188.006E-12	625.255E-3	882.071E-6
4.71486E-3	184.369E-12	595.146E-3	-40.3863E-3	188.981E-12	632.737E-3	15.5659E-3
4.70985E-3	185.172E-12	602.922E-3	-44.9966E-3	189.032E-12	634.292E-3	-5.73023E-3
4.70485E-3	185.597E-12	626.135E-3	-22.5116E-3	189.093E-12	636.757E-3	-36.0049E-3
4.69985E-3	186.259E-12	639.868E-3	-14.1704E-3	188.343E-12	642.574E-3	-35.6414E-3
4.69485E-3	186.237E-12	633.509E-3	-30.4640E-3	188.860E-12	647.104E-3	-10.8057E-3
4.68984E-3	186.416E-12	627.498E-3	-36.5713E-3	187.483E-12	644.520E-3	-6.42912E-3
4.68484E-3	186.866E-12	639.653E-3	-14.5536E-3	186.535E-12	633.162E-3	-17.2184E-3
4.67984E-3	186.359E-12	663.044E-3	13.0083E-3	186.306E-12	615.849E-3	-13.8900E-3
4.67484E-3	185.505E-12	678.109E-3	7.76356E-3	185.418E-12	620.714E-3	-17.3879E-3
4.66983E-3	184.842E-12	669.442E-3	5.59620E-3	184.423E-12	642.069E-3	-30.3700E-3
4.66483E-3	184.852E-12	649.956E-3	5.59785E-3	182.897E-12	639.962E-3	-16.2372E-3
4.65983E-3	184.400E-12	629.970E-3	-15.9468E-3	182.608E-12	623.178E-3	14.4289E-3
4.65483E-3	183.968E-12	615.167E-3	-19.7297E-3	181.219E-12	617.923E-3	30.1332E-3
4.64982E-3	182.787E-12	608.987E-3	-7.01324E-3	180.465E-12	630.411E-3	22.4434E-3
4.64482E-3	182.731E-12	621.763E-3	1.62687E-3	180.066E-12	638.751E-3	-3.09505E-3
4.63982E-3	182.323E-12	622.623E-3	-10.1044E-3	180.661E-12	630.419E-3	-31.9874E-3
4.63482E-3	181.587E-12	611.514E-3	-26.7953E-3	181.000E-12	619.996E-3	-46.0829E-3
4.62981E-3	180.733E-12	628.317E-3	-23.5372E-3	181.845E-12	630.574E-3	-41.1912E-3
4.62481E-3	180.425E-12	639.720E-3	-15.9244E-3	183.272E-12	647.530E-3	-30.0209E-3
4.61981E-3	180.266E-12	637.422E-3	-15.0840E-3	184.515E-12	640.326E-3	-21.5991E-3
4.61481E-3	179.891E-12	620.242E-3	-28.4891E-3	185.779E-12	632.980E-3	-8.06671E-3
4.60980E-3	180.687E-12	591.130E-3	-52.2905E-3	186.633E-12	632.401E-3	19.7451E-3
4.60480E-3	180.964E-12	596.712E-3	-58.4191E-3	187.785E-12	628.556E-3	19.5595E-3
4.59980E-3	181.662E-12	611.306E-3	-40.8055E-3	188.320E-12	610.782E-3	-22.0078E-3
4.59480E-3	182.268E-12	604.285E-3	-16.7948E-3	187.678E-12	585.325E-3	-46.4788E-3
4.58979E-3	183.649E-12	606.677E-3	-5.59752E-3	187.254E-12	602.756E-3	-32.0419E-3
4.58479E-3	184.724E-12	601.641E-3	-13.9079E-3	186.247E-12	647.215E-3	-19.6102E-3
4.57979E-3	185.588E-12	604.882E-3	-11.3572E-3	185.024E-12	684.557E-3	-35.6516E-3
4.57479E-3	186.472E-12	642.329E-3	5.93404E-3	184.268E-12	694.773E-3	-52.1917E-3
4.56978E-3	186.918E-12	667.556E-3	-2.42833E-3	182.736E-12	667.845E-3	-36.0463E-3
4.56478E-3	187.492E-12	662.527E-3	-26.6086E-3	180.307E-12	631.804E-3	-4.68517E-3
4.55978E-3	187.520E-12	653.668E-3	-17.1885E-3	178.745E-12	609.308E-3	-10.5961E-3
4.55478E-3	186.790E-12	651.846E-3	-392.996E-6	178.540E-12	595.724E-3	-34.9114E-3
4.54977E-3	185.815E-12	644.367E-3	-14.6553E-3	177.524E-12	588.835E-3	-30.3340E-3
4.54477E-3	184.122E-12	638.114E-3	-26.3965E-3	176.955E-12	602.010E-3	-16.4181E-3
4.53977E-3	182.851E-12	638.070E-3	-11.6930E-3	176.974E-12	613.472E-3	-14.1575E-3
4.53477E-3	181.197E-12	641.262E-3	2.74442E-3	178.008E-12	622.806E-3	-1.26990E-3
4.52976E-3	178.989E-12	636.337E-3	-1.33086E-3	178.738E-12	648.874E-3	9.37078E-3
4.52476E-3	177.316E-12	626.268E-3	-18.3151E-3	179.193E-12	661.979E-3	-6.13248E-3
4.51976E-3	177.044E-12	629.969E-3	-35.1544E-3	180.188E-12	646.882E-3	-26.7804E-3
4.51476E-3	176.563E-12	639.875E-3	-34.5951E-3	181.358E-12	618.607E-3	-26.7695E-3
4.50975E-3	175.919E-12	631.875E-3	-12.0191E-3	181.614E-12	613.894E-3	-12.6891E-3
4.50475E-3	175.538E-12	627.542E-3	16.0784E-3	181.656E-12	641.548E-3	-6.63291E-3
4.49975E-3	176.550E-12	652.045E-3	20.2970E-3	182.036E-12	651.506E-3	-15.2428E-3
4.49475E-3	177.034E-12	671.488E-3	-4.36531E-3	182.676E-12	635.938E-3	-20.4770E-3
4.48974E-3	178.463E-12	652.776E-3	-30.3419E-3	181.292E-12	623.814E-3	-28.3915E-3
4.48474E-3	179.639E-12	622.689E-3	-17.7652E-3	180.210E-12	623.061E-3	-49.5868E-3
4.47974E-3	181.303E-12	636.107E-3	11.3934E-3	179.239E-12	623.623E-3	-52.8245E-3
4.47474E-3	181.662E-12	673.103E-3	7.10011E-3	178.497E-12	631.788E-3	-31.8843E-3
4.46973E-3	182.985E-12	681.662E-3	-16.2690E-3	176.826E-12	654.046E-3	-8.88191E-3
4.46473E-3	182.752E-12	672.449E-3	-18.5029E-3	175.707E-12	652.831E-3	3.73471E-3
4.45973E-3	182.564E-12	669.626E-3	740.103E-6	173.514E-12	626.355E-3	10.3997E-3
4.45473E-3	180.480E-12	672.937E-3	-7.37865E-3	173.467E-12	622.789E-3	5.17326E-3
4.44972E-3	178.971E-12	671.520E-3	-41.0247E-3	172.621E-12	621.920E-3	-9.61423E-3
4.44472E-3	176.707E-12	651.287E-3	-56.3593E-3	173.010E-12	612.208E-3	-5.79832E-3
4.43972E-3	174.373E-12	633.660E-3	-53.3813E-3	172.407E-12	625.516E-3	16.4958E-3
4.43472E-3	171.672E-12	641.059E-3	-46.8466E-3	172.473E-12	635.397E-3	28.9872E-3
4.42971E-3	169.951E-12	646.832E-3	-32.5494E-3	172.757E-12	638.250E-3	27.1870E-3
4.42471E-3	169.487E-12	638.183E-3	-13.2620E-3	173.265E-12	641.988E-3	21.8773E-3
4.41971E-3	168.038E-12	632.890E-3	3.17163E-3	173.404E-12	629.119E-3	6.04574E-3
4.41471E-3	167.486E-12	638.301E-3	9.11000E-3	173.906E-12	620.411E-3	-24.4868E-3
4.40970E-3	167.151E-12	636.938E-3	-6.28033E-3	174.834E-12	631.063E-3	-49.6249E-3
4.40470E-3	168.721E-12	627.656E-3	-13.6918E-3	175.663E-12	633.788E-3	-54.3794E-3
4.39970E-3	169.396E-12	611.473E-3	-6.55191E-3	175.778E-12	625.635E-3	-37.0186E-3
4.39470E-3	171.009E-12	597.321E-3	-6.62415E-3	175.567E-12	631.707E-3	-13.6670E-3
4.38969E-3	172.488E-12	605.509E-3	-7.51371E-3	175.841E-12	634.611E-3	-24.8851E-3
4.38469E-3	174.325E-12	621.977E-3	-16.7869E-3	176.577E-12	632.991E-3	-44.8597E-3
4.37969E-3	175.823E-12	625.641E-3	-28.2233E-3	175.213E-12	658.125E-3	-40.6575E-3
4.37469E-3	176.762E-12	623.904E-3	-8.86026E-3	174.396E-12	677.794E-3	-44.1138E-3
4.36968E-3	178.044E-12	633.812E-3	16.3630E-3	173.792E-12	651.658E-3	-39.6075E-3
4.36468E-3	177.177E-12	644.336E-3	15.6312E-3	173.281E-12	607.560E-3	-20.9578E-3
4.35968E-3	176.800E-12	651.183E-3	3.39052E-3	172.136E-12	596.136E-3	-26.5927E-3
4.35468E-3	175.428E-12	651.430E-3	-13.5533E-3	171.092E-12	628.446E-3	-33.1311E-3
4.34967E-3	174.153E-12	639.158E-3	-45.7940E-3	171.205E-12	643.808E-3	-17.8890E-3
4.34467E-3	171.104E-12	645.309E-3	-63.0227E-3	170.316E-12	619.608E-3	2.38565E-3
4.33967E-3	169.324E-12	674.749E-3	-43.3074E-3	170.241E-12	623.565E-3	-2.74816E-3
4.33467E-3	167.947E-12	673.917E-3	-17.9031E-3	170.284E-12	637.628E-3	-25.8717E-3
4.32966E-3	166.900E-12	640.804E-3	-1.41500E-3	170.170E-12	621.063E-3	-24.5643E-3
4.32466E-3	165.154E-12	612.320E-3	-1.75775E-3	170.190E-12	625.362E-3	-18.3528E-3
4.31966E-3	164.699E-12	612.344E-3	-1.33679E-3	170.563E-12	657.187E-3	-25.1528E-3
4.31466E-3	165.147E-12	628.010E-3	522.172E-6	170.672E-12	670.329E-3	-30.5922E-3
4.30965E-3	165.010E-12	620.943E-3	-12.1182E-3	170.758E-12	654.182E-3	-34.2747E-3
4.30465E-3	165.197E-12	614.870E-3	-27.8126E-3	170.965E-12	645.371E-3	-27.2243E-3
4.29965E-3	166.607E-12	632.190E-3	-28.5334E-3	171.665E-12	644.168E-3	-14.8945E-3
4.29465E-3	168.636E-12	651.478E-3	-14.9468E-3	171.745E-12	644.319E-3	-8.78075E-3
4.28964E-3	170.204E-12	658.866E-3	-22.8920E-3	171.734E-12	656.276E-3	-15.6387E-3
4.28464E-3	171.656E-12	658.167E-3	-30.5625E-3	171.947E-12	655.034E-3	-28.3791E-3
4.27964E-3	172.525E-12	648.884E-3	-18.1027E-3	171.508E-12	644.424E-3	-18.2286E-3
4.27464E-3	173.951E-12	641.193E-3	-17.9701E-3	171.091E-12	636.730E-3	1.57765E-3
4.26963E-3	174.849E-12	644.376E-3	-34.1090E-3	170.607E-12	637.502E-3	6.28668E-3
4.26463E-3	174.796E-12	645.939E-3	-50.8448E-3	169.552E-12	634.438E-3	10.7516E-3
4.25963E-3	174.499E-12	640.224E-3	-46.2279E-3	168.856E-12	619.701E-3	19.4374E-3
4.25463E-3	173.385E-12	644.158E-3	-21.2874E-3	168.305E-12	632.470E-3	19.5450E-3
4.24962E-3	172.545E-12	656.824E-3	-5.80957E-3	167.265E-12	647.412E-3	524.937E-6
4.24462E-3	170.810E-12	670.302E-3	-596.671E-6	166.519E-12	630.204E-3	-29.2937E-3
4.23962E-3	169.563E-12	680.014E-3	-5.22310E-3	165.751E-12	619.389E-3	-40.7567E-3
4.23462E-3	168.553E-12	664.324E-3	-34.0706E-3	164.622E-12	624.013E-3	-46.1697E-3
4.22961E-3	166.851E-12	644.451E-3	-57.5599E-3	164.446E-12	618.691E-3	-49.3915E-3
4.22461E-3	165.638E-12	638.085E-3	-52.9127E-3	163.945E-12	617.733E-3	-37.8349E-3
4.21961E-3	164.424E-12	647.953E-3	-33.7480E-3	162.972E-12	615.008E-3	-32.1601E-3
4.21461E-3	164.364E-12	666.446E-3	-13.1779E-3	162.874E-12	604.136E-3	-32.2065E-3
4.20960E-3	163.443E-12	666.326E-3	-4.95637E-3	163.328E-12	618.294E-3	-23.4089E-3
4.20460E-3	163.090E-12	666.217E-3	-8.14072E-3	163.242E-12	636.704E-3	-15.4531E-3
4.19960E-3	162.343E-12	654.827E-3	-2.73758E-3	162.998E-12	649.071E-3	-17.3571E-3
4.19460E-3	163.133E-12	646.859E-3	-6.76248E-3	164.203E-12	658.685E-3	-21.7131E-3
4.18959E-3	163.973E-12	668.973E-3	-27.2564E-3	165.460E-12	656.018E-3	-19.1054E-3
4.18459E-3	164.802E-12	668.642E-3	-35.4807E-3	165.392E-12	661.114E-3	-3.29292E-3
4.17959E-3	164.913E-12	650.660E-3	-26.0778E-3	165.696E-12	662.258E-3	14.7282E-3
4.17459E-3	165.625E-12	655.692E-3	-3.49647E-3	166.282E-12	648.495E-3	20.9438E-3
4.16958E-3	166.532E-12	658.171E-3	15.8397E-3	166.334E-12	642.437E-3	13.7197E-3
4.16458E-3	166.272E-12	645.333E-3	11.0493E-3	165.851E-12	644.444E-3	6.14016E-3
4.15958E-3	165.976E-12	647.052E-3	661.874E-6	165.147E-12	631.201E-3	843.637E-6
4.15458E-3	166.728E-12	656.699E-3	-1.41753E-3	164.019E-12	607.114E-3	-235.849E-6
4.14957E-3	167.293E-12	648.648E-3	-4.21844E-3	163.651E-12	593.870E-3	4.22953E-3
4.14457E-3	165.757E-12	648.891E-3	-5.91183E-3	161.900E-12	592.423E-3	-5.40290E-3
4.13957E-3	164.464E-12	658.473E-3	-14.1796E-3	160.394E-12	582.708E-3	-22.3658E-3
4.13457E-3	163.904E-12	646.508E-3	-41.5563E-3	159.616E-12	582.098E-3	-28.9958E-3
4.12956E-3	163.006E-12	635.423E-3	-52.4045E-3	158.707E-12	624.523E-3	-29.9760E-3
4.12456E-3	161.209E-12	631.719E-3	-38.6767E-3	158.098E-12	656.575E-3	-10.0059E-3
4.11956E-3	159.660E-12	636.764E-3	-47.3076E-3	157.511E-12	646.452E-3	20.4203E-3
4.11456E-3	158.312E-12	643.624E-3	-53.6506E-3	157.581E-12	630.318E-3	16.2129E-3
4.10955E-3	156.716E-12	637.075E-3	-28.3771E-3	157.733E-12	615.980E-3	2.68950E-3
4.10455E-3	156.013E-12	626.464E-3	2.09715E-3	158.518E-12	612.765E-3	-8.67495E-3
4.09955E-3	155.249E-12	610.883E-3	17.6671E-3	159.876E-12	637.066E-3	-29.0272E-3
4.09455E-3	154.633E-12	583.476E-3	4.40229E-3	160.615E-12	669.127E-3	-30.8382E-3
4.08954E-3	154.585E-12	561.413E-3	-10.3141E-3	161.043E-12	666.161E-3	-33.8042E-3
4.08454E-3	155.315E-12	570.396E-3	-12.3744E-3	162.618E-12	645.317E-3	-58.3819E-3
4.07954E-3	155.963E-12	595.860E-3	-10.6456E-3	164.069E-12	654.250E-3	-58.5821E-3
4.07454E-3	156.650E-12	616.099E-3	-12.8762E-3	164.262E-12	675.675E-3	-29.9578E-3
4.06953E-3	158.237E-12	624.668E-3	-6.76084E-3	164.057E-12	685.596E-3	-17.8903E-3
4.06453E-3	159.642E-12	638.889E-3	8.28177E-3	164.304E-12	674.002E-3	-30.8626E-3
4.05953E-3	161.311E-12	655.872E-3	6.12600E-3	163.824E-12	645.272E-3	-29.8228E-3
4.05453E-3	162.738E-12	649.671E-3	5.36562E-3	163.075E-12	634.978E-3	-13.5324E-3
4.04952E-3	163.991E-12	646.579E-3	-596.523E-6	161.407E-12	637.255E-3	-8.38214E-3
4.04452E-3	164.640E-12	657.350E-3	-17.5751E-3	160.316E-12	638.585E-3	-13.9859E-3
4.03952E-3	165.086E-12	650.659E-3	-25.5340E-3	159.408E-12	661.984E-3	-25.8634E-3
4.03452E-3	164.734E-12	638.301E-3	-32.1992E-3	158.337E-12	678.693E-3	-35.2305E-3
4.02951E-3	163.567E-12	657.231E-3	-35.8094E-3	156.795E-12	656.375E-3	-34.2309E-3
4.02451E-3	162.724E-12	688.042E-3	-26.9785E-3	156.041E-12	629.095E-3	-21.6857E-3
4.01951E-3	161.016E-12	678.537E-3	-22.8224E-3	155.739E-12	623.605E-3	-13.5710E-3
4.01451E-3	159.292E-12	647.611E-3	-26.1409E-3	155.993E-12	630.857E-3	-8.68099E-3
4.00950E-3	157.437E-12	630.211E-3	-22.2679E-3	156.409E-12	646.653E-3	-5.25635E-3
4.00450E-3	155.555E-12	630.362E-3	-12.1682E-3	156.524E-12	663.073E-3	-7.40252E-3
3.99950E-3	154.108E-12	661.906E-3	4.41716E-3	156.977E-12	667.933E-3	-15.7683E-3
3.99450E-3	153.273E-12	678.657E-3	24.5396E-3	158.427E-12	661.495E-3	-22.4781E-3
3.98949E-3	153.042E-12	656.608E-3	26.3430E-3	159.335E-12	646.176E-3	-23.7071E-3
3.98449E-3	152.820E-12	629.968E-3	10.2991E-3	159.781E-12	634.637E-3	-31.0408E-3
3.97949E-3	152.996E-12	601.310E-3	-4.44747E-3	158.842E-12	643.366E-3	-30.6846E-3
3.97449E-3	153.459E-12	583.558E-3	-19.2476E-3	159.564E-12	665.618E-3	-22.4068E-3
3.96948E-3	154.909E-12	604.260E-3	-40.7310E-3	160.274E-12	670.842E-3	-21.5274E-3
3.96448E-3	156.324E-12	642.289E-3	-57.1060E-3	159.417E-12	666.885E-3	-29.0319E-3
3.95948E-3	157.649E-12	650.832E-3	-48.4158E-3	158.096E-12	672.182E-3	-36.6843E-3
3.95448E-3	159.229E-12	631.307E-3	-16.3809E-3	157.284E-12	673.435E-3	-30.9695E-3
3.94947E-3	160.098E-12	611.478E-3	-4.67194E-3	156.974E-12	655.421E-3	-24.8142E-3
3.94447E-3	160.786E-12	613.657E-3	-30.6874E-3	155.453E-12	628.278E-3	-25.4789E-3
3.93947E-3	160.856E-12	647.698E-3	-53.3153E-3	154.271E-12	612.940E-3	-26.6123E-3
3.93447E-3	160.882E-12	670.374E-3	-46.2769E-3	153.053E-12	608.319E-3	-18.8269E-3
3.92946E-3	159.267E-12	649.529E-3	-20.4976E-3	152.668E-12	628.475E-3	5.40007E-3
3.92446E-3	158.350E-12	630.740E-3	-6.11926E-3	151.723E-12	644.061E-3	10.2037E-3
3.91946E-3	156.254E-12	633.924E-3	-3.43472E-3	151.141E-12	617.169E-3	-9.22510E-3
3.91446E-3	154.320E-12	635.608E-3	9.38966E-3	150.400E-12	606.222E-3	-20.8067E-3
3.90945E-3	151.443E-12	636.744E-3	1.35250E-3	149.867E-12	628.702E-3	-24.8291E-3
3.90445E-3	149.799E-12	644.496E-3	-19.4733E-3	149.958E-12	638.550E-3	-15.1509E-3
3.89945E-3	147.930E-12	658.929E-3	-22.3334E-3	150.675E-12	636.562E-3	2.60448E-3
3.89445E-3	146.752E-12	655.373E-3	-14.1703E-3	150.481E-12	634.632E-3	633.467E-6
3.88944E-3	145.765E-12	615.221E-3	-5.40236E-3	150.177E-12	633.833E-3	-9.09386E-3
3.88444E-3	145.723E-12	582.592E-3	-15.7507E-3	150.680E-12	639.027E-3	-19.7931E-3
3.87944E-3	146.035E-12	589.673E-3	-29.2593E-3	151.429E-12	654.028E-3	-34.2319E-3
3.87444E-3	146.510E-12	602.507E-3	-29.4172E-3	150.891E-12	658.093E-3	-28.8756E-3
3.86943E-3	147.346E-12	602.159E-3	-22.5996E-3	150.767E-12	659.617E-3	-8.49533E-3
3.86443E-3	148.454E-12	602.564E-3	-14.1573E-3	151.557E-12	674.031E-3	-9.87019E-3
3.85943E-3	149.838E-12	611.189E-3	-16.6174E-3	151.872E-12	667.440E-3	-26.1884E-3
3.85443E-3	151.030E-12	633.144E-3	-22.0219E-3	151.182E-12	661.493E-3	-23.8824E-3
3.84942E-3	152.301E-12	658.390E-3	-15.2584E-3	151.094E-12	655.279E-3	-17.7712E-3
3.84442E-3	153.370E-12	652.464E-3	-148.176E-6	150.739E-12	629.027E-3	-23.2172E-3
3.83942E-3	153.469E-12	630.318E-3	11.7927E-3	150.287E-12	631.180E-3	-28.5530E-3
3.83442E-3	153.060E-12	636.982E-3	5.16260E-3	150.032E-12	652.273E-3	-24.8870E-3
3.82941E-3	153.194E-12	662.728E-3	6.11450E-3	148.736E-12	659.214E-3	-5.78960E-3
3.82441E-3	151.997E-12	678.388E-3	22.8088E-3	148.184E-12	659.159E-3	1.39420E-3
3.81941E-3	150.964E-12	669.894E-3	9.76342E-3	147.624E-12	643.744E-3	-10.1594E-3
3.81441E-3	149.513E-12	653.647E-3	-12.2137E-3	147.236E-12	616.753E-3	-6.03045E-3
3.80940E-3	148.633E-12	639.358E-3	-20.3181E-3	146.723E-12	614.781E-3	-4.93754E-3
3.80440E-3	146.924E-12	641.779E-3	-27.5458E-3	146.075E-12	623.264E-3	-32.2899E-3
3.79940E-3	145.635E-12	669.912E-3	-21.4073E-3	145.944E-12	629.055E-3	-43.5259E-3
3.79440E-3	144.516E-12	665.153E-3	-4.00510E-3	146.315E-12	650.346E-3	-26.6487E-3
3.78939E-3	144.950E-12	634.527E-3	-5.87712E-3	146.935E-12	670.025E-3	-16.7920E-3
3.78439E-3	143.995E-12	631.272E-3	-25.7012E-3	146.484E-12	669.659E-3	-16.1548E-3
3.77939E-3	143.558E-12	632.525E-3	-33.0554E-3	146.628E-12	651.188E-3	-8.48960E-3
3.77439E-3	143.562E-12	622.539E-3	-25.8782E-3	147.918E-12	644.202E-3	4.89845E-3
3.76938E-3	145.139E-12	621.867E-3	-20.6714E-3	148.797E-12	651.203E-3	7.22649E-3
3.76438E-3	145.683E-12	624.340E-3	-11.0699E-3	148.790E-12	657.175E-3	-3.99870E-3
3.75938E-3	147.333E-12	631.975E-3	-4.35645E-3	148.776E-12	659.050E-3	-11.5092E-3
3.75438E-3	148.441E-12	651.075E-3	-15.9027E-3	149.819E-12	646.319E-3	-7.94064E-3
3.74937E-3	149.689E-12	668.905E-3	-38.8278E-3	149.575E-12	625.649E-3	-2.63425E-3
3.74437E-3	150.300E-12	672.831E-3	-53.3121E-3	149.381E-12	623.402E-3	4.78648E-3
3.73937E-3	151.436E-12	662.149E-3	-31.5502E-3	148.704E-12	644.396E-3	10.0494E-3
3.73437E-3	151.728E-12	654.507E-3	5.35014E-3	148.263E-12	654.568E-3	6.68241E-3
3.72936E-3	151.338E-12	664.868E-3	10.7909E-3	147.421E-12	628.517E-3	1.25361E-3
3.72436E-3	151.322E-12	676.410E-3	-12.3282E-3	146.360E-12	609.240E-3	-6.93944E-3
3.71936E-3	150.554E-12	666.367E-3	-14.6088E-3	144.781E-12	627.149E-3	-4.17415E-3
3.71436E-3	149.712E-12	665.335E-3	3.89458E-3	143.895E-12	640.849E-3	2.36443E-3
3.70935E-3	148.453E-12	678.795E-3	6.03966E-3	142.962E-12	633.405E-3	-9.48022E-3
3.70435E-3	147.441E-12	680.999E-3	-12.6119E-3	141.837E-12	627.968E-3	-23.1892E-3
3.69935E-3	146.411E-12	675.207E-3	-34.6645E-3	141.162E-12	638.524E-3	-15.9020E-3
3.69435E-3	144.494E-12	673.779E-3	-41.7682E-3	140.742E-12	656.051E-3	11.9126E-3
3.68934E-3	143.023E-12	666.111E-3	-26.6605E-3	141.124E-12	665.135E-3	34.2217E-3
3.68434E-3	142.380E-12	643.033E-3	-15.1489E-3	141.273E-12	665.263E-3	24.3217E-3
3.67934E-3	141.249E-12	637.885E-3	-13.2872E-3	141.909E-12	680.954E-3	-758.536E-6
3.67434E-3	140.719E-12	644.773E-3	-2.78333E-3	142.114E-12	700.885E-3	-9.96014E-3
3.66933E-3	140.611E-12	634.494E-3	815.647E-6	143.212E-12	703.549E-3	-16.4277E-3
3.66433E-3	140.307E-12	626.455E-3	-3.35976E-3	144.715E-12	708.951E-3	-22.0231E-3
3.65933E-3	140.413E-12	622.931E-3	-912.135E-6	145.372E-12	708.257E-3	-16.0636E-3
3.65433E-3	140.965E-12	615.490E-3	2.14165E-3	145.832E-12	688.441E-3	-6.45295E-3
3.64932E-3	141.137E-12	625.206E-3	-13.4765E-3	146.764E-12	672.172E-3	3.66125E-3
3.64432E-3	141.589E-12	645.870E-3	-13.2275E-3	146.337E-12	677.610E-3	11.0253E-3
3.63932E-3	141.726E-12	642.411E-3	2.03703E-3	145.334E-12	689.593E-3	11.8930E-3
3.63432E-3	143.026E-12	620.327E-3	7.16669E-3	144.505E-12	686.730E-3	269.340E-6
3.62931E-3	143.310E-12	628.693E-3	7.58555E-3	143.450E-12	672.770E-3	-17.8048E-3
3.62431E-3	143.975E-12	678.153E-3	457.860E-6	141.975E-12	653.070E-3	-30.9932E-3
3.61931E-3	142.844E-12	706.884E-3	3.57275E-3	140.635E-12	637.286E-3	-31.3072E-3
3.61431E-3	142.950E-12	685.797E-3	5.57199E-3	138.452E-12	637.584E-3	-14.5626E-3
3.60930E-3	143.069E-12	650.922E-3	-498.632E-6	137.079E-12	646.942E-3	-7.07932E-3
3.60430E-3	142.125E-12	632.744E-3	-1.97064E-3	136.648E-12	650.323E-3	-6.08681E-3
3.59930E-3	140.609E-12	619.359E-3	6.63655E-3	135.546E-12	638.988E-3	-1.90220E-3
3.59430E-3	139.289E-12	611.162E-3	2.98444E-3	135.760E-12	619.979E-3	-6.33273E-3
3.58929E-3	138.269E-12	624.358E-3	-10.6663E-3	136.297E-12	618.811E-3	-17.2005E-3
3.58429E-3	137.026E-12	633.965E-3	-19.7687E-3	136.687E-12	628.625E-3	-23.4818E-3
3.57929E-3	135.788E-12	621.099E-3	-30.6192E-3	136.779E-12	641.830E-3	-24.1714E-3
3.57429E-3	134.957E-12	622.648E-3	-22.8234E-3	137.851E-12	672.244E-3	-19.4532E-3
3.56928E-3	133.963E-12	647.683E-3	-10.6052E-3	139.041E-12	693.567E-3	-1.28290E-3
3.56428E-3	133.774E-12	659.618E-3	-10.0622E-3	139.830E-12	682.447E-3	12.9325E-3
3.55928E-3	133.091E-12	649.004E-3	-9.48833E-3	141.005E-12	669.658E-3	18.3934E-3
3.55428E-3	134.077E-12	634.149E-3	-7.11716E-3	141.381E-12	673.811E-3	16.7499E-3
3.54927E-3	133.977E-12	622.050E-3	-7.31845E-3	141.751E-12	683.760E-3	7.79303E-3
3.54427E-3	135.041E-12	624.289E-3	-20.2434E-3	141.139E-12	682.555E-3	-51.2173E-6
3.53927E-3	136.132E-12	650.353E-3	-26.7384E-3	141.355E-12	665.907E-3	-387.827E-6
3.53427E-3	137.221E-12	663.164E-3	-4.44904E-3	140.744E-12	656.630E-3	848.485E-6
3.52926E-3	137.238E-12	649.507E-3	12.9035E-3	139.160E-12	645.155E-3	-11.8830E-3
3.52426E-3	138.196E-12	639.406E-3	6.09411E-3	137.595E-12	634.352E-3	-15.3894E-3
3.51926E-3	138.695E-12	645.807E-3	-9.19377E-3	136.966E-12	639.242E-3	3.31133E-3
3.51426E-3	139.191E-12	654.046E-3	-25.3025E-3	136.052E-12	628.869E-3	13.3480E-3
3.50925E-3	138.445E-12	668.162E-3	-27.3672E-3	134.265E-12	614.713E-3	-3.14928E-3
3.50425E-3	138.324E-12	670.525E-3	-23.4105E-3	133.300E-12	612.395E-3	-20.5052E-3
3.49925E-3	138.470E-12	645.513E-3	-11.7527E-3	133.163E-12	618.675E-3	-25.7957E-3
3.49425E-3	136.927E-12	644.009E-3	5.30808E-3	132.514E-12	641.537E-3	-17.2227E-3
3.48924E-3	135.924E-12	658.505E-3	6.88286E-3	132.342E-12	652.577E-3	-3.95122E-3
3.48424E-3	134.734E-12	645.042E-3	-11.7226E-3	132.495E-12	659.754E-3	-16.6751E-3
3.47924E-3	134.249E-12	623.419E-3	-40.0167E-3	132.857E-12	665.403E-3	-28.3216E-3
3.47424E-3	132.770E-12	627.328E-3	-41.9632E-3	133.543E-12	643.556E-3	-25.2789E-3
3.46923E-3	132.180E-12	639.665E-3	-13.3909E-3	134.439E-12	630.139E-3	-29.4814E-3
3.46423E-3	131.510E-12	642.752E-3	-10.3495E-3	135.083E-12	654.671E-3	-29.7894E-3
3.45923E-3	131.969E-12	637.065E-3	-31.9042E-3	135.775E-12	676.729E-3	-11.0258E-3
3.45423E-3	132.259E-12	635.447E-3	-33.8405E-3	136.467E-12	669.895E-3	7.93880E-3
3.44922E-3	132.685E-12	653.243E-3	-21.2507E-3	137.392E-12	654.670E-3	2.34174E-3
3.44422E-3	133.906E-12	663.856E-3	-21.2809E-3	137.634E-12	659.672E-3	-11.7787E-3
3.43922E-3	134.307E-12	646.369E-3	-39.0606E-3	137.036E-12	673.602E-3	-16.4219E-3
3.43422E-3	135.542E-12	644.906E-3	-39.3989E-3	136.940E-12	659.762E-3	-16.5420E-3
3.42921E-3	136.619E-12	678.501E-3	-28.6531E-3	136.660E-12	643.038E-3	-8.06858E-3
3.42421E-3	137.180E-12	689.864E-3	-29.2312E-3	135.327E-12	651.369E-3	-9.07001E-3
3.41921E-3	137.929E-12	679.314E-3	-26.8649E-3	135.039E-12	660.614E-3	-32.0498E-3
3.41421E-3	138.080E-12	687.681E-3	-21.7095E-3	134.046E-12	660.355E-3	-42.8584E-3
3.40920E-3	137.336E-12	691.238E-3	-18.3277E-3	132.645E-12	671.583E-3	-40.2465E-3
3.40420E-3	137.128E-12	669.585E-3	-3.56918E-3	131.410E-12	668.117E-3	-40.4392E-3
3.39920E-3	136.253E-12	668.119E-3	6.52287E-3	130.562E-12	629.210E-3	-28.3527E-3
3.39420E-3	135.407E-12	682.363E-3	-2.59549E-3	129.899E-12	610.786E-3	-6.98941E-3
3.38919E-3	134.254E-12	673.293E-3	-8.35559E-3	128.490E-12	625.278E-3	7.13890E-3
3.38419E-3	132.741E-12	663.228E-3	-15.7091E-3	127.862E-12	634.052E-3	2.95548E-3
3.37919E-3	131.691E-12	673.017E-3	-26.9406E-3	128.164E-12	633.205E-3	-15.9546E-3
3.37419E-3	130.272E-12	679.603E-3	-32.5002E-3	128.210E-12	629.517E-3	-22.8087E-3
3.36918E-3	129.460E-12	673.989E-3	-39.9108E-3	128.209E-12	628.142E-3	-25.8387E-3
3.36418E-3	128.290E-12	669.860E-3	-36.1109E-3	128.482E-12	642.583E-3	-29.3129E-3
3.35918E-3	128.025E-12	662.985E-3	-31.8750E-3	129.037E-12	674.649E-3	-25.4193E-3
3.35418E-3	126.995E-12	646.690E-3	-41.0159E-3	130.123E-12	697.664E-3	-26.0859E-3
3.34917E-3	127.298E-12	618.257E-3	-33.3049E-3	130.084E-12	692.309E-3	-24.4358E-3
3.34417E-3	126.960E-12	612.904E-3	-16.1390E-3	130.371E-12	675.684E-3	-23.2415E-3
3.33917E-3	127.632E-12	642.384E-3	-17.5453E-3	130.935E-12	662.134E-3	-24.3425E-3
3.33417E-3	128.289E-12	660.322E-3	-24.9201E-3	131.161E-12	655.802E-3	-22.5309E-3
3.32916E-3	128.557E-12	665.209E-3	-14.9341E-3	130.893E-12	659.613E-3	-30.7787E-3
3.32416E-3	129.127E-12	674.728E-3	-3.28539E-3	130.366E-12	664.555E-3	-35.0812E-3
3.31916E-3	129.377E-12	679.466E-3	-2.13108E-3	130.080E-12	660.304E-3	-30.8827E-3
3.31416E-3	129.021E-12	683.124E-3	-2.86961E-3	129.462E-12	660.406E-3	-32.3725E-3
3.30915E-3	129.170E-12	689.706E-3	6.10151E-3	128.415E-12	667.560E-3	-38.1680E-3
3.30415E-3	129.107E-12	688.548E-3	21.6153E-3	127.322E-12	672.826E-3	-49.2845E-3
3.29915E-3	128.750E-12	672.972E-3	10.0395E-3	126.101E-12	663.886E-3	-55.7476E-3
3.29415E-3	127.528E-12	655.666E-3	-17.5537E-3	125.273E-12	633.494E-3	-54.8649E-3
3.28914E-3	127.103E-12	650.937E-3	-21.0829E-3	124.109E-12	616.263E-3	-44.1606E-3
3.28414E-3	126.116E-12	655.638E-3	-13.1666E-3	123.805E-12	630.302E-3	-22.6855E-3
3.27914E-3	125.167E-12	668.301E-3	-16.6122E-3	122.727E-12	637.362E-3	-14.9305E-3
3.27414E-3	123.330E-12	657.103E-3	-22.5755E-3	122.443E-12	641.459E-3	-12.4788E-3
3.26913E-3	123.019E-12	623.964E-3	-16.5169E-3	122.359E-12	654.993E-3	-11.9405E-3
3.26413E-3	122.148E-12	610.415E-3	-13.4895E-3	122.753E-12	654.881E-3	-21.0599E-3
3.25913E-3	121.953E-12	617.356E-3	-16.4273E-3	122.750E-12	644.754E-3	-16.7405E-3
3.25413E-3	120.609E-12	629.594E-3	-22.8917E-3	123.108E-12	645.326E-3	-12.2024E-3
3.24912E-3	120.704E-12	625.585E-3	-29.2124E-3	124.545E-12	658.227E-3	-15.2790E-3
3.24412E-3	121.135E-12	624.605E-3	-25.0290E-3	125.203E-12	667.596E-3	-8.01357E-3
3.23912E-3	121.209E-12	651.150E-3	-23.6774E-3	125.889E-12	667.008E-3	2.39300E-3
3.23412E-3	121.167E-12	665.809E-3	-15.4846E-3	125.856E-12	652.660E-3	-2.57094E-3
3.22911E-3	121.580E-12	648.816E-3	-5.91435E-3	125.865E-12	643.244E-3	2.64695E-3
3.22411E-3	122.587E-12	638.427E-3	-10.5033E-3	126.232E-12	651.348E-3	23.3465E-3
3.21911E-3	123.059E-12	643.864E-3	-21.5935E-3	125.723E-12	662.264E-3	7.73472E-3
3.21411E-3	123.282E-12	644.970E-3	-28.5519E-3	125.415E-12	658.092E-3	-21.8922E-3
3.20910E-3	123.866E-12	644.209E-3	-30.0836E-3	123.834E-12	656.563E-3	-17.9968E-3
3.20410E-3	124.551E-12	648.835E-3	-29.6244E-3	123.156E-12	676.058E-3	4.79836E-3
3.19910E-3	124.881E-12	660.515E-3	-23.7185E-3	121.882E-12	690.939E-3	13.5779E-3
3.19410E-3	124.757E-12	672.845E-3	-23.1702E-3	121.346E-12	680.990E-3	-6.23882E-3
3.18909E-3	124.441E-12	668.388E-3	-17.7571E-3	119.696E-12	653.852E-3	-18.8986E-3
3.18409E-3	124.268E-12	661.886E-3	-454.268E-6	118.965E-12	646.798E-3	-726.344E-6
3.17909E-3	124.448E-12	660.974E-3	-5.29088E-3	118.248E-12	661.835E-3	5.63295E-3
3.17409E-3	123.383E-12	656.620E-3	-27.1283E-3	118.548E-12	669.952E-3	-12.6194E-3
3.16908E-3	123.171E-12	672.760E-3	-34.2973E-3	117.995E-12	667.465E-3	-24.4199E-3
3.16408E-3	121.785E-12	696.284E-3	-31.4080E-3	117.866E-12	661.357E-3	-14.7195E-3
3.15908E-3	121.619E-12	690.696E-3	-18.3846E-3	118.599E-12	658.620E-3	248.344E-6
3.15408E-3	121.071E-12	675.771E-3	-6.93463E-3	119.354E-12	668.212E-3	-762.102E-6
3.14907E-3	120.811E-12	676.846E-3	-6.62506E-3	120.230E-12	679.629E-3	-9.36772E-3
3.14407E-3	120.196E-12	665.366E-3	-5.51872E-3	120.560E-12	668.051E-3	-3.67933E-3
3.13907E-3	120.268E-12	648.443E-3	-20.6950E-3	121.155E-12	653.087E-3	4.48694E-3
3.13407E-3	119.673E-12	649.137E-3	-33.2440E-3	121.719E-12	661.586E-3	-12.4790E-3
3.12906E-3	119.223E-12	643.543E-3	-20.7867E-3	122.178E-12	677.967E-3	-40.0794E-3
3.12406E-3	119.597E-12	644.145E-3	-17.4993E-3	122.278E-12	683.571E-3	-38.6052E-3
3.11906E-3	119.861E-12	653.548E-3	-22.1888E-3	122.098E-12	681.156E-3	-4.07680E-3
3.11406E-3	119.854E-12	653.971E-3	-20.3958E-3	121.893E-12	672.331E-3	20.9793E-3
3.10905E-3	120.009E-12	659.823E-3	-18.0085E-3	120.709E-12	658.430E-3	14.7119E-3
3.10405E-3	120.343E-12	671.332E-3	-13.1768E-3	120.417E-12	655.123E-3	-528.538E-6
3.09905E-3	120.461E-12	668.216E-3	-22.6650E-3	118.517E-12	666.699E-3	-16.7651E-3
3.09405E-3	120.457E-12	652.749E-3	-37.1581E-3	117.731E-12	670.021E-3	-19.6180E-3
3.08904E-3	120.413E-12	652.052E-3	-21.4733E-3	116.460E-12	652.685E-3	2.52411E-3
3.08404E-3	120.086E-12	664.120E-3	4.71569E-3	116.287E-12	639.872E-3	11.9988E-3
3.07904E-3	119.694E-12	661.235E-3	-1.89289E-3	115.199E-12	654.240E-3	-8.23068E-3
3.07404E-3	118.921E-12	655.633E-3	-16.8820E-3	114.456E-12	671.258E-3	-26.3343E-3
3.06903E-3	117.898E-12	657.356E-3	-12.6924E-3	114.329E-12	669.023E-3	-27.2282E-3
3.06403E-3	117.018E-12	654.289E-3	-7.75165E-3	114.264E-12	665.629E-3	-12.4853E-3
3.05903E-3	116.271E-12	659.059E-3	-7.73488E-3	114.997E-12	666.411E-3	975.298E-6
3.05403E-3	114.959E-12	666.502E-3	-6.35665E-3	114.348E-12	669.298E-3	2.50289E-3
3.04902E-3	114.336E-12	666.981E-3	-2.37725E-3	115.416E-12	678.960E-3	-9.19808E-3
3.04402E-3	113.570E-12	676.854E-3	-5.20685E-3	115.591E-12	685.724E-3	-37.7830E-3
3.03902E-3	112.725E-12	679.304E-3	-10.5300E-3	116.617E-12	685.295E-3	-39.4444E-3
3.03402E-3	112.746E-12	656.754E-3	-15.1989E-3	116.772E-12	678.487E-3	-23.5141E-3
3.02901E-3	112.255E-12	642.967E-3	-10.1723E-3	117.626E-12	668.136E-3	-15.9342E-3
3.02401E-3	112.343E-12	647.727E-3	-1.12540E-3	117.849E-12	673.326E-3	-8.55300E-3
3.01901E-3	111.844E-12	649.513E-3	-3.48690E-3	117.645E-12	680.380E-3	-5.09399E-3
3.01401E-3	112.504E-12	648.094E-3	-4.40752E-3	117.768E-12	661.092E-3	8.31793E-3
3.00900E-3	112.547E-12	657.908E-3	-5.37169E-3	117.244E-12	636.502E-3	9.37499E-3
3.00400E-3	113.036E-12	671.873E-3	-9.76099E-3	116.055E-12	629.925E-3	-12.0504E-3
2.99900E-3	113.330E-12	675.565E-3	-9.84721E-3	115.088E-12	638.706E-3	-23.8965E-3
2.99400E-3	114.230E-12	677.815E-3	-16.7314E-3	114.783E-12	646.373E-3	-13.9834E-3
2.98899E-3	114.771E-12	677.334E-3	-33.8450E-3	113.706E-12	656.407E-3	2.69204E-3
2.98399E-3	114.516E-12	669.905E-3	-44.3785E-3	112.710E-12	673.591E-3	-694.483E-6
2.97899E-3	114.230E-12	663.384E-3	-47.0575E-3	111.562E-12	685.343E-3	-11.5207E-3
2.97399E-3	114.232E-12	665.089E-3	-34.4052E-3	111.560E-12	685.384E-3	-13.1761E-3
2.96898E-3	113.661E-12	675.296E-3	-13.4846E-3	110.418E-12	669.594E-3	-15.8347E-3
2.96398E-3	112.700E-12	683.336E-3	4.66051E-3	110.187E-12	648.185E-3	-14.9823E-3
2.95898E-3	112.060E-12	680.990E-3	6.61063E-3	110.146E-12	650.970E-3	-18.6667E-3
2.95398E-3	111.523E-12	678.566E-3	-19.2036E-3	110.026E-12	662.495E-3	-27.5195E-3
2.94897E-3	110.487E-12	688.998E-3	-33.5182E-3	110.187E-12	652.974E-3	-31.3287E-3
2.94397E-3	109.790E-12	697.148E-3	-25.6954E-3	110.512E-12	658.814E-3	-32.0326E-3
2.93897E-3	109.775E-12	684.447E-3	-17.4059E-3	111.204E-12	685.422E-3	-25.8106E-3
2.93397E-3	109.481E-12	669.201E-3	-15.1260E-3	111.413E-12	692.267E-3	-15.2397E-3
2.92896E-3	109.408E-12	662.451E-3	-11.4516E-3	111.951E-12	696.748E-3	-5.96875E-3
2.92396E-3	109.859E-12	650.091E-3	-10.5131E-3	112.173E-12	700.885E-3	-3.01544E-3
2.91896E-3	110.246E-12	653.952E-3	-21.6143E-3	112.808E-12	681.973E-3	-11.9377E-3
2.91396E-3	110.671E-12	675.638E-3	-36.0524E-3	112.287E-12	668.969E-3	-29.0719E-3
2.90895E-3	110.837E-12	686.843E-3	-36.1594E-3	112.384E-12	661.362E-3	-40.5283E-3
2.90395E-3	111.270E-12	688.236E-3	-24.0126E-3	112.274E-12	654.672E-3	-42.6438E-3
2.89895E-3	111.526E-12	675.968E-3	-19.8789E-3	111.962E-12	658.513E-3	-34.1674E-3
2.89395E-3	111.852E-12	662.270E-3	-23.4502E-3	110.974E-12	651.591E-3	-21.7499E-3
2.88894E-3	111.877E-12	660.952E-3	-26.2847E-3	110.378E-12	648.839E-3	-19.3380E-3
2.88394E-3	112.264E-12	674.641E-3	-25.4711E-3	109.476E-12	654.578E-3	-18.0769E-3
2.87894E-3	111.545E-12	687.263E-3	-22.3154E-3	108.250E-12	658.784E-3	-20.9063E-3
2.87394E-3	111.398E-12	678.883E-3	-24.8281E-3	107.097E-12	661.430E-3	-35.4598E-3
2.86893E-3	110.604E-12	670.436E-3	-28.0949E-3	105.915E-12	656.056E-3	-39.2973E-3
2.86393E-3	110.549E-12	675.901E-3	-22.6969E-3	105.784E-12	651.897E-3	-23.7001E-3
2.85893E-3	109.460E-12	689.900E-3	-10.0973E-3	104.520E-12	646.352E-3	-2.61300E-3
2.85393E-3	108.419E-12	695.485E-3	920.114E-6	104.443E-12	647.362E-3	12.3095E-3
2.84892E-3	108.039E-12	688.983E-3	500.898E-6	104.058E-12	666.730E-3	9.27107E-3
2.84392E-3	107.577E-12	686.498E-3	1.09753E-3	104.249E-12	675.462E-3	-15.1647E-3
2.83892E-3	106.657E-12	674.021E-3	-1.52809E-3	104.225E-12	667.943E-3	-24.9073E-3
2.83392E-3	105.981E-12	654.242E-3	-19.6488E-3	104.990E-12	673.204E-3	-13.2150E-3
2.82891E-3	105.150E-12	655.164E-3	-28.4830E-3	105.284E-12	682.755E-3	-11.9676E-3
2.82391E-3	105.035E-12	664.372E-3	-16.6470E-3	105.740E-12	688.009E-3	-24.3932E-3
2.81891E-3	104.875E-12	668.183E-3	-12.3328E-3	106.093E-12	695.930E-3	-34.9363E-3
2.81391E-3	104.896E-12	678.114E-3	-26.2059E-3	106.910E-12	697.297E-3	-29.7371E-3
2.80890E-3	104.557E-12	676.343E-3	-32.5093E-3	107.395E-12	690.285E-3	-19.1345E-3
2.80390E-3	104.495E-12	654.345E-3	-28.6206E-3	106.976E-12	681.797E-3	-24.2107E-3
2.79890E-3	104.949E-12	661.104E-3	-24.9620E-3	106.936E-12	672.680E-3	-28.4579E-3
2.79390E-3	104.968E-12	697.751E-3	-9.07560E-3	107.139E-12	658.103E-3	-23.0914E-3
2.78889E-3	104.954E-12	717.633E-3	-490.086E-6	106.703E-12	657.344E-3	-16.1404E-3
2.78389E-3	104.391E-12	704.729E-3	-9.47384E-3	105.478E-12	671.516E-3	-6.72240E-3
2.77889E-3	104.304E-12	687.581E-3	-17.6154E-3	104.246E-12	679.795E-3	-4.49810E-3
2.77389E-3	104.234E-12	689.546E-3	-32.5595E-3	103.696E-12	678.119E-3	-3.54887E-3
2.76888E-3	104.109E-12	700.662E-3	-47.1142E-3	102.571E-12	663.731E-3	11.3241E-3
2.76388E-3	103.360E-12	706.621E-3	-38.5991E-3	102.057E-12	645.864E-3	21.9147E-3
2.75888E-3	103.173E-12	693.744E-3	-15.1301E-3	100.916E-12	630.222E-3	4.43166E-3
2.75388E-3	102.793E-12	679.238E-3	-4.16268E-3	100.492E-12	633.122E-3	-28.4307E-3
2.74887E-3	101.858E-12	677.420E-3	-13.1355E-3	100.464E-12	657.673E-3	-37.1961E-3
2.74387E-3	101.513E-12	672.141E-3	-23.7896E-3	100.901E-12	672.019E-3	-14.4915E-3
2.73887E-3	100.779E-12	664.450E-3	-23.8517E-3	100.792E-12	673.863E-3	66.7377E-6
2.73387E-3	100.111E-12	662.462E-3	-19.0894E-3	100.773E-12	689.980E-3	-8.76126E-3
2.72886E-3	99.6474E-12	651.107E-3	-17.5592E-3	101.481E-12	698.821E-3	-13.5446E-3
2.72386E-3	99.2162E-12	644.328E-3	-23.4428E-3	102.444E-12	685.997E-3	-5.18978E-3
2.71886E-3	98.5491E-12	655.374E-3	-32.3210E-3	102.917E-12	675.566E-3	1.59370E-3
2.71386E-3	98.4663E-12	661.507E-3	-33.5926E-3	102.596E-12	677.985E-3	13.4688E-3
2.70885E-3	98.8105E-12	660.565E-3	-25.7766E-3	102.957E-12	689.389E-3	6.83492E-3
2.70385E-3	98.7628E-12	661.680E-3	-21.6353E-3	103.181E-12	704.681E-3	-23.1321E-3
2.69885E-3	98.6883E-12	672.561E-3	-22.8382E-3	103.404E-12	711.138E-3	-28.9800E-3
2.69385E-3	98.8766E-12	681.139E-3	-20.3553E-3	102.638E-12	703.547E-3	-11.9316E-3
2.68884E-3	99.5907E-12	682.152E-3	-15.3252E-3	101.690E-12	693.685E-3	-2.01591E-3
2.68384E-3	99.6353E-12	679.107E-3	4.86394E-3	101.360E-12	682.793E-3	-11.8613E-3
2.67884E-3	100.100E-12	680.291E-3	23.9317E-3	100.917E-12	673.177E-3	-25.7695E-3
2.67384E-3	99.9656E-12	698.362E-3	6.41320E-3	99.7980E-12	663.277E-3	-22.8726E-3
2.66883E-3	100.225E-12	696.394E-3	-25.2198E-3	98.8041E-12	656.680E-3	-13.9833E-3
2.66383E-3	100.178E-12	670.749E-3	-32.8761E-3	97.7371E-12	668.452E-3	-13.5548E-3
2.65883E-3	100.426E-12	665.479E-3	-15.0750E-3	97.2795E-12	675.985E-3	-11.9699E-3
2.65383E-3	99.5958E-12	675.275E-3	-3.11516E-3	96.9006E-12	665.160E-3	-10.1835E-3
2.64882E-3	99.5627E-12	685.512E-3	-3.93794E-3	96.0055E-12	658.437E-3	-17.5979E-3
2.64382E-3	99.3143E-12	693.586E-3	3.59862E-3	95.3002E-12	655.299E-3	-25.5619E-3
2.63882E-3	98.4067E-12	692.722E-3	4.90402E-3	95.3344E-12	658.427E-3	-25.2847E-3
2.63382E-3	97.2879E-12	688.031E-3	2.19206E-3	96.1872E-12	664.433E-3	-23.7179E-3
2.62881E-3	96.7856E-12	675.100E-3	11.3158E-3	96.3519E-12	661.883E-3	-27.6135E-3
2.62381E-3	96.3110E-12	668.721E-3	16.4890E-3	95.7664E-12	660.701E-3	-27.4574E-3
2.61881E-3	95.8767E-12	681.825E-3	3.76357E-3	95.8371E-12	668.015E-3	-24.5240E-3
2.61381E-3	95.4851E-12	692.758E-3	-5.46375E-3	96.6774E-12	691.313E-3	-19.8360E-3
2.60880E-3	95.2044E-12	687.780E-3	3.52064E-3	96.6774E-12	706.858E-3	-11.0443E-3
2.60380E-3	95.1025E-12	672.925E-3	1.06003E-3	96.3504E-12	699.591E-3	-6.93695E-3
2.59880E-3	95.4975E-12	661.161E-3	-14.9343E-3	96.0838E-12	692.250E-3	-2.55405E-3
2.59380E-3	95.4151E-12	667.499E-3	-11.9664E-3	96.9053E-12	689.578E-3	-7.46940E-3
2.58879E-3	95.5889E-12	682.447E-3	-7.60786E-3	96.9604E-12	692.701E-3	-27.1868E-3
2.58379E-3	95.5775E-12	672.701E-3	-19.0271E-3	96.5442E-12	698.463E-3	-31.0924E-3
2.57879E-3	96.0384E-12	659.117E-3	-22.9971E-3	95.9975E-12	692.574E-3	-15.8915E-3
2.57379E-3	96.3513E-12	677.980E-3	-22.8825E-3	95.6056E-12	684.211E-3	-1.01581E-3
2.56878E-3	96.4351E-12	707.861E-3	-20.9782E-3	94.9430E-12	691.118E-3	5.19017E-3
2.56378E-3	95.9634E-12	714.411E-3	-20.7923E-3	93.9240E-12	700.885E-3	-987.636E-6
2.55878E-3	96.3152E-12	708.450E-3	-29.1961E-3	93.2148E-12	693.566E-3	-1.57468E-3
2.55378E-3	95.6986E-12	700.095E-3	-29.4396E-3	91.7377E-12	686.893E-3	2.42293E-3
2.54877E-3	95.0823E-12	685.802E-3	-20.2940E-3	91.3390E-12	692.041E-3	-9.61022E-3
2.54377E-3	94.8314E-12	681.562E-3	-18.4427E-3	90.9005E-12	691.622E-3	-26.4277E-3
2.53877E-3	94.1089E-12	682.586E-3	-33.9968E-3	90.9709E-12	695.613E-3	-35.1907E-3
2.53377E-3	93.6691E-12	676.410E-3	-39.3391E-3	90.0213E-12	693.774E-3	-36.7226E-3
2.52876E-3	92.5302E-12	684.981E-3	-18.2179E-3	89.9889E-12	675.902E-3	-30.7865E-3
2.52376E-3	92.0446E-12	699.139E-3	-6.96279E-3	89.9624E-12	674.345E-3	-28.6882E-3
2.51876E-3	91.5000E-12	697.333E-3	-10.5373E-3	90.6621E-12	681.424E-3	-27.6828E-3
2.51376E-3	90.7676E-12	687.261E-3	-13.2725E-3	90.4294E-12	686.215E-3	-17.9210E-3
2.50875E-3	90.4643E-12	669.712E-3	-18.0922E-3	91.0169E-12	698.175E-3	-14.6935E-3
2.50375E-3	90.5376E-12	654.459E-3	-22.1657E-3	91.6368E-12	710.909E-3	-18.5339E-3
2.49875E-3	90.2339E-12	651.676E-3	-15.4158E-3	92.1846E-12	719.016E-3	-17.4764E-3
2.49375E-3	89.5094E-12	673.439E-3	-6.45213E-3	92.3560E-12	713.439E-3	-13.8067E-3
2.48874E-3	89.8419E-12	694.849E-3	-10.1499E-3	92.5238E-12	708.662E-3	-5.20886E-3
2.48374E-3	89.6192E-12	690.925E-3	-9.22425E-3	92.6784E-12	720.863E-3	-2.28611E-3
2.47874E-3	89.9353E-12	690.018E-3	4.42537E-3	92.1507E-12	731.886E-3	-4.31653E-3
2.47374E-3	89.8089E-12	696.277E-3	19.3228E-3	91.5204E-12	722.755E-3	9.64466E-3
2.46873E-3	89.5371E-12	693.019E-3	6.51718E-3	91.1523E-12	703.223E-3	25.7400E-3
2.46373E-3	89.3703E-12	685.809E-3	-32.8511E-3	90.6375E-12	699.747E-3	15.3433E-3
2.45873E-3	88.9992E-12	682.961E-3	-47.0809E-3	89.7575E-12	705.834E-3	-7.49816E-3
2.45373E-3	88.9130E-12	685.287E-3	-31.3745E-3	88.9639E-12	705.344E-3	-12.4062E-3
2.44872E-3	88.4522E-12	689.486E-3	-9.67890E-3	88.0662E-12	694.687E-3	-7.94567E-3
2.44372E-3	88.4361E-12	690.359E-3	12.5584E-3	87.3682E-12	687.440E-3	-5.11121E-3
2.43872E-3	88.1673E-12	696.821E-3	19.1462E-3	86.5233E-12	693.028E-3	-1.24487E-3
2.43372E-3	87.4886E-12	714.585E-3	-9.29120E-3	86.3385E-12	692.792E-3	-8.76400E-3
2.42871E-3	86.9972E-12	722.423E-3	-36.3012E-3	85.9563E-12	692.878E-3	-23.6824E-3
2.42371E-3	86.9723E-12	717.596E-3	-30.3040E-3	85.4423E-12	701.073E-3	-24.6299E-3
2.41871E-3	86.3454E-12	716.964E-3	-17.4459E-3	85.7509E-12	700.569E-3	-20.7716E-3
2.41371E-3	86.2272E-12	706.542E-3	-23.5471E-3	85.8697E-12	695.283E-3	-26.2580E-3
2.40870E-3	85.9145E-12	679.514E-3	-32.9896E-3	86.4047E-12	697.867E-3	-22.0170E-3
2.40370E-3	85.9762E-12	668.244E-3	-31.2682E-3	86.1195E-12	705.769E-3	-8.15023E-3
2.39870E-3	85.3854E-12	674.825E-3	-36.1113E-3	87.2175E-12	717.041E-3	8.33851E-3
2.39370E-3	85.2367E-12	684.318E-3	-30.1037E-3	87.3798E-12	729.233E-3	18.4837E-3
2.38869E-3	85.3025E-12	700.881E-3	-10.5190E-3	87.4987E-12	730.467E-3	4.78188E-3
2.38369E-3	84.9346E-12	715.043E-3	-4.19809E-3	87.1543E-12	714.965E-3	-12.6497E-3
2.37869E-3	85.4024E-12	705.595E-3	-3.40211E-3	87.4463E-12	710.981E-3	-13.8066E-3
2.37369E-3	85.2620E-12	697.792E-3	-9.90739E-3	86.8928E-12	714.909E-3	-2.90254E-3
2.36868E-3	85.4897E-12	720.778E-3	-16.3597E-3	85.8536E-12	705.681E-3	2.11164E-3
2.36368E-3	85.8531E-12	735.447E-3	-11.0659E-3	85.4559E-12	693.376E-3	-13.6444E-3
2.35868E-3	85.9543E-12	721.114E-3	-14.7662E-3	84.9327E-12	692.121E-3	-24.5225E-3
2.35368E-3	86.1674E-12	709.116E-3	-17.8145E-3	84.3657E-12	700.526E-3	-22.2060E-3
2.34867E-3	86.0382E-12	708.824E-3	-5.59314E-3	83.2364E-12	698.944E-3	-21.5837E-3
2.34367E-3	86.2402E-12	709.881E-3	-3.33306E-3	82.6824E-12	695.482E-3	-12.2843E-3
2.33867E-3	85.5618E-12	721.580E-3	-14.2157E-3	82.4350E-12	693.514E-3	-1.66116E-3
2.33367E-3	85.3556E-12	729.902E-3	-30.9022E-3	82.1488E-12	693.219E-3	637.608E-6
2.32866E-3	84.8419E-12	722.766E-3	-38.7857E-3	81.4522E-12	705.263E-3	-4.00357E-3
2.32366E-3	84.6905E-12	730.827E-3	-27.9313E-3	81.6098E-12	711.961E-3	-5.80491E-3
2.31866E-3	83.8821E-12	752.783E-3	-25.7757E-3	81.4682E-12	712.561E-3	-11.0981E-3
2.31366E-3	83.2875E-12	751.052E-3	-32.3910E-3	81.4514E-12	722.076E-3	-26.0390E-3
2.30865E-3	82.9195E-12	733.506E-3	-23.0550E-3	81.5089E-12	727.872E-3	-24.8863E-3
2.30365E-3	82.4900E-12	720.147E-3	-12.4049E-3	81.8057E-12	731.849E-3	-10.4051E-3
2.29865E-3	81.7472E-12	713.342E-3	-4.35142E-3	81.8533E-12	732.425E-3	-7.49945E-3
2.29365E-3	81.5592E-12	716.756E-3	4.91058E-3	81.7902E-12	720.590E-3	-9.61006E-3
2.28864E-3	81.5523E-12	718.591E-3	6.00905E-3	81.8553E-12	714.083E-3	-5.70190E-3
2.28364E-3	81.1598E-12	719.027E-3	-6.60663E-3	81.9305E-12	724.010E-3	521.877E-6
2.27864E-3	80.7234E-12	721.451E-3	-25.0899E-3	81.4734E-12	727.865E-3	9.13429E-3
2.27364E-3	80.8159E-12	726.184E-3	-18.6723E-3	81.1318E-12	714.517E-3	11.5812E-3
2.26863E-3	80.6821E-12	735.537E-3	7.13096E-3	81.0732E-12	699.984E-3	-1.12538E-3
2.26363E-3	80.6055E-12	735.906E-3	6.68103E-3	80.8400E-12	702.596E-3	-8.88606E-3
2.25863E-3	79.8753E-12	729.288E-3	-8.21699E-3	79.7043E-12	712.845E-3	-8.69712E-3
2.25363E-3	79.6806E-12	729.792E-3	-10.3057E-3	79.3377E-12	719.402E-3	-6.32003E-3
2.24862E-3	79.9557E-12	733.721E-3	-14.4687E-3	78.8517E-12	722.302E-3	-8.42493E-3
2.24362E-3	79.7666E-12	735.715E-3	-13.4660E-3	78.3615E-12	702.356E-3	-11.6378E-3
2.23862E-3	78.9260E-12	739.128E-3	-14.7677E-3	77.4698E-12	685.294E-3	-2.39419E-3
2.23362E-3	78.6426E-12	737.619E-3	-22.5279E-3	77.4702E-12	699.223E-3	-3.79102E-3
2.22861E-3	78.1082E-12	725.154E-3	-23.7912E-3	77.5043E-12	714.234E-3	-16.2183E-3
2.22361E-3	77.6433E-12	712.715E-3	-21.3693E-3	76.9687E-12	716.642E-3	-13.7348E-3
2.21861E-3	76.4933E-12	715.170E-3	-18.1078E-3	76.9149E-12	709.318E-3	-641.933E-6
2.21361E-3	76.0947E-12	728.118E-3	-23.3586E-3	76.6104E-12	699.061E-3	4.65906E-3
2.20860E-3	75.6963E-12	733.242E-3	-20.0052E-3	76.5779E-12	705.820E-3	-8.98895E-3
2.20360E-3	75.6535E-12	721.794E-3	-2.17615E-3	76.4619E-12	733.603E-3	-24.3229E-3
2.19860E-3	75.0853E-12	708.371E-3	13.2319E-3	76.7062E-12	748.357E-3	-11.4135E-3
2.19360E-3	75.0896E-12	711.436E-3	20.8667E-3	76.4871E-12	738.975E-3	7.07422E-3
2.18859E-3	75.1179E-12	716.004E-3	18.0032E-3	76.3556E-12	737.601E-3	-160.444E-6
2.18359E-3	75.3442E-12	710.267E-3	7.35949E-3	76.4591E-12	746.286E-3	-10.4421E-3
2.17859E-3	74.9026E-12	704.046E-3	3.62256E-3	77.0214E-12	756.688E-3	890.023E-6
2.17359E-3	74.8869E-12	702.430E-3	1.94939E-3	76.7389E-12	766.746E-3	3.78087E-3
2.16858E-3	75.0015E-12	709.619E-3	-10.0892E-3	76.6234E-12	767.705E-3	-17.7646E-3
2.16358E-3	75.1943E-12	729.478E-3	-13.6148E-3	76.4559E-12	745.757E-3	-31.7470E-3
2.15858E-3	75.1438E-12	739.789E-3	-10.2552E-3	76.4290E-12	718.230E-3	-28.1508E-3
2.15358E-3	74.7267E-12	736.417E-3	-11.2808E-3	76.1555E-12	715.021E-3	-20.0712E-3
2.14857E-3	74.7804E-12	733.207E-3	-7.12845E-3	75.3694E-12	724.050E-3	-9.87125E-3
2.14357E-3	74.2218E-12	732.822E-3	-5.83392E-3	74.7772E-12	729.506E-3	-6.92607E-3
2.13857E-3	74.0403E-12	741.513E-3	-17.6511E-3	74.3363E-12	725.076E-3	-18.9366E-3
2.13357E-3	73.5923E-12	742.149E-3	-23.8871E-3	73.8276E-12	710.169E-3	-28.2650E-3
2.12856E-3	73.3800E-12	728.555E-3	-24.0153E-3	73.2344E-12	704.670E-3	-29.7147E-3
2.12356E-3	72.7889E-12	721.652E-3	-18.5179E-3	72.4086E-12	712.439E-3	-33.0422E-3
2.11856E-3	72.4354E-12	724.359E-3	-937.090E-6	71.6944E-12	718.818E-3	-33.6501E-3
2.11356E-3	72.2813E-12	727.764E-3	-1.07284E-3	71.3598E-12	721.674E-3	-20.8453E-3
2.10855E-3	71.8122E-12	737.038E-3	-14.0485E-3	70.9653E-12	724.990E-3	-5.81486E-3
2.10355E-3	71.6213E-12	738.766E-3	-18.3359E-3	70.7173E-12	737.889E-3	-47.8081E-6
2.09855E-3	71.3243E-12	733.027E-3	-21.8447E-3	70.4295E-12	747.905E-3	-1.05217E-3
2.09355E-3	71.2070E-12	737.194E-3	-24.3152E-3	70.4710E-12	750.057E-3	-12.2993E-3
2.08854E-3	71.1871E-12	743.511E-3	-26.4211E-3	71.1531E-12	754.519E-3	-19.0823E-3
2.08354E-3	71.1477E-12	742.782E-3	-33.1717E-3	71.2730E-12	758.625E-3	-14.9654E-3
2.07854E-3	71.1711E-12	739.402E-3	-31.3144E-3	71.0719E-12	773.343E-3	-18.0088E-3
2.07354E-3	71.0711E-12	744.288E-3	-12.7075E-3	71.4886E-12	797.836E-3	-22.7513E-3
2.06853E-3	71.0785E-12	745.375E-3	8.15529E-3	72.1426E-12	809.976E-3	-9.52472E-3
2.06353E-3	70.9195E-12	740.503E-3	10.4258E-3	71.7430E-12	800.090E-3	5.79479E-3
2.05853E-3	70.8379E-12	752.888E-3	-815.046E-6	71.3606E-12	784.921E-3	5.04967E-3
2.05353E-3	70.4781E-12	769.382E-3	-11.9407E-3	70.9174E-12	777.726E-3	-2.67820E-3
2.04852E-3	70.4059E-12	768.503E-3	-28.2602E-3	70.8483E-12	774.763E-3	-10.5496E-3
2.04352E-3	70.2111E-12	766.545E-3	-37.8108E-3	70.2405E-12	776.923E-3	-16.4888E-3
2.03852E-3	70.0108E-12	769.719E-3	-32.0634E-3	69.2360E-12	770.822E-3	-7.19239E-3
2.03352E-3	69.8853E-12	767.197E-3	-32.3418E-3	68.9967E-12	755.839E-3	2.44307E-3
2.02851E-3	69.4916E-12	779.422E-3	-33.4123E-3	68.2562E-12	753.545E-3	-13.4105E-3
2.02351E-3	69.2185E-12	795.580E-3	-22.1048E-3	67.3250E-12	757.287E-3	-25.5663E-3
2.01851E-3	68.6942E-12	777.093E-3	-4.89400E-3	66.6802E-12	749.259E-3	-21.8243E-3
2.01351E-3	68.5510E-12	758.674E-3	6.59690E-3	66.6927E-12	737.835E-3	-19.6396E-3
2.00850E-3	68.0168E-12	763.144E-3	1.88022E-3	65.7983E-12	740.091E-3	-19.1697E-3
2.00350E-3	67.4030E-12	758.810E-3	-8.52829E-3	65.5535E-12	745.974E-3	-26.8803E-3
1.99850E-3	67.3061E-12	767.338E-3	-11.6528E-3	65.7298E-12	754.128E-3	-33.6178E-3
1.99350E-3	66.7500E-12	786.017E-3	-15.3698E-3	65.9299E-12	769.253E-3	-21.1643E-3
1.98849E-3	66.2743E-12	783.266E-3	-20.2047E-3	65.6755E-12	772.859E-3	-11.9014E-3
1.98349E-3	66.0045E-12	775.526E-3	-19.3291E-3	65.8505E-12	776.130E-3	-17.8148E-3
1.97849E-3	65.9744E-12	772.404E-3	-26.5540E-3	66.1080E-12	791.358E-3	-26.1332E-3
1.97349E-3	65.5148E-12	772.499E-3	-36.5815E-3	66.4454E-12	800.297E-3	-34.1192E-3
1.96848E-3	64.9356E-12	778.752E-3	-34.3168E-3	66.6254E-12	792.673E-3	-27.7960E-3
1.96348E-3	64.9531E-12	777.462E-3	-20.1992E-3	66.5051E-12	792.497E-3	-12.4075E-3
1.95848E-3	64.9287E-12	771.992E-3	-17.0265E-3	66.4157E-12	812.595E-3	-7.33541E-3
1.95348E-3	64.4604E-12	780.285E-3	-27.3595E-3	66.2545E-12	820.247E-3	-8.19954E-3
1.94847E-3	64.2709E-12	785.247E-3	-27.5663E-3	66.0936E-12	810.086E-3	-17.3608E-3
1.94347E-3	64.2814E-12	782.144E-3	-18.5977E-3	65.5331E-12	799.067E-3	-20.7985E-3
1.93847E-3	64.3868E-12	789.778E-3	-3.41019E-3	64.5992E-12	799.773E-3	-10.6942E-3
1.93347E-3	63.8839E-12	794.512E-3	7.88437E-3	63.8956E-12	807.175E-3	-13.3879E-3
1.92846E-3	63.3672E-12	793.069E-3	7.48597E-3	63.4663E-12	800.737E-3	-28.1068E-3
1.92346E-3	63.3343E-12	799.786E-3	5.32358E-3	62.6929E-12	800.704E-3	-33.5453E-3
1.91846E-3	62.9696E-12	799.860E-3	7.40836E-3	62.0752E-12	815.813E-3	-29.3016E-3
1.91346E-3	62.4857E-12	790.838E-3	3.51600E-3	61.5597E-12	815.655E-3	-27.8309E-3
1.90845E-3	61.8698E-12	799.060E-3	-6.56071E-3	61.3278E-12	803.803E-3	-29.9736E-3
1.90345E-3	61.5787E-12	824.270E-3	-6.71761E-3	60.9442E-12	804.031E-3	-30.7619E-3
1.89845E-3	60.9559E-12	823.112E-3	-7.34211E-3	60.7744E-12	824.666E-3	-34.1079E-3
1.89345E-3	60.5461E-12	793.067E-3	-14.2384E-3	60.5067E-12	837.123E-3	-39.5084E-3
1.88844E-3	59.6231E-12	784.644E-3	-14.8396E-3	60.7140E-12	826.988E-3	-39.3857E-3
1.88344E-3	59.5013E-12	808.030E-3	-11.0031E-3	60.8470E-12	816.440E-3	-31.9232E-3
1.87844E-3	59.1308E-12	822.339E-3	-7.55961E-3	60.8281E-12	815.682E-3	-19.2759E-3
1.87344E-3	58.8113E-12	806.540E-3	-8.37101E-3	60.6024E-12	819.628E-3	-14.4040E-3
1.86843E-3	58.8010E-12	787.746E-3	-12.2622E-3	60.9226E-12	829.261E-3	-16.6129E-3
1.86343E-3	58.4235E-12	796.883E-3	-11.1604E-3	60.8929E-12	841.007E-3	-18.0111E-3
1.85843E-3	58.5691E-12	816.918E-3	-4.13944E-3	61.0571E-12	838.339E-3	-19.7338E-3
1.85343E-3	58.2710E-12	826.491E-3	-3.51828E-3	60.6481E-12	828.008E-3	-16.7284E-3
1.84842E-3	58.7296E-12	828.478E-3	-24.5768E-3	60.2301E-12	839.237E-3	-15.5257E-3
1.84342E-3	58.3393E-12	824.176E-3	-47.4874E-3	59.6573E-12	859.780E-3	-17.3113E-3
1.83842E-3	58.3850E-12	827.366E-3	-41.0418E-3	59.3022E-12	852.782E-3	-16.0752E-3
1.83342E-3	58.7508E-12	843.720E-3	-32.5515E-3	58.9919E-12	840.093E-3	-12.6654E-3
1.82841E-3	58.4835E-12	859.338E-3	-33.7996E-3	57.9795E-12	840.337E-3	-8.86834E-3
1.82341E-3	58.3581E-12	858.046E-3	-22.9971E-3	57.1593E-12	835.869E-3	-13.9840E-3
1.81841E-3	57.6321E-12	834.089E-3	-17.1339E-3	57.0255E-12	830.752E-3	-18.3486E-3
1.81341E-3	57.3965E-12	831.210E-3	-19.2923E-3	56.2618E-12	833.567E-3	-14.3883E-3
1.80840E-3	56.7346E-12	859.938E-3	-17.1197E-3	55.7915E-12	843.270E-3	-16.7083E-3
1.80340E-3	56.7156E-12	869.426E-3	-17.6963E-3	55.1211E-12	856.890E-3	-27.5168E-3
1.79840E-3	56.0740E-12	859.814E-3	-18.0834E-3	55.3162E-12	860.053E-3	-31.7377E-3
1.79340E-3	55.5892E-12	860.604E-3	-7.43957E-3	54.5730E-12	852.848E-3	-24.0624E-3
1.78839E-3	55.3137E-12	864.703E-3	-8.57824E-3	54.2876E-12	855.963E-3	-21.3700E-3
1.78339E-3	55.1709E-12	866.737E-3	-21.3894E-3	53.9751E-12	871.990E-3	-28.7367E-3
1.77839E-3	54.5406E-12	862.709E-3	-11.4528E-3	54.1324E-12	881.958E-3	-31.1165E-3
1.77339E-3	54.1563E-12	848.433E-3	-2.72916E-3	53.8896E-12	891.678E-3	-25.8435E-3
1.76838E-3	54.1505E-12	850.870E-3	-15.0667E-3	53.8105E-12	900.315E-3	-18.6077E-3
1.76338E-3	54.1089E-12	863.984E-3	-16.5265E-3	53.5891E-12	889.268E-3	-9.79232E-3
1.75838E-3	53.8641E-12	858.619E-3	-7.54412E-3	53.9406E-12	872.736E-3	-4.91107E-3
1.75338E-3	53.9275E-12	859.860E-3	-21.6019E-3	53.9873E-12	873.149E-3	-7.40788E-3
1.74837E-3	54.0420E-12	876.028E-3	-37.5904E-3	53.5441E-12	888.624E-3	-8.94216E-3
1.74337E-3	53.9654E-12	871.725E-3	-29.3771E-3	53.6235E-12	903.600E-3	-7.64457E-3
1.73837E-3	53.8193E-12	863.827E-3	-33.3828E-3	53.7682E-12	911.518E-3	-14.0771E-3
1.73337E-3	53.6146E-12	883.456E-3	-50.1906E-3	53.1733E-12	915.101E-3	-22.2394E-3
1.72836E-3	53.4299E-12	898.442E-3	-51.2506E-3	52.6400E-12	914.192E-3	-26.0413E-3
1.72336E-3	53.1404E-12	899.462E-3	-39.8605E-3	52.5398E-12	909.219E-3	-33.5514E-3
1.71836E-3	52.5933E-12	914.855E-3	-23.6590E-3	52.0713E-12	911.934E-3	-36.1682E-3
1.71336E-3	52.1719E-12	924.351E-3	-18.7006E-3	51.4011E-12	923.211E-3	-31.2161E-3
1.70835E-3	51.6755E-12	925.395E-3	-25.3754E-3	50.9295E-12	921.630E-3	-27.6977E-3
1.70335E-3	51.1944E-12	929.700E-3	-30.2670E-3	50.5861E-12	911.290E-3	-26.6344E-3
1.69835E-3	50.3153E-12	922.794E-3	-27.0152E-3	49.8494E-12	916.057E-3	-29.0412E-3
1.69335E-3	49.9104E-12	917.452E-3	-15.4793E-3	49.4012E-12	935.206E-3	-31.0749E-3
1.68834E-3	49.1673E-12	913.178E-3	-6.20939E-3	48.8667E-12	945.828E-3	-24.2880E-3
1.68334E-3	48.6982E-12	905.709E-3	-4.50024E-3	48.3758E-12	941.088E-3	-8.34366E-3
1.67834E-3	47.9612E-12	912.560E-3	-14.9601E-3	48.4931E-12	932.850E-3	1.35147E-3
1.67334E-3	47.8659E-12	922.146E-3	-25.8406E-3	48.0974E-12	934.254E-3	6.41111E-3
1.66833E-3	47.3928E-12	917.045E-3	-27.7754E-3	47.9018E-12	954.433E-3	9.55528E-3
1.66333E-3	46.9701E-12	908.701E-3	-28.2116E-3	47.9145E-12	970.164E-3	1.13138E-3
1.65833E-3	46.6565E-12	919.968E-3	-23.0123E-3	48.0151E-12	974.695E-3	-9.26044E-3
1.65333E-3	46.7004E-12	931.787E-3	-14.7269E-3	48.0888E-12	982.251E-3	-15.3416E-3
1.64832E-3	46.4215E-12	930.383E-3	-18.7929E-3	48.2416E-12	993.402E-3	-22.1641E-3
1.64332E-3	46.0495E-12	933.376E-3	-26.4020E-3	48.2610E-12	1.00669E+0	-21.5353E-3
1.63832E-3	45.7784E-12	938.600E-3	-23.9398E-3	48.0171E-12	1.01161E+0	-9.07844E-3
1.63332E-3	45.9527E-12	946.031E-3	-16.3353E-3	48.2654E-12	1.01625E+0	-1.51267E-3
1.62831E-3	45.7304E-12	957.391E-3	-18.1305E-3	47.6396E-12	1.02768E+0	-4.39281E-3
1.62331E-3	44.9303E-12	955.953E-3	-25.3974E-3	47.2474E-12	1.01402E+0	-4.67781E-3
1.61831E-3	44.6181E-12	949.530E-3	-21.3113E-3	46.8898E-12	985.131E-3	-4.34273E-3
1.61331E-3	44.7088E-12	955.065E-3	-21.6755E-3	46.1880E-12	977.827E-3	-9.92626E-3
1.60830E-3	44.1645E-12	966.893E-3	-24.0549E-3	45.3868E-12	975.541E-3	-8.38518E-3
1.60330E-3	43.7469E-12	978.489E-3	-20.8410E-3	44.8496E-12	958.761E-3	-4.95380E-3
1.59830E-3	43.4603E-12	981.342E-3	-17.3413E-3	44.0933E-12	952.808E-3	-20.7057E-3
1.59330E-3	43.1514E-12	976.823E-3	-8.38463E-3	43.2510E-12	972.756E-3	-34.0188E-3
1.58829E-3	42.5463E-12	973.597E-3	-2.42275E-3	42.8207E-12	989.500E-3	-33.4431E-3
1.58329E-3	42.2416E-12	985.665E-3	-7.38213E-3	42.4286E-12	995.632E-3	-30.6539E-3
1.57829E-3	41.9043E-12	1.00806E+0	1.21933E-3	41.7581E-12	1.00480E+0	-27.1708E-3
1.57329E-3	41.7551E-12	1.01873E+0	17.2147E-3	41.4106E-12	1.01449E+0	-28.8432E-3
1.56828E-3	41.5156E-12	1.01545E+0	7.26263E-3	41.1669E-12	1.02531E+0	-24.7135E-3
1.56328E-3	41.2024E-12	1.01191E+0	-5.56998E-3	41.1347E-12	1.03580E+0	-4.99744E-3
1.55828E-3	40.8491E-12	1.01607E+0	-4.85695E-3	40.8828E-12	1.04450E+0	16.7891E-3
1.55328E-3	40.5663E-12	1.02821E+0	-13.7467E-3	40.7009E-12	1.04981E+0	16.0633E-3
1.54827E-3	40.2182E-12	1.04210E+0	-29.9422E-3	40.5813E-12	1.05393E+0	-5.53305E-3
1.54327E-3	39.9975E-12	1.03742E+0	-30.4701E-3	40.8977E-12	1.05870E+0	-20.3981E-3
1.53827E-3	39.8450E-12	1.01986E+0	-22.7133E-3	40.7456E-12	1.06747E+0	-22.6009E-3
1.53327E-3	39.7534E-12	1.02384E+0	-14.0031E-3	40.5274E-12	1.08231E+0	-21.1494E-3
1.52826E-3	39.3210E-12	1.04125E+0	-10.7679E-3	40.2240E-12	1.08172E+0	-16.9302E-3
1.52326E-3	38.9269E-12	1.04523E+0	-14.7655E-3	40.0296E-12	1.07081E+0	-15.7719E-3
1.51826E-3	38.7367E-12	1.04986E+0	-18.5869E-3	39.4714E-12	1.06074E+0	-20.7597E-3
1.51326E-3	38.6580E-12	1.05920E+0	-21.4726E-3	38.7917E-12	1.04609E+0	-19.7751E-3
1.50825E-3	38.1796E-12	1.06172E+0	-16.2853E-3	38.2510E-12	1.02753E+0	-14.7923E-3
1.50325E-3	37.9847E-12	1.06805E+0	-13.1473E-3	37.8474E-12	1.01977E+0	-11.6175E-3
1.49825E-3	37.7920E-12	1.07564E+0	-17.4946E-3	36.8865E-12	1.03204E+0	-13.7702E-3
1.49325E-3	37.6680E-12	1.07242E+0	-25.2756E-3	36.2735E-12	1.04198E+0	-25.5284E-3
1.48824E-3	37.1617E-12	1.06628E+0	-34.7128E-3	35.7126E-12	1.04014E+0	-29.8501E-3
1.48324E-3	36.5509E-12	1.06794E+0	-34.9506E-3	34.9604E-12	1.03557E+0	-19.6735E-3
1.47824E-3	36.5928E-12	1.07255E+0	-32.6543E-3	34.2399E-12	1.03208E+0	-13.7011E-3
1.47324E-3	36.0669E-12	1.06909E+0	-21.6330E-3	34.0484E-12	1.03317E+0	-10.6838E-3
1.46823E-3	35.4280E-12	1.06541E+0	-5.30837E-3	33.6716E-12	1.03151E+0	-11.4919E-3
1.46323E-3	34.8753E-12	1.06672E+0	-4.87171E-3	33.3885E-12	1.03720E+0	-21.6894E-3
1.45823E-3	34.8946E-12	1.06367E+0	-3.50602E-3	32.9196E-12	1.05130E+0	-19.6337E-3
1.45323E-3	34.0219E-12	1.05806E+0	-1.98901E-3	33.0222E-12	1.05371E+0	-5.20100E-3
1.44822E-3	33.5612E-12	1.05817E+0	-20.3517E-3	32.9815E-12	1.04739E+0	-4.48185E-3
1.44322E-3	33.0491E-12	1.06325E+0	-39.5443E-3	32.6987E-12	1.04872E+0	-17.1722E-3
1.43822E-3	32.6349E-12	1.05617E+0	-41.1573E-3	32.5011E-12	1.06085E+0	-25.9381E-3
1.43322E-3	32.3991E-12	1.03993E+0	-28.1230E-3	32.6250E-12	1.06669E+0	-21.0406E-3
1.42821E-3	32.1450E-12	1.03796E+0	-12.1066E-3	32.4616E-12	1.06576E+0	-7.86001E-3
1.42321E-3	31.7103E-12	1.04956E+0	-10.5752E-3	32.3687E-12	1.06303E+0	-13.1212E-3
1.41821E-3	31.3866E-12	1.04911E+0	-23.9306E-3	31.8665E-12	1.04757E+0	-35.4218E-3
1.41321E-3	31.3422E-12	1.04250E+0	-27.0958E-3	31.4601E-12	1.03515E+0	-46.2995E-3
1.40820E-3	30.7452E-12	1.04784E+0	-10.0326E-3	31.3581E-12	1.03607E+0	-35.2363E-3
1.40320E-3	30.5460E-12	1.04758E+0	9.63554E-3	30.8097E-12	1.02829E+0	-12.5651E-3
1.39820E-3	30.3736E-12	1.04800E+0	8.92203E-3	30.3168E-12	1.00362E+0	-7.30621E-3
1.39320E-3	29.7864E-12	1.05395E+0	-10.4025E-3	29.7048E-12	984.342E-3	-15.0239E-3
1.38819E-3	29.2672E-12	1.03960E+0	-22.7143E-3	29.3081E-12	978.898E-3	-14.9487E-3
1.38319E-3	29.1155E-12	1.02076E+0	-18.6448E-3	28.8625E-12	968.652E-3	-13.3497E-3
1.37819E-3	28.6517E-12	1.01885E+0	-6.95435E-3	28.2069E-12	966.996E-3	-14.2652E-3
1.37319E-3	27.8558E-12	1.02085E+0	-7.65123E-3	27.7717E-12	968.458E-3	-15.4716E-3
1.36818E-3	27.5542E-12	1.00554E+0	-25.7613E-3	27.2764E-12	952.071E-3	-13.1049E-3
1.36318E-3	27.0713E-12	978.441E-3	-34.3358E-3	26.9511E-12	944.468E-3	-3.43597E-3
1.35818E-3	26.6350E-12	961.762E-3	-18.7998E-3	26.7235E-12	953.814E-3	2.97757E-3
1.35318E-3	25.9445E-12	956.255E-3	-392.500E-6	26.3840E-12	953.582E-3	-6.33133E-3
1.34817E-3	25.8131E-12	954.913E-3	-4.45030E-3	26.2228E-12	947.996E-3	-24.8119E-3
1.34317E-3	25.6720E-12	953.290E-3	-19.3140E-3	25.9920E-12	944.580E-3	-40.0961E-3
1.33817E-3	25.4378E-12	947.261E-3	-26.1979E-3	25.8804E-12	941.640E-3	-32.5348E-3
1.33317E-3	25.0846E-12	934.574E-3	-31.3035E-3	25.9879E-12	936.910E-3	-5.79445E-3
1.32816E-3	24.9907E-12	923.153E-3	-38.0140E-3	25.6244E-12	919.924E-3	2.91456E-3
1.32316E-3	24.8477E-12	930.387E-3	-39.9207E-3	25.3119E-12	912.829E-3	-3.17193E-3
1.31816E-3	24.5228E-12	940.168E-3	-35.1204E-3	25.2312E-12	919.149E-3	341.640E-6
1.31316E-3	24.3785E-12	925.484E-3	-34.1536E-3	25.1297E-12	909.608E-3	-860.351E-6
1.30815E-3	24.2966E-12	903.976E-3	-34.7403E-3	24.9297E-12	891.399E-3	-17.0791E-3
1.30315E-3	24.2331E-12	890.630E-3	-16.5063E-3	24.5930E-12	870.883E-3	-26.7059E-3
1.29815E-3	23.7180E-12	890.724E-3	6.26607E-3	24.2754E-12	844.241E-3	-14.8579E-3
1.29315E-3	23.4455E-12	900.906E-3	4.91976E-3	23.9522E-12	828.615E-3	-13.1004E-3
1.28814E-3	23.2695E-12	895.683E-3	-10.5666E-3	23.5518E-12	817.354E-3	-24.8170E-3
1.28314E-3	23.0725E-12	866.837E-3	-13.1201E-3	23.0081E-12	795.099E-3	-13.3691E-3
1.27814E-3	22.6136E-12	840.994E-3	-1.66244E-3	22.6480E-12	772.589E-3	30.2999E-6
1.27314E-3	22.3088E-12	845.373E-3	3.01613E-3	22.2963E-12	759.946E-3	-9.23697E-3
1.26813E-3	21.9538E-12	847.485E-3	-12.1048E-3	21.8299E-12	750.681E-3	-20.8406E-3
1.26313E-3	21.7720E-12	824.016E-3	-23.9280E-3	21.3311E-12	728.420E-3	-19.2688E-3
1.25813E-3	21.4103E-12	807.435E-3	-19.1332E-3	21.0696E-12	703.860E-3	-7.45956E-3
1.25313E-3	21.1233E-12	796.221E-3	-16.8586E-3	20.8418E-12	693.115E-3	-3.40592E-3
1.24812E-3	21.0099E-12	775.936E-3	-16.0293E-3	20.4757E-12	688.932E-3	-4.04947E-3
1.24312E-3	20.7671E-12	763.050E-3	-18.1780E-3	20.1555E-12	681.771E-3	-542.769E-6
1.23812E-3	20.5341E-12	759.724E-3	-26.3581E-3	20.1024E-12	681.925E-3	-9.65066E-3
1.23312E-3	20.3072E-12	747.435E-3	-30.6189E-3	20.0190E-12	685.976E-3	-23.5791E-3
1.22811E-3	20.2630E-12	731.743E-3	-26.2194E-3	19.7414E-12	674.508E-3	-23.4257E-3
1.22311E-3	20.1027E-12	720.046E-3	-10.4894E-3	19.5967E-12	659.877E-3	-15.9500E-3
1.21811E-3	19.6861E-12	697.743E-3	-2.76177E-3	19.5965E-12	647.960E-3	-17.7918E-3
1.21311E-3	19.4649E-12	673.572E-3	-6.31794E-3	19.4161E-12	635.091E-3	-26.2325E-3
1.20810E-3	19.4524E-12	657.207E-3	1.03584E-3	19.1552E-12	623.258E-3	-25.6599E-3
1.20310E-3	19.3533E-12	641.072E-3	9.57558E-3	19.1334E-12	603.198E-3	-23.1153E-3
1.19810E-3	18.9509E-12	634.351E-3	9.02073E-3	19.0578E-12	581.220E-3	-21.0130E-3
1.19310E-3	18.8379E-12	642.321E-3	6.28262E-3	18.9401E-12	571.707E-3	-8.51583E-3
1.18809E-3	18.4901E-12	642.725E-3	2.12284E-3	18.5792E-12	567.183E-3	-3.35113E-3
1.18309E-3	18.4918E-12	613.469E-3	-7.09905E-3	18.2505E-12	554.005E-3	-13.2455E-3
1.17809E-3	18.4676E-12	576.594E-3	-16.8525E-3	18.1059E-12	525.583E-3	-13.4117E-3
1.17309E-3	17.9724E-12	558.947E-3	-19.5656E-3	17.8831E-12	497.568E-3	-8.42928E-3
1.16808E-3	17.6821E-12	557.762E-3	-18.6370E-3	17.4341E-12	481.185E-3	-13.9477E-3
1.16308E-3	17.7765E-12	566.915E-3	-11.3336E-3	17.1669E-12	465.308E-3	-15.2011E-3
1.15808E-3	17.3386E-12	565.143E-3	-2.65431E-3	16.9479E-12	461.776E-3	-7.84345E-3
1.15308E-3	16.9525E-12	539.490E-3	-5.02491E-3	16.7092E-12	471.088E-3	-7.44969E-3
1.14807E-3	16.8611E-12	513.842E-3	-6.94977E-3	16.3569E-12	462.075E-3	-5.84364E-3
1.14307E-3	16.7263E-12	497.591E-3	-4.56567E-3	16.3112E-12	439.474E-3	-427.647E-6
1.13807E-3	16.3223E-12	473.553E-3	-11.4963E-3	16.0815E-12	430.292E-3	-9.66032E-3
1.13307E-3	16.1656E-12	450.673E-3	-25.9345E-3	15.9559E-12	427.792E-3	-27.2254E-3
1.12806E-3	16.0380E-12	441.613E-3	-23.4852E-3	16.0003E-12	414.874E-3	-33.3069E-3
1.12306E-3	15.7276E-12	439.345E-3	-11.1548E-3	16.0399E-12	394.273E-3	-28.4572E-3
1.11806E-3	15.6583E-12	439.900E-3	-3.19422E-3	15.7513E-12	381.859E-3	-22.7247E-3
1.11306E-3	15.4411E-12	429.545E-3	6.34181E-3	15.9312E-12	377.465E-3	-17.3282E-3
1.10805E-3	15.3965E-12	395.897E-3	2.62700E-3	16.1469E-12	365.330E-3	-19.7634E-3
1.10305E-3	15.2498E-12	371.483E-3	-8.29985E-3	15.9089E-12	352.811E-3	-23.4986E-3
1.09805E-3	15.0129E-12	368.219E-3	870.754E-6	15.8661E-12	347.101E-3	-26.6026E-3
1.09305E-3	15.0363E-12	357.769E-3	13.9667E-3	15.8619E-12	338.752E-3	-31.5294E-3
1.08804E-3	14.9778E-12	346.743E-3	5.77059E-3	15.6563E-12	331.305E-3	-22.0721E-3
1.08304E-3	14.7901E-12	342.819E-3	-10.2497E-3	15.4275E-12	320.557E-3	-14.2674E-3
1.07804E-3	14.7088E-12	333.327E-3	-20.4347E-3	15.3027E-12	303.884E-3	-18.5718E-3
1.07304E-3	14.7136E-12	326.220E-3	-24.9920E-3	15.0092E-12	293.436E-3	-12.8694E-3
1.06803E-3	14.5591E-12	326.466E-3	-19.7261E-3	14.8294E-12	286.321E-3	-8.11198E-3
1.06303E-3	14.4395E-12	315.707E-3	-12.5060E-3	14.8101E-12	275.909E-3	-13.6626E-3
1.05803E-3	14.2870E-12	300.501E-3	-19.4457E-3	14.4685E-12	261.268E-3	-17.6752E-3
1.05303E-3	14.2547E-12	300.578E-3	-27.9880E-3	14.0812E-12	257.975E-3	-25.3198E-3
1.04802E-3	13.9568E-12	294.671E-3	-21.3247E-3	14.0285E-12	256.402E-3	-22.9515E-3
1.04302E-3	14.0136E-12	278.507E-3	-9.18820E-3	14.0475E-12	244.549E-3	-10.8549E-3
1.03802E-3	14.0266E-12	273.203E-3	-5.69291E-3	13.7008E-12	239.400E-3	-6.42850E-3
1.03302E-3	13.5882E-12	264.689E-3	-16.2888E-3	13.7434E-12	236.996E-3	-13.7112E-3
1.02801E-3	13.3815E-12	250.094E-3	-27.9318E-3	13.5149E-12	225.636E-3	-26.7123E-3
1.02301E-3	13.3077E-12	242.463E-3	-22.4248E-3	13.4119E-12	211.970E-3	-24.4274E-3
1.01801E-3	13.3022E-12	233.740E-3	-7.37903E-3	13.4562E-12	217.309E-3	-9.62010E-3
1.01301E-3	13.2755E-12	222.751E-3	-5.68315E-3	13.4616E-12	221.742E-3	-6.71373E-3
1.00800E-3	13.1137E-12	220.097E-3	-18.3727E-3	13.4500E-12	203.213E-3	-21.4489E-3
1.00300E-3	13.1852E-12	222.482E-3	-24.4675E-3	13.4208E-12	185.132E-3	-36.5133E-3
997.999E-6	13.2363E-12	216.411E-3	-14.3923E-3	13.5182E-12	184.051E-3	-36.8843E-3
992.997E-6	13.1815E-12	211.549E-3	-1.90336E-3	13.5203E-12	192.712E-3	-22.0615E-3
987.994E-6	13.1390E-12	214.398E-3	-8.46634E-3	13.3801E-12	201.854E-3	-14.1341E-3
982.991E-6	13.1713E-12	216.477E-3	-25.7419E-3	13.3204E-12	206.216E-3	-20.6779E-3
977.989E-6	13.2968E-12	216.156E-3	-28.6073E-3	13.2617E-12	199.468E-3	-26.2171E-3
972.986E-6	13.1450E-12	209.836E-3	-22.8635E-3	13.2085E-12	190.106E-3	-27.3150E-3
967.984E-6	12.9781E-12	197.100E-3	-21.0072E-3	13.0193E-12	180.042E-3	-26.4314E-3
962.981E-6	13.1160E-12	193.933E-3	-21.6343E-3	12.7722E-12	170.288E-3	-27.8849E-3
957.979E-6	13.1477E-12	198.413E-3	-30.5499E-3	12.6379E-12	168.811E-3	-26.4221E-3
952.976E-6	12.9712E-12	197.576E-3	-41.6755E-3	12.5772E-12	174.855E-3	-19.6221E-3
947.974E-6	12.8589E-12	201.230E-3	-41.8870E-3	12.4285E-12	186.241E-3	-13.1997E-3
942.971E-6	12.8099E-12	196.367E-3	-33.8523E-3	12.3328E-12	188.913E-3	-2.51135E-3
937.969E-6	12.7249E-12	179.428E-3	-32.4533E-3	12.1674E-12	183.430E-3	1.36210E-3
932.966E-6	12.6888E-12	176.583E-3	-31.0701E-3	12.0652E-12	181.066E-3	-12.8647E-3
927.964E-6	12.4861E-12	187.798E-3	-14.3993E-3	12.1910E-12	180.761E-3	-29.9151E-3
922.961E-6	12.5252E-12	187.094E-3	-783.551E-6	12.0753E-12	189.009E-3	-28.8713E-3
917.959E-6	12.6250E-12	175.702E-3	1.81035E-3	11.9576E-12	198.082E-3	-1.75955E-3
912.956E-6	12.3562E-12	172.810E-3	10.5012E-3	12.0540E-12	194.629E-3	19.2901E-3
907.954E-6	12.2889E-12	175.115E-3	3.51746E-3	12.2046E-12	202.098E-3	7.16105E-3
902.951E-6	12.5044E-12	190.440E-3	-16.3631E-3	12.1018E-12	223.519E-3	-10.8475E-3
897.949E-6	12.3222E-12	209.415E-3	-16.3643E-3	11.9884E-12	227.725E-3	-16.4699E-3
892.946E-6	12.1339E-12	208.463E-3	-15.8912E-3	12.0800E-12	213.214E-3	-16.2057E-3
887.944E-6	12.2706E-12	198.875E-3	-30.3026E-3	12.1365E-12	202.116E-3	-10.8384E-3
882.941E-6	12.2822E-12	185.342E-3	-39.9003E-3	11.9803E-12	198.702E-3	-17.2086E-3
877.939E-6	11.9241E-12	178.532E-3	-32.8658E-3	12.0730E-12	202.815E-3	-30.3746E-3
872.936E-6	11.9143E-12	195.130E-3	-22.7020E-3	11.9576E-12	215.370E-3	-26.1146E-3
867.934E-6	11.9799E-12	212.734E-3	-19.2890E-3	11.8176E-12	223.869E-3	-18.4054E-3
862.931E-6	11.7143E-12	213.750E-3	-20.5703E-3	11.9571E-12	228.437E-3	-16.7460E-3
857.929E-6	11.6138E-12	209.763E-3	-20.4834E-3	11.8294E-12	229.895E-3	-12.4873E-3
852.926E-6	11.7498E-12	205.756E-3	-20.7941E-3	11.4353E-12	225.366E-3	-592.765E-6
847.924E-6	11.3751E-12	204.945E-3	-23.9379E-3	11.3991E-12	223.924E-3	3.40689E-3
842.921E-6	11.1636E-12	224.102E-3	-23.3877E-3	11.3471E-12	228.783E-3	-8.00234E-3
837.919E-6	11.1179E-12	246.644E-3	-24.4796E-3	11.0039E-12	229.099E-3	-16.3978E-3
832.916E-6	10.9118E-12	244.656E-3	-21.8002E-3	10.9796E-12	218.761E-3	-17.2718E-3
827.914E-6	10.8009E-12	237.229E-3	-11.8762E-3	11.0260E-12	218.641E-3	-14.3463E-3
822.911E-6	10.6627E-12	234.481E-3	-3.71623E-3	10.6749E-12	236.557E-3	-11.3425E-3
817.909E-6	10.5674E-12	218.426E-3	-5.22514E-3	10.6295E-12	246.398E-3	-18.1030E-3
812.906E-6	10.5146E-12	206.536E-3	-15.8523E-3	10.9088E-12	241.045E-3	-29.9776E-3
807.904E-6	10.4084E-12	217.239E-3	-16.9035E-3	10.7182E-12	241.616E-3	-32.7552E-3
802.901E-6	10.3489E-12	233.068E-3	-14.8877E-3	10.3252E-12	247.165E-3	-30.7040E-3
797.899E-6	10.2412E-12	243.988E-3	-20.5285E-3	10.4632E-12	260.446E-3	-31.0825E-3
792.896E-6	10.1238E-12	257.390E-3	-22.0887E-3	10.6340E-12	284.114E-3	-27.5621E-3
787.894E-6	10.1263E-12	257.250E-3	-13.7341E-3	10.3608E-12	283.917E-3	-14.2404E-3
782.891E-6	10.0483E-12	246.940E-3	-1.32057E-3	10.3962E-12	265.725E-3	-6.26548E-3
777.889E-6	9.89464E-12	247.528E-3	5.82053E-3	10.5296E-12	273.853E-3	-12.1318E-3
772.886E-6	9.84366E-12	244.846E-3	1.07107E-3	10.2469E-12	300.118E-3	-16.4440E-3
767.884E-6	9.77691E-12	243.455E-3	-4.88172E-3	10.3018E-12	308.511E-3	-16.6654E-3
762.881E-6	9.69155E-12	260.223E-3	1.09467E-3	10.1297E-12	298.418E-3	-19.0818E-3
757.879E-6	9.58892E-12	276.548E-3	-459.664E-6	9.81687E-12	289.011E-3	-24.4459E-3
752.876E-6	9.49828E-12	275.038E-3	-14.2478E-3	9.77172E-12	285.272E-3	-25.9706E-3
747.874E-6	9.46637E-12	267.193E-3	-14.1092E-3	9.72679E-12	294.846E-3	-22.2223E-3
742.871E-6	9.40486E-12	262.386E-3	-4.23296E-3	9.43224E-12	308.689E-3	-17.8239E-3
737.869E-6	9.19187E-12	266.270E-3	-5.09568E-3	9.18563E-12	304.467E-3	-20.8857E-3
732.866E-6	9.14724E-12	283.756E-3	-15.0134E-3	9.29107E-12	298.390E-3	-27.8001E-3
727.864E-6	9.10076E-12	288.614E-3	-20.1739E-3	9.07450E-12	303.911E-3	-20.1763E-3
722.861E-6	9.00977E-12	282.474E-3	-18.8556E-3	8.81105E-12	312.682E-3	-13.4720E-3
717.859E-6	8.85226E-12	297.083E-3	-16.8029E-3	8.77466E-12	319.533E-3	-16.5845E-3
712.856E-6	8.72502E-12	308.090E-3	-10.3088E-3	8.75452E-12	325.636E-3	-13.9180E-3
707.854E-6	8.80904E-12	297.322E-3	-10.7314E-3	8.49357E-12	335.345E-3	-22.9256E-3
702.851E-6	8.63122E-12	298.410E-3	-28.6747E-3	8.48636E-12	342.296E-3	-37.3304E-3
697.849E-6	8.50165E-12	307.358E-3	-37.4856E-3	8.48892E-12	340.316E-3	-34.6349E-3
692.846E-6	8.47775E-12	306.427E-3	-21.0911E-3	8.33642E-12	344.856E-3	-20.6887E-3
687.844E-6	8.41614E-12	321.760E-3	-8.05028E-3	8.23696E-12	346.731E-3	-11.3841E-3
682.841E-6	8.29187E-12	341.782E-3	-9.61612E-3	8.30748E-12	330.993E-3	-14.9852E-3
677.839E-6	8.19850E-12	341.185E-3	-16.5673E-3	8.28295E-12	330.905E-3	-22.5887E-3
672.836E-6	8.13498E-12	329.724E-3	-25.9873E-3	8.14452E-12	349.760E-3	-27.1758E-3
667.834E-6	8.01641E-12	325.261E-3	-28.3165E-3	8.04698E-12	360.639E-3	-29.1102E-3
662.831E-6	7.84145E-12	332.227E-3	-23.6852E-3	7.90673E-12	358.599E-3	-23.3192E-3
657.829E-6	7.80134E-12	351.919E-3	-17.3519E-3	7.79137E-12	342.086E-3	-16.2239E-3
652.826E-6	7.69841E-12	374.370E-3	-9.32996E-3	7.76758E-12	333.576E-3	-9.11073E-3
647.824E-6	7.50613E-12	369.061E-3	-6.15793E-3	7.50737E-12	347.691E-3	-3.50686E-3
642.821E-6	7.40376E-12	351.753E-3	-5.39017E-3	7.21067E-12	362.545E-3	-12.4211E-3
637.819E-6	7.28013E-12	348.579E-3	-8.12764E-3	7.18749E-12	358.901E-3	-26.5594E-3
632.816E-6	7.22908E-12	348.049E-3	-14.0664E-3	7.11242E-12	352.896E-3	-31.2896E-3
627.814E-6	7.06775E-12	347.382E-3	-12.6167E-3	6.78842E-12	353.756E-3	-27.9535E-3
622.811E-6	6.79433E-12	353.711E-3	-13.5451E-3	6.59499E-12	345.153E-3	-22.3794E-3
617.809E-6	6.73102E-12	352.115E-3	-16.9637E-3	6.49497E-12	343.801E-3	-14.2010E-3
612.806E-6	6.65045E-12	342.215E-3	-15.8895E-3	6.46636E-12	359.645E-3	-2.00048E-3
607.804E-6	6.49447E-12	352.267E-3	-22.0699E-3	6.31269E-12	353.564E-3	4.01724E-3
602.801E-6	6.37453E-12	373.597E-3	-29.0288E-3	6.27977E-12	330.602E-3	-10.2039E-3
597.799E-6	6.27841E-12	371.009E-3	-32.4676E-3	6.11786E-12	334.388E-3	-21.3587E-3
592.796E-6	6.20205E-12	363.188E-3	-29.0460E-3	5.98317E-12	354.483E-3	-19.2757E-3
587.794E-6	6.04642E-12	368.616E-3	-18.1781E-3	5.96238E-12	359.482E-3	-20.7689E-3
582.791E-6	5.86204E-12	370.348E-3	-8.94910E-3	5.90222E-12	354.088E-3	-18.0854E-3
577.789E-6	5.85072E-12	364.802E-3	530.247E-6	5.76788E-12	363.385E-3	-10.9531E-3
572.786E-6	5.71010E-12	348.729E-3	9.62578E-3	5.71087E-12	373.858E-3	-7.31936E-3
567.784E-6	5.54134E-12	338.483E-3	8.24542E-3	5.63330E-12	365.986E-3	-3.44853E-3
562.781E-6	5.48783E-12	339.659E-3	2.57190E-3	5.52786E-12	355.586E-3	-971.331E-6
557.779E-6	5.35253E-12	344.858E-3	843.488E-6	5.45621E-12	347.582E-3	-8.95403E-3
552.776E-6	5.21575E-12	356.664E-3	-9.80432E-3	5.26268E-12	343.434E-3	-13.0218E-3
547.774E-6	5.11062E-12	360.031E-3	-20.1846E-3	5.10023E-12	344.962E-3	-7.42811E-3
542.771E-6	4.99690E-12	351.321E-3	-16.4326E-3	5.08602E-12	339.957E-3	-7.23736E-3
537.769E-6	4.84835E-12	337.671E-3	-16.1085E-3	4.96431E-12	324.692E-3	-9.91642E-3
532.766E-6	4.67381E-12	339.930E-3	-24.5565E-3	4.78222E-12	314.829E-3	-9.26933E-3
527.764E-6	4.56122E-12	350.864E-3	-26.6764E-3	4.59264E-12	322.046E-3	-9.99701E-3
522.761E-6	4.42627E-12	344.650E-3	-19.5611E-3	4.49596E-12	338.545E-3	-13.2632E-3
517.759E-6	4.36050E-12	338.002E-3	-10.0055E-3	4.45068E-12	339.468E-3	-10.1674E-3
512.756E-6	4.17465E-12	344.647E-3	-4.60812E-3	4.25935E-12	323.526E-3	-1.12959E-3
507.754E-6	4.02415E-12	346.074E-3	-2.36904E-3	4.10370E-12	306.926E-3	-6.88367E-3
502.751E-6	4.01745E-12	331.891E-3	-5.65134E-3	4.01983E-12	302.648E-3	-15.4954E-3
497.749E-6	3.94681E-12	315.501E-3	-12.6186E-3	3.99247E-12	310.242E-3	-11.5890E-3
492.746E-6	3.79344E-12	309.310E-3	-18.9518E-3	3.82705E-12	316.963E-3	-17.5843E-3
487.744E-6	3.69761E-12	311.081E-3	-20.9991E-3	3.69718E-12	320.405E-3	-26.2430E-3
482.741E-6	3.65887E-12	321.719E-3	-18.0018E-3	3.64635E-12	314.305E-3	-26.9968E-3
477.739E-6	3.50216E-12	332.769E-3	-18.3018E-3	3.54513E-12	301.678E-3	-30.2504E-3
472.736E-6	3.39366E-12	329.978E-3	-23.9800E-3	3.47122E-12	287.660E-3	-31.3690E-3
467.734E-6	3.32895E-12	316.749E-3	-21.4770E-3	3.38643E-12	275.444E-3	-24.4649E-3
462.731E-6	3.22037E-12	300.521E-3	-10.4681E-3	3.22706E-12	272.844E-3	-18.1155E-3
457.729E-6	3.17441E-12	298.111E-3	-9.02705E-3	3.10161E-12	271.572E-3	-14.6883E-3
452.726E-6	3.08628E-12	302.084E-3	-7.17847E-3	3.09819E-12	262.719E-3	-10.8649E-3
447.724E-6	2.95618E-12	282.885E-3	-4.04893E-3	3.00754E-12	252.111E-3	-20.1833E-3
442.721E-6	2.88397E-12	262.359E-3	-14.6200E-3	2.83708E-12	249.358E-3	-32.5205E-3
437.719E-6	2.84791E-12	271.492E-3	-24.7005E-3	2.76373E-12	256.387E-3	-25.2581E-3
432.716E-6	2.67937E-12	279.514E-3	-26.8127E-3	2.66307E-12	258.972E-3	-11.0773E-3
427.714E-6	2.61034E-12	273.399E-3	-24.3970E-3	2.55912E-12	246.161E-3	-7.25236E-3
422.711E-6	2.53099E-12	270.860E-3	-12.1742E-3	2.50043E-12	235.544E-3	-9.47477E-3
417.709E-6	2.36354E-12	267.023E-3	-2.23240E-3	2.34910E-12	232.051E-3	-14.8301E-3
412.706E-6	2.29870E-12	257.684E-3	-10.9636E-3	2.25552E-12	219.229E-3	-20.8783E-3
407.704E-6	2.27552E-12	252.408E-3	-20.8465E-3	2.22020E-12	203.292E-3	-19.5690E-3
402.701E-6	2.22185E-12	244.239E-3	-16.3259E-3	2.13079E-12	199.342E-3	-16.2012E-3
397.699E-6	2.06973E-12	236.117E-3	-13.2630E-3	2.01006E-12	204.296E-3	-25.6506E-3
392.696E-6	1.98994E-12	239.087E-3	-21.5398E-3	1.94301E-12	208.336E-3	-38.3575E-3
387.694E-6	1.97324E-12	231.858E-3	-20.9668E-3	1.86480E-12	205.389E-3	-31.3318E-3
382.691E-6	1.90837E-12	215.067E-3	-7.34195E-3	1.84794E-12	196.210E-3	-18.2876E-3
377.689E-6	1.79702E-12	213.441E-3	-6.62388E-3	1.74714E-12	187.936E-3	-19.1811E-3
372.686E-6	1.67876E-12	215.945E-3	-12.9508E-3	1.68513E-12	184.003E-3	-20.5348E-3
367.684E-6	1.67615E-12	204.097E-3	-15.5872E-3	1.56141E-12	183.913E-3	-12.8549E-3
362.681E-6	1.62496E-12	195.349E-3	-11.4653E-3	1.59206E-12	187.684E-3	-11.7565E-3
357.679E-6	1.54031E-12	196.202E-3	-313.198E-6	1.50494E-12	192.836E-3	-12.9271E-3
352.676E-6	1.45876E-12	200.599E-3	-2.44120E-3	1.46905E-12	189.910E-3	-12.0918E-3
347.674E-6	1.44481E-12	208.590E-3	-19.2350E-3	1.30485E-12	179.548E-3	-22.8137E-3
342.671E-6	1.34946E-12	199.239E-3	-28.2911E-3	1.33605E-12	168.829E-3	-33.0098E-3
337.669E-6	1.32030E-12	174.440E-3	-21.7144E-3	1.27605E-12	161.450E-3	-31.6119E-3
332.666E-6	1.23512E-12	162.614E-3	-11.2477E-3	1.21609E-12	154.837E-3	-25.9716E-3
327.664E-6	1.23463E-12	167.716E-3	-6.83457E-3	1.14914E-12	150.236E-3	-18.5621E-3
322.661E-6	1.14633E-12	167.004E-3	-11.6962E-3	1.03070E-12	141.522E-3	-14.6325E-3
317.659E-6	1.04960E-12	153.300E-3	-23.0666E-3	1.09358E-12	131.762E-3	-16.2505E-3
312.656E-6	992.647E-15	140.229E-3	-35.2055E-3	1.03974E-12	141.348E-3	-18.7236E-3
307.654E-6	996.501E-15	129.076E-3	-28.0684E-3	971.059E-15	149.730E-3	-20.3349E-3
302.651E-6	908.838E-15	130.240E-3	-13.7617E-3	893.640E-15	133.484E-3	-27.3512E-3
297.649E-6	852.964E-15	139.595E-3	-18.9488E-3	831.436E-15	110.089E-3	-35.8413E-3
292.646E-6	872.783E-15	135.877E-3	-28.7150E-3	896.273E-15	95.7067E-3	-31.3967E-3
287.644E-6	865.285E-15	120.798E-3	-29.7468E-3	826.815E-15	104.777E-3	-26.6800E-3
282.641E-6	722.619E-15	106.144E-3	-22.4601E-3	724.651E-15	118.931E-3	-30.2286E-3
277.639E-6	695.729E-15	96.0657E-3	-12.0758E-3	687.201E-15	104.732E-3	-26.4965E-3
272.636E-6	699.670E-15	92.5879E-3	-8.73054E-3	690.628E-15	93.4318E-3	-27.1141E-3
267.634E-6	656.431E-15	98.6636E-3	-10.6856E-3	682.275E-15	99.4739E-3	-29.3579E-3
262.631E-6	545.033E-15	105.532E-3	-10.8372E-3	604.220E-15	95.5821E-3	-19.4666E-3
257.629E-6	491.619E-15	105.808E-3	-16.1543E-3	543.307E-15	90.5378E-3	-15.1993E-3
252.626E-6	525.920E-15	98.5962E-3	-25.5390E-3	550.038E-15	87.8860E-3	-14.3487E-3
247.624E-6	517.838E-15	90.4608E-3	-21.3283E-3	556.194E-15	83.4569E-3	-7.55738E-3
242.621E-6	514.795E-15	89.5242E-3	-16.7408E-3	554.764E-15	89.7002E-3	-9.70687E-3
237.619E-6	430.322E-15	88.1562E-3	-22.0284E-3	464.903E-15	94.5453E-3	-25.9414E-3
232.616E-6	434.952E-15	75.0069E-3	-20.7057E-3	447.447E-15	85.8256E-3	-28.6786E-3
227.614E-6	441.474E-15	65.0870E-3	-19.8416E-3	386.752E-15	70.9143E-3	-17.3205E-3
222.611E-6	377.082E-15	73.8858E-3	-22.5756E-3	428.970E-15	55.5379E-3	-22.4020E-3
217.609E-6	329.274E-15	79.9666E-3	-15.1643E-3	349.843E-15	47.6943E-3	-31.1515E-3
212.606E-6	340.051E-15	79.2347E-3	-14.5892E-3	321.636E-15	48.9139E-3	-28.8711E-3
207.604E-6	345.126E-15	75.9916E-3	-23.8006E-3	283.811E-15	51.6858E-3	-22.2513E-3
202.601E-6	286.453E-15	63.5182E-3	-25.2851E-3	301.555E-15	56.9410E-3	-11.5025E-3
197.599E-6	250.312E-15	53.6944E-3	-22.7386E-3	327.513E-15	54.4866E-3	-13.0521E-3
192.596E-6	265.972E-15	50.9936E-3	-20.1348E-3	229.943E-15	33.0847E-3	-25.8364E-3
187.594E-6	228.043E-15	46.1286E-3	-21.2852E-3	191.177E-15	30.0522E-3	-31.1752E-3
182.591E-6	214.510E-15	35.0339E-3	-24.2816E-3	203.402E-15	49.2918E-3	-25.2430E-3
177.589E-6	214.493E-15	31.1297E-3	-20.8536E-3	248.271E-15	45.4974E-3	-10.6883E-3
172.586E-6	208.442E-15	39.2895E-3	-17.1965E-3	153.440E-15	32.4040E-3	5.16598E-3
167.584E-6	159.291E-15	40.8200E-3	-11.2794E-3	125.783E-15	33.0702E-3	4.54631E-3
162.581E-6	129.916E-15	41.0038E-3	-2.49767E-3	152.464E-15	33.2352E-3	-11.5809E-3
157.579E-6	166.580E-15	54.1457E-3	-4.78106E-3	181.813E-15	32.2919E-3	-11.8043E-3
152.576E-6	184.411E-15	53.3180E-3	-11.8302E-3	123.498E-15	36.7556E-3	-1.23927E-3
147.574E-6	112.721E-15	38.4046E-3	-4.83579E-3	85.9267E-15	35.7411E-3	-6.45707E-3
142.571E-6	57.6412E-15	42.4222E-3	6.56515E-3	61.2772E-15	29.6936E-3	-16.3099E-3
137.569E-6	107.882E-15	48.5995E-3	-6.97350E-3	77.5997E-15	26.2070E-3	-18.3615E-3
132.566E-6	124.553E-15	36.4216E-3	-32.2460E-3	88.5686E-15	22.1748E-3	-16.4081E-3
127.564E-6	86.9555E-15	28.2938E-3	-34.1054E-3	60.0042E-15	20.7405E-3	-7.39706E-3
122.561E-6	-13.4996E-15	37.8718E-3	-21.7579E-3	4.96790E-15	22.2343E-3	1.62593E-3
117.559E-6	34.3345E-15	41.3668E-3	-20.4254E-3	1.48018E-15	24.1081E-3	-3.71182E-3
112.556E-6	71.8014E-15	36.1187E-3	-20.6765E-3	39.0168E-15	29.0570E-3	-9.56615E-3
107.554E-6	46.8031E-15	37.0586E-3	-24.7117E-3	-17.7110E-15	36.9784E-3	571.402E-6
102.551E-6	-45.4559E-15	33.8359E-3	-30.2931E-3	15.9804E-15	37.1745E-3	8.83775E-3
97.5488E-6	-1.94651E-15	33.9613E-3	-20.4220E-3	-54.5414E-15	31.9783E-3	2.39886E-3
92.5463E-6	14.0011E-15	38.2343E-3	-8.91344E-3	-8.18082E-15	29.0428E-3	-10.4619E-3
87.5438E-6	-68.6928E-15	37.7419E-3	-7.09385E-3	-55.2738E-15	26.6003E-3	-19.0226E-3
82.5413E-6	-72.0585E-15	31.6176E-3	-15.2376E-3	6.53738E-15	26.3973E-3	-26.5473E-3
77.5388E-6	4.87199E-15	13.3234E-3	-24.6583E-3	-62.4934E-15	33.2126E-3	-31.8303E-3
72.5363E-6	-54.0008E-15	9.73111E-3	-31.0301E-3	-76.4879E-15	39.1112E-3	-20.0431E-3
67.5338E-6	-63.5223E-15	23.4232E-3	-31.3023E-3	-43.2760E-15	33.4546E-3	-6.91218E-3
62.5313E-6	-100.562E-15	25.3423E-3	-22.9765E-3	-28.7061E-15	18.7591E-3	-15.1434E-3
57.5288E-6	-49.7719E-15	17.1649E-3	-22.9629E-3	-85.7478E-15	10.0314E-3	-22.1720E-3
52.5263E-6	-100.361E-15	12.8057E-3	-27.7360E-3	-139.328E-15	16.8126E-3	-2.81335E-3
47.5238E-6	-131.908E-15	17.8037E-3	-21.7407E-3	-96.3069E-15	23.1430E-3	9.26587E-3
42.5213E-6	-107.581E-15	19.7205E-3	-15.3051E-3	-14.5721E-15	21.1024E-3	-6.26633E-3
37.5188E-6	-113.824E-15	17.0253E-3	-13.3698E-3	-87.9014E-15	24.8408E-3	-17.2650E-3
32.5163E-6	-123.415E-15	9.72481E-3	-12.9397E-3	-133.294E-15	31.3697E-3	-13.7375E-3
27.5138E-6	-168.616E-15	140.119E-6	-19.7896E-3	-110.737E-15	27.1667E-3	-12.0746E-3
22.5113E-6	-138.273E-15	9.18821E-3	-35.4025E-3	-138.334E-15	20.0181E-3	-17.4801E-3
17.5088E-6	-99.7248E-15	22.3227E-3	-49.0112E-3	-106.648E-15	12.9435E-3	-22.3483E-3
12.5063E-6	-159.391E-15	16.0907E-3	-45.0528E-3	-169.401E-15	10.6838E-3	-23.0420E-3
7.50375E-6	-228.056E-15	8.57187E-3	-35.3554E-3	-223.687E-15	17.5009E-3	-16.1759E-3
2.50125E-6	-148.910E-15	4.61047E-3	-22.3127E-3	-173.848E-15	25.4491E-3	-2.76957E-3
-2.50125E-6	-140.557E-15	-5.16731E-3	-5.95292E-3	-178.103E-15	30.4638E-3	4.61627E-3
-7.50375E-6	-170.159E-15	-4.79333E-3	-6.77026E-3	-175.836E-15	29.0338E-3	-5.77504E-3
-12.5063E-6	-233.854E-15	-2.34638E-3	-12.4889E-3	-196.823E-15	30.5092E-3	-23.3362E-3
-17.5088E-6	-196.997E-15	-10.7855E-3	-23.2520E-3	-194.103E-15	28.8201E-3	-27.8431E-3
-22.5113E-6	-189.813E-15	-1.05046E-3	-39.1358E-3	-222.998E-15	21.1003E-3	-21.5683E-3
-27.5138E-6	-237.917E-15	22.2766E-3	-33.3095E-3	-229.991E-15	20.0723E-3	-22.7020E-3
-32.5163E-6	-239.417E-15	29.0073E-3	-14.5577E-3	-178.844E-15	13.0909E-3	-30.2291E-3
-37.5188E-6	-235.955E-15	27.3123E-3	-3.90235E-3	-233.366E-15	4.51973E-3	-28.9648E-3
-42.5213E-6	-192.899E-15	25.6158E-3	-4.89368E-3	-253.638E-15	18.5794E-3	-20.3493E-3
-47.5238E-6	-290.590E-15	24.5524E-3	-9.57945E-3	-229.364E-15	42.2630E-3	-30.5153E-3
-52.5263E-6	-290.512E-15	26.7160E-3	-2.02291E-3	-215.029E-15	46.2457E-3	-48.3892E-3
-57.5288E-6	-264.284E-15	34.4073E-3	4.44179E-3	-298.691E-15	46.0972E-3	-38.0159E-3
-62.5313E-6	-263.125E-15	34.0859E-3	-5.40509E-3	-317.620E-15	46.3786E-3	-16.9529E-3
-67.5338E-6	-320.759E-15	24.2367E-3	-16.8042E-3	-259.009E-15	38.7866E-3	-13.9547E-3
-72.5363E-6	-318.562E-15	27.1570E-3	-16.3331E-3	-238.449E-15	40.6943E-3	-21.3295E-3
-77.5388E-6	-285.638E-15	33.1019E-3	-7.67165E-3	-287.870E-15	42.3206E-3	-24.0517E-3
-82.5413E-6	-315.615E-15	23.6886E-3	-7.88640E-3	-392.885E-15	25.0403E-3	-16.1555E-3
-87.5438E-6	-386.390E-15	15.2681E-3	-20.2616E-3	-327.369E-15	7.34845E-3	-13.5313E-3
-92.5463E-6	-365.245E-15	12.8689E-3	-23.4505E-3	-339.471E-15	9.62310E-3	-29.2318E-3
-97.5488E-6	-353.553E-15	289.158E-6	-13.5845E-3	-358.156E-15	19.4380E-3	-31.8826E-3
-102.551E-6	-431.024E-15	-8.74183E-3	-6.34423E-3	-402.171E-15	20.0702E-3	-16.9199E-3
-107.554E-6	-454.906E-15	10.0264E-3	-46.4827E-6	-428.469E-15	23.7477E-3	-15.8463E-3
-112.556E-6	-382.972E-15	32.0596E-3	1.86814E-3	-410.429E-15	32.2565E-3	-22.3692E-3
-117.559E-6	-392.336E-15	32.7628E-3	-9.33700E-3	-392.092E-15	33.2187E-3	-24.0802E-3
-122.561E-6	-473.120E-15	31.5489E-3	-24.4210E-3	-432.916E-15	35.9595E-3	-23.5352E-3
-127.564E-6	-528.026E-15	30.4220E-3	-29.6151E-3	-478.265E-15	49.9353E-3	-19.4877E-3
-132.566E-6	-491.605E-15	27.7287E-3	-17.7325E-3	-475.283E-15	56.9000E-3	-14.1337E-3
-137.569E-6	-418.171E-15	33.6459E-3	-417.437E-6	-487.917E-15	41.4803E-3	-9.56980E-3
-142.571E-6	-504.248E-15	43.9541E-3	7.31249E-3	-489.016E-15	28.8465E-3	-7.16655E-3
-147.574E-6	-599.690E-15	52.7670E-3	2.89624E-3	-569.190E-15	43.6525E-3	-12.5775E-3
-152.576E-6	-572.494E-15	51.2001E-3	-11.4708E-3	-541.733E-15	66.0995E-3	-23.2798E-3
-157.579E-6	-545.508E-15	47.6866E-3	-18.4554E-3	-576.584E-15	63.6484E-3	-20.8755E-3
-162.581E-6	-604.782E-15	53.0169E-3	-10.8314E-3	-582.556E-15	57.6374E-3	-12.4940E-3
-167.584E-6	-652.747E-15	55.4745E-3	-3.31703E-3	-577.447E-15	64.3334E-3	-11.9100E-3
-172.586E-6	-636.485E-15	59.9048E-3	-7.59834E-3	-643.199E-15	74.6715E-3	-12.3003E-3
-177.589E-6	-664.614E-15	70.5346E-3	-13.2962E-3	-728.858E-15	89.6874E-3	-6.06641E-3
-182.591E-6	-674.502E-15	75.4265E-3	-11.6287E-3	-694.355E-15	93.0274E-3	-4.14132E-3
-187.594E-6	-769.464E-15	76.0789E-3	-14.5611E-3	-664.736E-15	91.3323E-3	-22.3929E-3
-192.596E-6	-763.029E-15	79.0472E-3	-18.5258E-3	-795.665E-15	93.9197E-3	-37.2948E-3
-197.599E-6	-778.061E-15	78.7813E-3	-20.5849E-3	-844.249E-15	101.135E-3	-32.1227E-3
-202.601E-6	-862.830E-15	70.7040E-3	-20.0728E-3	-827.403E-15	111.289E-3	-18.4697E-3
-207.604E-6	-890.618E-15	73.3933E-3	-13.3572E-3	-802.614E-15	96.4419E-3	-5.75991E-3
-212.606E-6	-859.447E-15	86.6209E-3	-11.3422E-3	-884.515E-15	76.9042E-3	-3.81671E-3
-217.609E-6	-922.322E-15	84.5806E-3	-18.9653E-3	-972.807E-15	84.0762E-3	-6.42082E-3
-222.611E-6	-1.05431E-12	81.4871E-3	-24.2963E-3	-981.543E-15	97.8520E-3	-3.66585E-3
-227.614E-6	-1.01096E-12	89.3540E-3	-18.6569E-3	-951.113E-15	110.724E-3	-7.79825E-3
-232.616E-6	-1.03756E-12	90.3620E-3	-15.2808E-3	-1.01413E-12	122.135E-3	-14.1770E-3
-237.619E-6	-1.12958E-12	87.3484E-3	-20.6761E-3	-1.08194E-12	131.207E-3	-19.5242E-3
-242.621E-6	-1.19081E-12	96.4711E-3	-22.3236E-3	-1.14624E-12	142.518E-3	-28.4834E-3
-247.624E-6	-1.13819E-12	107.132E-3	-18.4035E-3	-1.17962E-12	158.537E-3	-24.3747E-3
-252.626E-6	-1.14735E-12	115.706E-3	-15.7931E-3	-1.22297E-12	170.306E-3	-14.0200E-3
-257.629E-6	-1.26737E-12	131.981E-3	-13.4793E-3	-1.27470E-12	171.172E-3	-8.32741E-3
-262.631E-6	-1.38074E-12	143.671E-3	-16.2737E-3	-1.28836E-12	171.974E-3	-8.85863E-3
-267.634E-6	-1.39756E-12	137.814E-3	-26.7635E-3	-1.43848E-12	173.784E-3	-21.0038E-3
-272.636E-6	-1.39323E-12	136.474E-3	-27.6562E-3	-1.48259E-12	180.252E-3	-24.0686E-3
-277.639E-6	-1.51963E-12	161.909E-3	-15.0554E-3	-1.44995E-12	194.147E-3	-11.8899E-3
-282.641E-6	-1.62538E-12	188.723E-3	-9.66580E-3	-1.59515E-12	208.619E-3	46.5697E-6
-287.644E-6	-1.63588E-12	188.880E-3	-10.4982E-3	-1.71097E-12	217.450E-3	4.10962E-3
-292.646E-6	-1.65533E-12	175.772E-3	-7.63598E-3	-1.75961E-12	221.404E-3	-2.00005E-3
-297.649E-6	-1.79505E-12	179.151E-3	-9.77981E-3	-1.76755E-12	223.432E-3	-9.69163E-3
-302.651E-6	-1.90041E-12	200.225E-3	-14.6866E-3	-1.81226E-12	227.260E-3	-12.8729E-3
-307.654E-6	-1.89857E-12	220.090E-3	-11.5722E-3	-1.99227E-12	244.490E-3	-15.0626E-3
-312.656E-6	-2.00719E-12	233.693E-3	-8.28710E-3	-2.06364E-12	267.514E-3	-9.75357E-3
-317.659E-6	-2.13071E-12	242.005E-3	-10.2895E-3	-2.09998E-12	283.442E-3	-146.170E-6
-322.661E-6	-2.16162E-12	239.263E-3	-9.07732E-3	-2.18560E-12	284.892E-3	-7.20643E-3
-327.664E-6	-2.21502E-12	235.757E-3	-13.9559E-3	-2.28482E-12	280.751E-3	-22.1572E-3
-332.666E-6	-2.29186E-12	238.649E-3	-28.6521E-3	-2.43971E-12	293.868E-3	-27.6732E-3
-337.669E-6	-2.41041E-12	249.036E-3	-25.2668E-3	-2.50746E-12	311.727E-3	-26.8012E-3
-342.671E-6	-2.51086E-12	262.303E-3	-9.12336E-3	-2.49888E-12	316.100E-3	-19.5141E-3
-347.674E-6	-2.56076E-12	268.141E-3	-9.01151E-3	-2.63232E-12	321.620E-3	-12.5839E-3
-352.676E-6	-2.69194E-12	279.989E-3	-17.2837E-3	-2.79538E-12	336.367E-3	-13.2882E-3
-357.679E-6	-2.86234E-12	294.418E-3	-24.1784E-3	-2.86602E-12	352.282E-3	-17.9013E-3
-362.681E-6	-2.94507E-12	299.763E-3	-22.6335E-3	-2.97038E-12	369.511E-3	-20.1348E-3
-367.684E-6	-2.97299E-12	313.028E-3	-13.7808E-3	-3.09050E-12	388.102E-3	-19.7985E-3
-372.686E-6	-3.17952E-12	329.596E-3	-15.4285E-3	-3.25165E-12	397.841E-3	-23.4551E-3
-377.689E-6	-3.32571E-12	338.775E-3	-28.7150E-3	-3.34716E-12	402.649E-3	-24.5314E-3
-382.691E-6	-3.49937E-12	348.547E-3	-32.2600E-3	-3.52592E-12	410.932E-3	-16.7880E-3
-387.694E-6	-3.50829E-12	355.625E-3	-20.5763E-3	-3.63186E-12	415.637E-3	-10.4858E-3
-392.696E-6	-3.72515E-12	372.568E-3	-15.2466E-3	-3.73122E-12	417.995E-3	-7.88106E-3
-397.699E-6	-3.95623E-12	399.345E-3	-18.7874E-3	-3.84520E-12	427.652E-3	-5.69266E-3
-402.701E-6	-4.01839E-12	413.464E-3	-21.8004E-3	-4.04389E-12	441.222E-3	-4.43971E-3
-407.704E-6	-4.10501E-12	422.973E-3	-23.9144E-3	-4.19285E-12	445.223E-3	1.20029E-3
-412.706E-6	-4.27396E-12	434.592E-3	-14.6268E-3	-4.26524E-12	445.616E-3	4.31635E-3
-417.709E-6	-4.48622E-12	441.729E-3	-2.71583E-3	-4.42064E-12	462.785E-3	-3.78700E-3
-422.711E-6	-4.61163E-12	444.521E-3	-10.2850E-3	-4.61979E-12	488.928E-3	-21.1633E-3
-427.714E-6	-4.71958E-12	448.214E-3	-22.7111E-3	-4.79900E-12	514.864E-3	-28.9715E-3
-432.716E-6	-4.89127E-12	459.351E-3	-20.0051E-3	-4.88662E-12	539.567E-3	-17.5885E-3
-437.719E-6	-5.15750E-12	471.375E-3	-11.7249E-3	-4.96635E-12	546.956E-3	-8.48009E-3
-442.721E-6	-5.28077E-12	479.079E-3	-14.9299E-3	-5.25830E-12	534.470E-3	-12.7522E-3
-447.724E-6	-5.43777E-12	482.631E-3	-27.3200E-3	-5.50932E-12	532.189E-3	-25.8685E-3
-452.726E-6	-5.63700E-12	491.796E-3	-39.8196E-3	-5.48154E-12	555.841E-3	-26.6764E-3
-457.729E-6	-5.82233E-12	517.222E-3	-38.6954E-3	-5.65054E-12	584.729E-3	-11.1322E-3
-462.731E-6	-5.99932E-12	542.317E-3	-28.5898E-3	-5.95948E-12	590.665E-3	-6.84685E-3
-467.734E-6	-6.25650E-12	562.209E-3	-24.1051E-3	-6.23099E-12	580.009E-3	-16.5548E-3
-472.736E-6	-6.51086E-12	578.095E-3	-15.1970E-3	-6.40526E-12	588.442E-3	-22.8655E-3
-477.739E-6	-6.67231E-12	584.967E-3	-6.58503E-3	-6.50935E-12	606.050E-3	-18.7147E-3
-482.741E-6	-6.85206E-12	590.057E-3	-10.3903E-3	-6.75366E-12	615.254E-3	-20.7548E-3
-487.744E-6	-7.06484E-12	597.452E-3	-20.6302E-3	-7.09955E-12	631.532E-3	-26.7190E-3
-492.746E-6	-7.36885E-12	616.096E-3	-23.4579E-3	-7.24956E-12	635.412E-3	-26.5293E-3
-497.749E-6	-7.66446E-12	635.801E-3	-21.8674E-3	-7.39546E-12	626.793E-3	-31.1730E-3
-502.751E-6	-7.76001E-12	638.275E-3	-20.1678E-3	-7.65333E-12	636.898E-3	-34.9247E-3
-507.754E-6	-7.96715E-12	639.240E-3	-14.0216E-3	-7.87855E-12	653.052E-3	-28.1232E-3
-512.756E-6	-8.39812E-12	650.795E-3	-9.47587E-3	-7.91635E-12	656.802E-3	-21.2316E-3
-517.759E-6	-8.44215E-12	667.686E-3	-7.19699E-3	-8.24299E-12	649.126E-3	-26.4827E-3
-522.761E-6	-8.54376E-12	677.604E-3	-10.2100E-3	-8.51140E-12	652.007E-3	-34.2148E-3
-527.764E-6	-8.82160E-12	670.576E-3	-17.7047E-3	-8.56861E-12	675.089E-3	-38.6825E-3
-532.766E-6	-9.08610E-12	669.589E-3	-30.0427E-3	-8.74850E-12	698.269E-3	-40.8196E-3
-537.769E-6	-9.28423E-12	683.752E-3	-37.7094E-3	-9.04316E-12	712.026E-3	-34.0408E-3
-542.771E-6	-9.41936E-12	685.919E-3	-29.3092E-3	-9.32841E-12	712.575E-3	-25.7804E-3
-547.774E-6	-9.56491E-12	683.720E-3	-18.4479E-3	-9.41971E-12	694.587E-3	-24.1797E-3
-552.776E-6	-9.85885E-12	690.747E-3	-18.2605E-3	-9.53990E-12	689.345E-3	-23.6629E-3
-557.779E-6	-9.98792E-12	690.509E-3	-20.3793E-3	-9.77545E-12	707.545E-3	-25.5629E-3
-562.781E-6	-10.0504E-12	691.860E-3	-13.9291E-3	-10.2172E-12	716.590E-3	-29.7329E-3
-567.784E-6	-10.5496E-12	708.353E-3	-6.34613E-3	-10.4955E-12	711.901E-3	-29.3462E-3
-572.786E-6	-10.9043E-12	728.078E-3	-4.03496E-3	-10.6780E-12	716.926E-3	-30.9634E-3
-577.789E-6	-11.0364E-12	728.517E-3	-5.92385E-3	-11.0121E-12	730.683E-3	-37.2810E-3
-582.791E-6	-11.1992E-12	712.033E-3	-8.81289E-3	-11.3806E-12	730.855E-3	-37.6048E-3
-587.794E-6	-11.5820E-12	703.676E-3	-8.34928E-3	-11.4516E-12	722.146E-3	-22.3345E-3
-592.796E-6	-11.8215E-12	713.512E-3	-17.6631E-3	-11.7855E-12	719.898E-3	-10.7274E-3
-597.799E-6	-11.9551E-12	725.490E-3	-28.4052E-3	-12.0610E-12	715.641E-3	-17.8304E-3
-602.801E-6	-12.2316E-12	737.189E-3	-24.8264E-3	-12.2593E-12	713.991E-3	-24.1895E-3
-607.804E-6	-12.4509E-12	741.366E-3	-20.7413E-3	-12.5438E-12	715.630E-3	-23.1963E-3
-612.806E-6	-12.6506E-12	727.207E-3	-22.1999E-3	-12.7430E-12	713.730E-3	-13.4144E-3
-617.809E-6	-12.7896E-12	725.331E-3	-20.2610E-3	-12.8861E-12	710.003E-3	-1.90867E-3
-622.811E-6	-13.0644E-12	730.866E-3	-12.7673E-3	-13.1787E-12	702.183E-3	2.47616E-3
-627.814E-6	-13.2811E-12	721.083E-3	-16.9500E-3	-13.3949E-12	698.707E-3	132.943E-6
-632.816E-6	-13.4261E-12	701.490E-3	-16.2807E-3	-13.4910E-12	695.397E-3	-10.1401E-3
-637.819E-6	-13.5578E-12	683.150E-3	1.47370E-3	-13.7874E-12	689.165E-3	-9.04319E-3
-642.821E-6	-13.6894E-12	682.277E-3	3.94577E-3	-13.9479E-12	689.814E-3	4.42460E-3
-647.824E-6	-13.9392E-12	691.210E-3	-1.85072E-3	-14.0040E-12	689.555E-3	946.306E-6
-652.826E-6	-14.1065E-12	690.182E-3	-4.14577E-3	-14.2980E-12	686.925E-3	-21.2215E-3
-657.829E-6	-14.3213E-12	681.096E-3	-10.3250E-3	-14.6229E-12	687.313E-3	-40.0257E-3
-662.831E-6	-14.5370E-12	670.958E-3	-12.7061E-3	-14.8851E-12	681.967E-3	-35.9558E-3
-667.834E-6	-14.8659E-12	672.132E-3	-4.00999E-3	-15.1226E-12	676.639E-3	-16.8679E-3
-672.836E-6	-15.1766E-12	671.950E-3	-3.74696E-3	-15.5661E-12	680.475E-3	-11.8175E-3
-677.839E-6	-15.2524E-12	657.137E-3	-11.9901E-3	-15.6764E-12	678.608E-3	-27.3037E-3
-682.841E-6	-15.5114E-12	649.745E-3	-17.2723E-3	-15.9139E-12	671.215E-3	-35.5056E-3
-687.844E-6	-15.8249E-12	655.398E-3	-21.9283E-3	-16.3155E-12	673.551E-3	-27.5718E-3
-692.846E-6	-16.0988E-12	662.397E-3	-9.35228E-3	-16.5329E-12	680.990E-3	-25.0458E-3
-697.849E-6	-16.3016E-12	653.774E-3	9.74472E-3	-16.8811E-12	680.004E-3	-33.2065E-3
-702.851E-6	-16.7192E-12	635.655E-3	-47.7992E-6	-17.3466E-12	670.888E-3	-45.4002E-3
-707.854E-6	-17.2191E-12	629.355E-3	-23.5772E-3	-17.3037E-12	656.939E-3	-49.1815E-3
-712.856E-6	-17.3564E-12	642.052E-3	-20.5345E-3	-17.6147E-12	640.560E-3	-39.0336E-3
-717.859E-6	-17.6083E-12	657.588E-3	-9.70762E-3	-18.2091E-12	632.638E-3	-29.4782E-3
-722.861E-6	-18.2156E-12	659.137E-3	-20.3247E-3	-18.2795E-12	632.648E-3	-24.9464E-3
-727.864E-6	-18.0529E-12	651.675E-3	-35.0796E-3	-18.1414E-12	623.742E-3	-20.7241E-3
-732.866E-6	-18.0592E-12	640.332E-3	-41.6159E-3	-18.4008E-12	599.091E-3	-16.6193E-3
-737.869E-6	-18.6676E-12	625.798E-3	-34.3160E-3	-18.6636E-12	578.682E-3	-12.0633E-3
-742.871E-6	-18.8240E-12	612.296E-3	-13.2665E-3	-18.5685E-12	574.620E-3	-12.2458E-3
-747.874E-6	-18.7055E-12	607.762E-3	-3.75475E-3	-18.7945E-12	566.393E-3	-10.6743E-3
-752.876E-6	-18.9147E-12	606.546E-3	-16.7498E-3	-19.1692E-12	550.985E-3	-2.54726E-3
-757.879E-6	-19.1414E-12	596.223E-3	-26.7393E-3	-19.2411E-12	544.191E-3	-2.34385E-3
-762.881E-6	-19.2616E-12	583.240E-3	-23.9938E-3	-19.1745E-12	534.719E-3	-19.3321E-3
-767.884E-6	-19.4093E-12	582.216E-3	-20.3436E-3	-19.4939E-12	527.036E-3	-35.8999E-3
-772.886E-6	-19.5335E-12	582.410E-3	-9.75786E-3	-19.8326E-12	524.107E-3	-31.1480E-3
-777.889E-6	-19.7495E-12	569.455E-3	-5.88368E-3	-19.8833E-12	506.678E-3	-14.2806E-3
-782.891E-6	-19.9804E-12	558.003E-3	-16.0144E-3	-20.2120E-12	492.394E-3	-7.14697E-3
-787.894E-6	-20.1945E-12	545.160E-3	-22.5325E-3	-20.5176E-12	496.610E-3	-16.4256E-3
-792.896E-6	-20.5452E-12	526.526E-3	-23.8484E-3	-20.7962E-12	504.803E-3	-25.5507E-3
-797.899E-6	-20.7361E-12	520.071E-3	-18.7557E-3	-20.9755E-12	506.661E-3	-28.9051E-3
-802.901E-6	-20.8594E-12	515.045E-3	-13.4643E-3	-21.1801E-12	498.244E-3	-33.1944E-3
-807.904E-6	-21.3035E-12	503.267E-3	-21.9901E-3	-21.4578E-12	482.851E-3	-30.3471E-3
-812.906E-6	-21.3531E-12	498.746E-3	-33.2791E-3	-21.6444E-12	467.093E-3	-23.1552E-3
-817.909E-6	-21.5178E-12	498.427E-3	-30.1977E-3	-21.5233E-12	450.132E-3	-16.0974E-3
-822.911E-6	-22.1009E-12	482.673E-3	-20.5060E-3	-21.6065E-12	436.706E-3	-9.32180E-3
-827.914E-6	-21.9722E-12	466.669E-3	-14.7500E-3	-21.9034E-12	421.950E-3	-8.02201E-3
-832.916E-6	-21.9044E-12	475.150E-3	-10.3623E-3	-21.7796E-12	405.028E-3	-8.40491E-3
-837.919E-6	-22.3504E-12	473.055E-3	-13.7779E-3	-21.7657E-12	395.087E-3	-12.0220E-3
-842.921E-6	-22.2683E-12	448.443E-3	-15.7550E-3	-21.6557E-12	389.443E-3	-14.0681E-3
-847.924E-6	-22.0728E-12	434.832E-3	-5.60242E-3	-21.8412E-12	379.621E-3	-8.08405E-3
-852.926E-6	-22.1831E-12	425.369E-3	3.61198E-3	-21.7705E-12	366.007E-3	-7.71305E-3
-857.929E-6	-22.3100E-12	411.509E-3	4.45689E-3	-21.7180E-12	359.868E-3	-12.9726E-3
-862.931E-6	-22.0786E-12	404.243E-3	4.32331E-3	-21.8033E-12	355.350E-3	-18.7458E-3
-867.934E-6	-21.9942E-12	396.989E-3	2.68942E-3	-21.8446E-12	344.080E-3	-25.9477E-3
-872.936E-6	-22.1093E-12	377.334E-3	-8.24065E-3	-22.1270E-12	337.249E-3	-26.7462E-3
-877.939E-6	-22.2271E-12	353.586E-3	-12.4026E-3	-22.3143E-12	337.114E-3	-17.9508E-3
-882.941E-6	-22.1722E-12	353.090E-3	-5.67167E-3	-22.3399E-12	339.819E-3	-6.82747E-3
-887.944E-6	-22.4908E-12	355.291E-3	-5.21777E-3	-22.7118E-12	339.267E-3	-5.79294E-3
-892.946E-6	-22.6368E-12	334.256E-3	-5.59898E-3	-23.0390E-12	331.056E-3	-16.8578E-3
-897.949E-6	-22.8855E-12	320.895E-3	-10.3422E-3	-23.3505E-12	322.102E-3	-23.1643E-3
-902.951E-6	-23.0755E-12	325.483E-3	-20.4215E-3	-23.6221E-12	311.276E-3	-18.0255E-3
-907.954E-6	-23.2897E-12	313.202E-3	-20.1293E-3	-24.1832E-12	302.003E-3	-18.6636E-3
-912.956E-6	-23.4186E-12	299.768E-3	-21.4401E-3	-24.0247E-12	300.060E-3	-23.7314E-3
-917.959E-6	-23.7052E-12	310.491E-3	-28.2973E-3	-24.1534E-12	299.366E-3	-20.3371E-3
-922.961E-6	-23.9282E-12	317.936E-3	-25.0806E-3	-24.6147E-12	288.889E-3	-14.4241E-3
-927.964E-6	-23.9879E-12	314.695E-3	-10.4756E-3	-24.5852E-12	280.986E-3	-8.93185E-3
-932.966E-6	-24.1071E-12	306.877E-3	-7.33594E-3	-24.5850E-12	288.423E-3	-11.6135E-3
-937.969E-6	-24.2941E-12	299.603E-3	-20.6365E-3	-24.7840E-12	286.007E-3	-34.8218E-3
-942.971E-6	-24.4092E-12	295.007E-3	-23.0129E-3	-24.8164E-12	271.757E-3	-41.0886E-3
-947.974E-6	-24.4310E-12	289.557E-3	-15.2246E-3	-24.5392E-12	265.711E-3	-14.4795E-3
-952.976E-6	-24.2853E-12	286.156E-3	-10.5922E-3	-24.3723E-12	261.779E-3	-1.94809E-3
-957.979E-6	-24.1870E-12	278.285E-3	-12.5605E-3	-24.8371E-12	261.049E-3	-9.99001E-3
-962.981E-6	-24.1568E-12	264.942E-3	-19.7948E-3	-24.7153E-12	262.249E-3	-10.3784E-3
-967.984E-6	-24.1139E-12	256.762E-3	-22.1598E-3	-24.6952E-12	258.052E-3	-8.89196E-3
-972.986E-6	-24.2660E-12	250.860E-3	-17.8804E-3	-25.0257E-12	256.886E-3	-13.8966E-3
-977.989E-6	-24.2892E-12	241.498E-3	-23.3901E-3	-24.7643E-12	260.612E-3	-11.4696E-3
-982.991E-6	-24.1402E-12	238.501E-3	-34.9075E-3	-24.7488E-12	259.229E-3	-10.2783E-3
-987.994E-6	-24.4124E-12	240.040E-3	-27.1947E-3	-25.5113E-12	253.063E-3	-15.4663E-3
-992.997E-6	-24.5866E-12	234.801E-3	-12.1408E-3	-25.6348E-12	247.166E-3	-14.5680E-3
-997.999E-6	-24.8475E-12	228.717E-3	-4.13413E-3	-25.1643E-12	247.107E-3	-15.1452E-3
-1.00300E-3	-25.0163E-12	229.594E-3	-914.847E-6	-25.7833E-12	251.967E-3	-19.1864E-3
-1.00800E-3	-25.0533E-12	247.128E-3	-9.74613E-3	-26.1970E-12	246.161E-3	-20.2263E-3
-1.01301E-3	-25.5146E-12	264.169E-3	-20.1467E-3	-26.0901E-12	238.959E-3	-19.1042E-3
-1.01801E-3	-25.8230E-12	258.610E-3	-19.3440E-3	-26.4047E-12	254.929E-3	-21.2104E-3
-1.02301E-3	-25.6669E-12	244.481E-3	-14.8330E-3	-26.2755E-12	279.215E-3	-20.4075E-3
-1.02801E-3	-26.0038E-12	237.006E-3	-15.5608E-3	-26.1003E-12	282.545E-3	-14.7828E-3
-1.03302E-3	-26.4172E-12	239.526E-3	-20.3552E-3	-26.3800E-12	269.349E-3	-19.3441E-3
-1.03802E-3	-26.4306E-12	251.131E-3	-20.5083E-3	-26.4159E-12	260.730E-3	-21.8573E-3
-1.04302E-3	-26.3253E-12	260.589E-3	-15.2344E-3	-26.2138E-12	256.464E-3	-13.5118E-3
-1.04802E-3	-26.2675E-12	255.092E-3	-18.7207E-3	-26.2660E-12	254.733E-3	-12.5627E-3
-1.05303E-3	-26.4828E-12	237.914E-3	-27.4538E-3	-26.1233E-12	255.875E-3	-16.0086E-3
-1.05803E-3	-26.4619E-12	227.186E-3	-25.7795E-3	-25.8690E-12	252.114E-3	-14.0625E-3
-1.06303E-3	-26.3662E-12	235.576E-3	-22.3371E-3	-26.1749E-12	258.736E-3	-20.1118E-3
-1.06803E-3	-26.4748E-12	249.736E-3	-14.2060E-3	-26.2066E-12	275.862E-3	-30.2556E-3
-1.07304E-3	-26.3698E-12	266.773E-3	-3.76605E-3	-26.0099E-12	286.262E-3	-27.9970E-3
-1.07804E-3	-26.3026E-12	289.854E-3	-320.426E-6	-26.4062E-12	296.209E-3	-18.5342E-3
-1.08304E-3	-26.4050E-12	291.561E-3	-4.18443E-3	-26.6998E-12	306.124E-3	-9.19280E-3
-1.08804E-3	-26.7752E-12	273.112E-3	-21.7954E-3	-26.4577E-12	311.679E-3	2.03198E-3
-1.09305E-3	-26.6984E-12	269.922E-3	-33.6889E-3	-26.7591E-12	321.769E-3	6.16200E-3
-1.09805E-3	-26.7941E-12	281.189E-3	-24.3579E-3	-27.0545E-12	327.485E-3	3.99520E-3
-1.10305E-3	-26.9711E-12	289.287E-3	-12.5563E-3	-27.1161E-12	316.823E-3	3.26293E-3
-1.10805E-3	-27.2131E-12	298.804E-3	-13.5579E-3	-27.4871E-12	315.031E-3	-3.62411E-3
-1.11306E-3	-27.4209E-12	317.813E-3	-17.0041E-3	-27.9908E-12	338.574E-3	-6.45073E-3
-1.11806E-3	-27.3841E-12	337.693E-3	-22.0637E-3	-28.2107E-12	363.537E-3	-4.56942E-3
-1.12306E-3	-27.6667E-12	350.150E-3	-25.3648E-3	-28.0492E-12	373.395E-3	-11.7848E-3
-1.12806E-3	-27.8445E-12	346.533E-3	-27.4515E-3	-28.2251E-12	378.116E-3	-23.4043E-3
-1.13307E-3	-28.0808E-12	340.577E-3	-32.7404E-3	-28.4100E-12	382.022E-3	-29.3758E-3
-1.13807E-3	-27.8521E-12	370.356E-3	-24.8834E-3	-28.1633E-12	391.049E-3	-31.5808E-3
-1.14307E-3	-28.0559E-12	410.606E-3	-9.65909E-3	-28.1681E-12	414.883E-3	-33.9139E-3
-1.14807E-3	-28.6511E-12	409.095E-3	2.18556E-3	-28.1996E-12	436.369E-3	-22.1928E-3
-1.15308E-3	-28.4972E-12	393.038E-3	7.86967E-3	-28.1059E-12	443.682E-3	-6.24181E-3
-1.15808E-3	-28.4381E-12	403.702E-3	-5.04422E-3	-28.1606E-12	456.702E-3	-13.5884E-3
-1.16308E-3	-28.7449E-12	416.516E-3	-20.3348E-3	-28.3111E-12	478.192E-3	-24.9555E-3
-1.16808E-3	-28.6031E-12	416.869E-3	-26.2051E-3	-28.1586E-12	487.942E-3	-24.2753E-3
-1.17309E-3	-28.5269E-12	417.821E-3	-29.8453E-3	-28.2075E-12	491.329E-3	-16.9738E-3
-1.17809E-3	-28.6113E-12	425.247E-3	-24.0030E-3	-28.6425E-12	499.268E-3	-11.5663E-3
-1.18309E-3	-28.6055E-12	450.793E-3	-18.6151E-3	-28.5139E-12	505.261E-3	-18.5039E-3
-1.18809E-3	-28.6304E-12	474.460E-3	-26.2578E-3	-28.6661E-12	512.145E-3	-23.6787E-3
-1.19310E-3	-28.8446E-12	473.536E-3	-31.3761E-3	-29.0723E-12	531.980E-3	-24.5167E-3
-1.19810E-3	-29.0060E-12	475.975E-3	-25.4250E-3	-29.1718E-12	548.164E-3	-22.5230E-3
-1.20310E-3	-29.2060E-12	487.756E-3	-24.1254E-3	-29.4100E-12	553.401E-3	-14.6140E-3
-1.20810E-3	-29.4307E-12	497.681E-3	-32.2843E-3	-29.9647E-12	572.413E-3	-8.74215E-3
-1.21311E-3	-29.6422E-12	511.457E-3	-35.1980E-3	-30.1879E-12	600.044E-3	-9.20786E-3
-1.21811E-3	-29.9853E-12	517.550E-3	-26.6714E-3	-30.5721E-12	626.924E-3	-17.4301E-3
-1.22311E-3	-30.1724E-12	519.435E-3	-12.4274E-3	-31.3561E-12	651.179E-3	-26.2039E-3
-1.22811E-3	-30.8708E-12	545.537E-3	-4.51933E-3	-31.4717E-12	657.257E-3	-19.8142E-3
-1.23312E-3	-31.3780E-12	582.439E-3	-7.55652E-3	-31.5767E-12	657.798E-3	-3.95671E-3
-1.23812E-3	-31.5285E-12	601.590E-3	-10.5411E-3	-31.9984E-12	664.635E-3	-6.97314E-3
-1.24312E-3	-31.8016E-12	610.732E-3	-9.89947E-3	-32.0710E-12	665.533E-3	-20.5098E-3
-1.24812E-3	-32.2754E-12	621.171E-3	-8.48640E-3	-32.0826E-12	671.868E-3	-17.2494E-3
-1.25313E-3	-32.3980E-12	642.807E-3	-9.24952E-3	-32.1409E-12	700.360E-3	-5.47912E-3
-1.25813E-3	-32.7153E-12	671.806E-3	-16.6920E-3	-32.1094E-12	718.903E-3	-3.30823E-3
-1.26313E-3	-33.2282E-12	689.739E-3	-19.0571E-3	-32.2855E-12	714.108E-3	-6.29489E-3
-1.26813E-3	-33.0846E-12	697.167E-3	-17.8382E-3	-32.3326E-12	725.532E-3	-6.93288E-3
-1.27314E-3	-33.1896E-12	703.419E-3	-12.3887E-3	-31.9577E-12	755.765E-3	-3.58493E-3
-1.27814E-3	-33.4724E-12	714.835E-3	3.13828E-3	-31.9224E-12	767.885E-3	978.873E-6
-1.28314E-3	-33.5466E-12	734.793E-3	2.37410E-3	-32.2218E-12	765.817E-3	-6.78725E-3
-1.28814E-3	-33.8012E-12	753.339E-3	-16.4901E-3	-32.5205E-12	776.557E-3	-25.4491E-3
-1.29315E-3	-34.1874E-12	769.567E-3	-30.1567E-3	-32.5169E-12	795.533E-3	-30.0527E-3
-1.29815E-3	-34.2619E-12	775.180E-3	-31.2145E-3	-32.8739E-12	816.060E-3	-18.8411E-3
-1.30315E-3	-34.6814E-12	773.216E-3	-21.8461E-3	-32.9598E-12	835.545E-3	-12.5583E-3
-1.30815E-3	-35.1723E-12	789.584E-3	-9.69710E-3	-33.7548E-12	848.305E-3	-6.28905E-3
-1.31316E-3	-35.2055E-12	812.294E-3	5.23993E-3	-34.6200E-12	863.663E-3	1.40105E-3
-1.31816E-3	-35.6424E-12	824.398E-3	15.9069E-3	-34.8149E-12	886.949E-3	-5.02468E-3
-1.32316E-3	-36.0704E-12	831.144E-3	10.9011E-3	-35.4270E-12	908.417E-3	-10.8649E-3
-1.32816E-3	-36.5285E-12	839.395E-3	-862.383E-6	-36.4731E-12	935.934E-3	-578.970E-6
-1.33317E-3	-36.8765E-12	854.374E-3	-1.77237E-3	-37.1932E-12	963.102E-3	8.98925E-3
-1.33817E-3	-37.2939E-12	871.086E-3	-869.847E-6	-37.4978E-12	968.336E-3	-668.867E-6
-1.34317E-3	-37.5128E-12	890.022E-3	-13.5895E-3	-37.9327E-12	971.899E-3	-8.29870E-3
-1.34817E-3	-37.7139E-12	908.744E-3	-29.7059E-3	-38.3716E-12	985.394E-3	-1.86095E-3
-1.35318E-3	-38.1029E-12	924.694E-3	-40.0281E-3	-38.0489E-12	996.629E-3	-5.50850E-3
-1.35818E-3	-38.2954E-12	944.101E-3	-33.9543E-3	-38.3293E-12	998.098E-3	-11.5149E-3
-1.36318E-3	-38.4368E-12	959.961E-3	-15.5447E-3	-38.3187E-12	985.044E-3	-8.87934E-3
-1.36818E-3	-38.7201E-12	979.513E-3	-19.2418E-3	-38.3587E-12	972.649E-3	-11.2000E-3
-1.37319E-3	-38.9958E-12	994.490E-3	-34.3217E-3	-38.4241E-12	982.093E-3	-10.6803E-3
-1.37819E-3	-38.7934E-12	995.768E-3	-26.9352E-3	-38.6348E-12	995.331E-3	-885.995E-6
-1.38319E-3	-38.9964E-12	993.340E-3	-10.2854E-3	-38.8768E-12	998.064E-3	-4.57705E-3
-1.38819E-3	-39.1942E-12	990.410E-3	-3.75106E-3	-38.8822E-12	1.00260E+0	-18.8303E-3
-1.39320E-3	-39.4121E-12	1.00531E+0	-4.36310E-3	-39.2189E-12	1.01195E+0	-20.8845E-3
-1.39820E-3	-39.5619E-12	1.01426E+0	-9.94822E-3	-39.4395E-12	1.02376E+0	-17.8422E-3
-1.40320E-3	-39.6998E-12	994.249E-3	-24.9420E-3	-40.2754E-12	1.04175E+0	-13.2048E-3
-1.40820E-3	-39.9863E-12	987.603E-3	-31.9399E-3	-40.4136E-12	1.07764E+0	-10.1244E-3
-1.41321E-3	-40.3388E-12	1.00707E+0	-25.3491E-3	-41.0980E-12	1.10535E+0	-15.5946E-3
-1.41821E-3	-40.8863E-12	1.02373E+0	-24.3911E-3	-41.5972E-12	1.10768E+0	-21.6826E-3
-1.42321E-3	-41.2525E-12	1.02740E+0	-38.0336E-3	-42.5631E-12	1.11501E+0	-27.3363E-3
-1.42821E-3	-41.7225E-12	1.03067E+0	-46.1380E-3	-42.9109E-12	1.12517E+0	-21.8093E-3
-1.43322E-3	-42.1892E-12	1.04889E+0	-29.2102E-3	-43.5873E-12	1.12034E+0	-6.34727E-3
-1.43822E-3	-42.7945E-12	1.07224E+0	-17.9669E-3	-44.1826E-12	1.10398E+0	-11.0229E-3
-1.44322E-3	-43.0923E-12	1.08426E+0	-24.6088E-3	-44.3251E-12	1.08012E+0	-24.9990E-3
-1.44822E-3	-43.6841E-12	1.09126E+0	-21.0153E-3	-44.7498E-12	1.06605E+0	-23.4023E-3
-1.45323E-3	-44.2213E-12	1.09891E+0	-11.5446E-3	-44.8735E-12	1.07327E+0	-18.3494E-3
-1.45823E-3	-44.1828E-12	1.10633E+0	-11.2074E-3	-45.1506E-12	1.08779E+0	-22.8512E-3
-1.46323E-3	-44.4289E-12	1.10760E+0	-17.0925E-3	-45.1119E-12	1.10103E+0	-23.0968E-3
-1.46823E-3	-44.9167E-12	1.10191E+0	-16.8091E-3	-45.2424E-12	1.11606E+0	-19.3688E-3
-1.47324E-3	-44.7856E-12	1.09737E+0	-5.37442E-3	-45.4589E-12	1.12153E+0	-29.4585E-3
-1.47824E-3	-45.1078E-12	1.09415E+0	3.34140E-3	-45.5301E-12	1.09826E+0	-42.9890E-3
-1.48324E-3	-45.4759E-12	1.10241E+0	8.81909E-3	-45.3164E-12	1.07686E+0	-42.0357E-3
-1.48824E-3	-45.4940E-12	1.10415E+0	6.14427E-3	-45.6608E-12	1.07487E+0	-34.0631E-3
-1.49325E-3	-45.5439E-12	1.08613E+0	-10.8138E-3	-45.8799E-12	1.06667E+0	-38.1700E-3
-1.49825E-3	-45.8889E-12	1.07710E+0	-29.0276E-3	-45.8444E-12	1.06787E+0	-35.9866E-3
-1.50325E-3	-46.5702E-12	1.07808E+0	-30.8237E-3	-46.5023E-12	1.08724E+0	-16.3323E-3
-1.50825E-3	-46.8259E-12	1.07684E+0	-17.2432E-3	-46.9133E-12	1.10149E+0	-9.84046E-3
-1.51326E-3	-47.0645E-12	1.07780E+0	-12.2590E-3	-47.1249E-12	1.11479E+0	-17.8935E-3
-1.51826E-3	-47.8732E-12	1.08690E+0	-27.0179E-3	-47.7975E-12	1.13046E+0	-24.2235E-3
-1.52326E-3	-48.3374E-12	1.09598E+0	-30.0447E-3	-48.9345E-12	1.13452E+0	-25.2299E-3
-1.52826E-3	-49.1108E-12	1.10011E+0	-10.7611E-3	-49.2165E-12	1.12637E+0	-10.7693E-3
-1.53327E-3	-49.8377E-12	1.10300E+0	-2.53490E-3	-50.1239E-12	1.12871E+0	560.495E-6
-1.53827E-3	-50.5981E-12	1.09429E+0	-3.85543E-3	-50.9591E-12	1.13913E+0	-15.0114E-3
-1.54327E-3	-51.0610E-12	1.09012E+0	474.932E-6	-51.4440E-12	1.13712E+0	-30.2520E-3
-1.54827E-3	-51.5653E-12	1.10935E+0	-1.09706E-3	-51.9431E-12	1.13325E+0	-28.4869E-3
-1.55328E-3	-52.3409E-12	1.12719E+0	-11.2594E-3	-52.3699E-12	1.12742E+0	-34.7263E-3
-1.55828E-3	-52.6461E-12	1.12481E+0	-9.34854E-3	-52.9769E-12	1.11146E+0	-45.2796E-3
-1.56328E-3	-53.2544E-12	1.11390E+0	-1.72962E-3	-53.1287E-12	1.09193E+0	-46.9090E-3
-1.56828E-3	-53.5430E-12	1.10721E+0	-3.11056E-3	-53.1625E-12	1.07000E+0	-44.9463E-3
-1.57329E-3	-53.6913E-12	1.10975E+0	-3.02100E-3	-53.0631E-12	1.05969E+0	-37.5602E-3
-1.57829E-3	-53.8452E-12	1.11012E+0	147.339E-6	-53.1143E-12	1.06302E+0	-30.9369E-3
-1.58329E-3	-54.1651E-12	1.09699E+0	2.10740E-3	-53.2794E-12	1.05777E+0	-28.9926E-3
-1.58829E-3	-54.2395E-12	1.09075E+0	-1.23974E-3	-53.2592E-12	1.04313E+0	-26.2580E-3
-1.59330E-3	-54.5473E-12	1.09397E+0	-2.27390E-3	-53.1513E-12	1.02808E+0	-18.4038E-3
-1.59830E-3	-54.7774E-12	1.09661E+0	-2.84255E-3	-53.2894E-12	1.02515E+0	-21.8881E-3
-1.60330E-3	-54.8033E-12	1.08593E+0	-11.6095E-3	-53.8505E-12	1.03219E+0	-40.6351E-3
-1.60830E-3	-55.1525E-12	1.05925E+0	-14.0219E-3	-54.0857E-12	1.03718E+0	-40.7538E-3
-1.61331E-3	-55.5051E-12	1.03834E+0	-17.1381E-3	-54.2560E-12	1.04290E+0	-12.8626E-3
-1.61831E-3	-56.0223E-12	1.03371E+0	-21.0776E-3	-54.8832E-12	1.05095E+0	1.41964E-3
-1.62331E-3	-55.9539E-12	1.03695E+0	-12.2257E-3	-55.7656E-12	1.05829E+0	-7.77329E-3
-1.62831E-3	-56.5573E-12	1.03293E+0	2.75522E-3	-56.3245E-12	1.05220E+0	-7.77803E-3
-1.63332E-3	-57.4666E-12	1.02518E+0	-1.37733E-3	-57.2045E-12	1.03840E+0	1.76983E-3
-1.63832E-3	-57.7141E-12	1.02962E+0	-29.2058E-3	-57.8859E-12	1.04726E+0	-7.99354E-3
-1.64332E-3	-58.0719E-12	1.04632E+0	-41.2256E-3	-58.9107E-12	1.06403E+0	-28.7847E-3
-1.64832E-3	-58.9945E-12	1.05162E+0	-41.2729E-3	-59.8947E-12	1.06201E+0	-37.8573E-3
-1.65333E-3	-59.3673E-12	1.04374E+0	-49.2836E-3	-60.4936E-12	1.05383E+0	-40.1560E-3
-1.65833E-3	-59.4793E-12	1.02813E+0	-53.5095E-3	-60.9101E-12	1.03961E+0	-24.9084E-3
-1.66333E-3	-60.2485E-12	1.01082E+0	-48.3612E-3	-61.4369E-12	1.02857E+0	911.325E-6
-1.66833E-3	-60.2090E-12	1.00940E+0	-38.3930E-3	-61.7316E-12	1.02400E+0	9.47056E-3
-1.67334E-3	-60.1086E-12	1.01868E+0	-32.4883E-3	-61.5521E-12	1.00500E+0	-1.90394E-3
-1.67834E-3	-60.7021E-12	1.03137E+0	-27.1382E-3	-61.3362E-12	979.181E-3	-16.6014E-3
-1.68334E-3	-60.7820E-12	1.02584E+0	-15.6664E-3	-61.3936E-12	972.151E-3	-14.8392E-3
-1.68834E-3	-60.6206E-12	1.00847E+0	-2.78253E-3	-60.7609E-12	966.947E-3	-9.54061E-3
-1.69335E-3	-60.5591E-12	1.00426E+0	7.60570E-3	-60.5011E-12	940.540E-3	-18.9100E-3
-1.69835E-3	-60.5349E-12	998.208E-3	17.2194E-3	-60.3557E-12	925.215E-3	-28.6235E-3
-1.70335E-3	-60.4749E-12	984.452E-3	23.9923E-3	-60.2464E-12	936.374E-3	-26.4265E-3
-1.70835E-3	-60.1805E-12	972.814E-3	21.2244E-3	-60.2927E-12	941.064E-3	-22.4042E-3
-1.71336E-3	-60.0959E-12	966.393E-3	12.1254E-3	-60.6901E-12	929.416E-3	-23.8187E-3
-1.71836E-3	-60.3468E-12	959.461E-3	11.7457E-3	-60.6600E-12	920.960E-3	-22.5547E-3
-1.72336E-3	-60.6920E-12	947.141E-3	4.42636E-3	-61.3865E-12	929.785E-3	-16.9320E-3
-1.72836E-3	-60.6393E-12	935.311E-3	-18.4496E-3	-62.2539E-12	944.746E-3	-11.1585E-3
-1.73337E-3	-61.0945E-12	921.846E-3	-25.2291E-3	-62.2764E-12	958.441E-3	376.439E-6
-1.73837E-3	-62.2139E-12	895.774E-3	-18.7105E-3	-63.5490E-12	972.370E-3	9.37851E-3
-1.74337E-3	-62.6599E-12	884.974E-3	-13.7365E-3	-64.5077E-12	968.304E-3	-5.13733E-3
-1.74837E-3	-63.3524E-12	897.828E-3	-11.1793E-3	-65.0808E-12	956.911E-3	-27.3824E-3
-1.75338E-3	-64.3235E-12	900.174E-3	-22.1324E-3	-65.7297E-12	953.433E-3	-33.4689E-3
-1.75838E-3	-65.4507E-12	905.263E-3	-34.2383E-3	-67.0741E-12	955.862E-3	-35.6813E-3
-1.76338E-3	-65.7458E-12	934.082E-3	-25.6305E-3	-67.2060E-12	959.499E-3	-29.4877E-3
-1.76838E-3	-67.0188E-12	957.633E-3	-8.03265E-3	-67.6976E-12	957.008E-3	-7.15615E-3
-1.77339E-3	-67.0550E-12	951.511E-3	255.545E-6	-68.3319E-12	944.525E-3	2.46515E-3
-1.77839E-3	-67.9835E-12	936.514E-3	-890.800E-6	-68.1595E-12	928.071E-3	1.30110E-3
-1.78339E-3	-68.0584E-12	926.087E-3	-1.65570E-3	-68.1639E-12	922.452E-3	441.869E-6
-1.78839E-3	-68.0521E-12	915.108E-3	1.34595E-3	-67.7460E-12	913.121E-3	-7.44041E-3
-1.79340E-3	-67.6358E-12	908.465E-3	2.87391E-3	-67.4039E-12	891.223E-3	-11.3489E-3
-1.79840E-3	-67.4210E-12	915.529E-3	2.79690E-3	-67.3563E-12	874.165E-3	-12.2568E-3
-1.80340E-3	-67.2461E-12	921.168E-3	-12.2907E-3	-66.8609E-12	869.353E-3	-10.9404E-3
-1.80840E-3	-67.2135E-12	905.798E-3	-25.5945E-3	-66.6588E-12	861.118E-3	-8.33105E-3
-1.81341E-3	-67.0039E-12	898.972E-3	-15.1476E-3	-66.8268E-12	848.670E-3	-17.5395E-3
-1.81841E-3	-66.9380E-12	903.572E-3	-5.53408E-3	-66.9638E-12	853.127E-3	-28.8837E-3
-1.82341E-3	-67.2203E-12	893.338E-3	-12.7145E-3	-67.0846E-12	868.981E-3	-23.4732E-3
-1.82841E-3	-67.2319E-12	876.373E-3	-35.0321E-3	-67.5509E-12	868.340E-3	-7.99256E-3
-1.83342E-3	-67.8072E-12	857.895E-3	-41.7477E-3	-68.1072E-12	859.889E-3	-6.77327E-3
-1.83842E-3	-68.1714E-12	847.939E-3	-30.1794E-3	-69.1046E-12	867.896E-3	-18.5983E-3
-1.84342E-3	-68.8496E-12	855.410E-3	-27.2671E-3	-69.8885E-12	878.253E-3	-25.3258E-3
-1.84842E-3	-70.0791E-12	856.476E-3	-18.3285E-3	-70.6740E-12	884.162E-3	-28.7394E-3
-1.85343E-3	-70.9165E-12	855.495E-3	3.76916E-3	-71.6393E-12	894.190E-3	-27.7335E-3
-1.85843E-3	-71.8516E-12	874.873E-3	19.2561E-3	-72.7532E-12	895.915E-3	-22.8245E-3
-1.86343E-3	-73.1090E-12	882.302E-3	6.26427E-3	-74.1094E-12	885.843E-3	-19.9806E-3
-1.86843E-3	-73.7354E-12	879.637E-3	-18.7856E-3	-73.9767E-12	881.814E-3	-13.6127E-3
-1.87344E-3	-74.7742E-12	888.055E-3	-28.1725E-3	-74.1845E-12	883.018E-3	-2.76304E-3
-1.87844E-3	-75.2715E-12	883.921E-3	-30.5709E-3	-74.7348E-12	873.726E-3	-838.031E-6
-1.88344E-3	-75.9308E-12	877.791E-3	-33.4753E-3	-74.8640E-12	859.564E-3	-4.25421E-3
-1.88844E-3	-75.8660E-12	880.714E-3	-34.2288E-3	-74.5426E-12	850.680E-3	-1.78926E-3
-1.89345E-3	-75.7147E-12	884.783E-3	-29.0281E-3	-73.8447E-12	849.488E-3	-11.9642E-3
-1.89845E-3	-76.0528E-12	896.123E-3	-19.2515E-3	-74.1768E-12	850.296E-3	-22.8334E-3
-1.90345E-3	-75.2829E-12	895.907E-3	-14.0050E-3	-73.6606E-12	838.130E-3	-13.8041E-3
-1.90845E-3	-74.3009E-12	873.827E-3	-15.2696E-3	-73.1013E-12	814.590E-3	-12.2876E-3
-1.91346E-3	-74.2409E-12	856.459E-3	-13.9737E-3	-72.5729E-12	804.849E-3	-18.8699E-3
-1.91846E-3	-74.3914E-12	847.043E-3	-10.0519E-3	-72.5939E-12	807.225E-3	-14.7104E-3
-1.92346E-3	-73.2704E-12	832.824E-3	-15.6757E-3	-73.0082E-12	806.890E-3	-10.4745E-3
-1.92846E-3	-73.2725E-12	813.128E-3	-33.0515E-3	-73.3080E-12	807.513E-3	-14.2645E-3
-1.93347E-3	-73.7883E-12	804.639E-3	-32.5068E-3	-73.3934E-12	810.643E-3	-25.8587E-3
-1.93847E-3	-73.8814E-12	813.446E-3	-4.53397E-3	-74.0312E-12	819.585E-3	-34.1605E-3
-1.94347E-3	-74.1151E-12	817.308E-3	11.1742E-3	-75.4026E-12	822.006E-3	-20.3192E-3
-1.94847E-3	-74.9350E-12	813.558E-3	-212.358E-6	-76.7502E-12	817.692E-3	2.11962E-3
-1.95348E-3	-75.8656E-12	813.760E-3	-8.84460E-3	-77.6819E-12	825.799E-3	172.241E-6
-1.95848E-3	-76.8262E-12	815.466E-3	-24.9924E-3	-78.3774E-12	844.054E-3	-24.5999E-3
-1.96348E-3	-77.5700E-12	815.405E-3	-45.9820E-3	-79.7265E-12	860.544E-3	-39.1066E-3
-1.96848E-3	-77.5364E-12	822.705E-3	-40.8508E-3	-80.6878E-12	855.633E-3	-31.7057E-3
-1.97349E-3	-78.5451E-12	833.167E-3	-30.7112E-3	-81.1338E-12	841.308E-3	-15.4918E-3
-1.97849E-3	-78.9848E-12	841.837E-3	-27.1320E-3	-81.6246E-12	832.371E-3	2.23181E-3
-1.98349E-3	-79.0441E-12	840.668E-3	-15.8597E-3	-81.4799E-12	823.272E-3	2.75031E-3
-1.98849E-3	-79.5053E-12	828.175E-3	-2.62919E-3	-81.1976E-12	820.267E-3	-11.0559E-3
-1.99350E-3	-80.0038E-12	830.124E-3	-4.55809E-3	-81.2050E-12	808.532E-3	-20.5333E-3
-1.99850E-3	-79.6294E-12	845.729E-3	-13.5199E-3	-80.5934E-12	798.059E-3	-32.0516E-3
-2.00350E-3	-79.0988E-12	850.825E-3	-15.8124E-3	-79.6645E-12	800.831E-3	-47.6831E-3
-2.00850E-3	-78.9560E-12	842.471E-3	-19.1223E-3	-79.2240E-12	798.556E-3	-48.5801E-3
-2.01351E-3	-78.6851E-12	820.722E-3	-18.3237E-3	-78.9863E-12	794.175E-3	-27.7496E-3
-2.01851E-3	-78.0734E-12	793.103E-3	-11.0084E-3	-78.5330E-12	793.014E-3	-2.36847E-3
-2.02351E-3	-77.6933E-12	781.436E-3	-4.86229E-3	-78.0337E-12	787.209E-3	3.51353E-3
-2.02851E-3	-77.9943E-12	778.572E-3	2.52940E-3	-78.4190E-12	780.054E-3	-7.47133E-3
-2.03352E-3	-77.9540E-12	762.789E-3	3.99037E-3	-78.3854E-12	780.057E-3	-19.0810E-3
-2.03852E-3	-77.9540E-12	745.458E-3	-5.19849E-3	-78.7695E-12	786.214E-3	-23.7345E-3
-2.04352E-3	-77.9754E-12	744.760E-3	-11.3715E-3	-79.8314E-12	799.482E-3	-12.9293E-3
-2.04852E-3	-78.8781E-12	754.872E-3	-10.1345E-3	-80.1859E-12	807.568E-3	-10.0335E-3
-2.05353E-3	-79.1454E-12	759.317E-3	-3.20993E-3	-80.6632E-12	799.829E-3	-12.5131E-3
-2.05853E-3	-79.7434E-12	756.472E-3	3.93031E-3	-82.5248E-12	797.206E-3	-3.55718E-3
-2.06353E-3	-80.5989E-12	751.273E-3	4.58145E-3	-83.2764E-12	807.473E-3	-843.296E-6
-2.06853E-3	-81.3201E-12	744.403E-3	-2.40894E-3	-83.8771E-12	805.917E-3	3.00185E-3
-2.07354E-3	-82.1527E-12	756.689E-3	-10.2905E-3	-85.2924E-12	796.944E-3	8.55209E-3
-2.07854E-3	-83.0415E-12	784.736E-3	-7.71167E-3	-85.9381E-12	798.991E-3	-1.12781E-3
-2.08354E-3	-83.6864E-12	801.145E-3	-1.58034E-3	-85.9898E-12	802.540E-3	-20.3045E-3
-2.08854E-3	-84.4916E-12	802.654E-3	-6.14512E-3	-86.3164E-12	800.351E-3	-30.0037E-3
-2.09355E-3	-84.9843E-12	799.844E-3	-9.51752E-3	-86.6366E-12	781.069E-3	-20.6165E-3
-2.09855E-3	-85.2113E-12	791.798E-3	-7.13426E-3	-85.9041E-12	750.736E-3	-10.3124E-3
-2.10355E-3	-85.3966E-12	793.583E-3	-16.2546E-3	-85.2046E-12	748.833E-3	-11.6742E-3
-2.10855E-3	-85.4366E-12	809.796E-3	-22.4397E-3	-84.8002E-12	756.023E-3	-17.9207E-3
-2.11356E-3	-85.3601E-12	808.877E-3	-18.5297E-3	-84.5264E-12	743.136E-3	-21.8972E-3
-2.11856E-3	-85.5792E-12	799.766E-3	-25.2374E-3	-84.1239E-12	733.665E-3	-18.2248E-3
-2.12356E-3	-85.9338E-12	794.367E-3	-32.8119E-3	-83.7174E-12	736.979E-3	-22.5059E-3
-2.12856E-3	-85.3320E-12	780.658E-3	-28.5585E-3	-83.7396E-12	747.116E-3	-28.8296E-3
-2.13357E-3	-85.2802E-12	775.685E-3	-32.6847E-3	-83.6479E-12	755.217E-3	-15.8342E-3
-2.13857E-3	-85.3546E-12	776.816E-3	-44.3473E-3	-83.6171E-12	753.956E-3	-9.62424E-3
-2.14357E-3	-85.0627E-12	770.629E-3	-39.7909E-3	-83.7646E-12	746.775E-3	-19.1720E-3
-2.14857E-3	-85.1550E-12	764.452E-3	-29.9275E-3	-83.7091E-12	744.285E-3	-20.2910E-3
-2.15358E-3	-85.8163E-12	769.808E-3	-27.6311E-3	-84.8605E-12	751.142E-3	-8.30696E-3
-2.15858E-3	-86.3192E-12	776.701E-3	-27.7702E-3	-86.3084E-12	765.256E-3	9.46256E-3
-2.16358E-3	-86.9732E-12	759.978E-3	-21.2368E-3	-86.9250E-12	779.533E-3	21.2588E-3
-2.16858E-3	-88.2837E-12	739.304E-3	527.928E-6	-88.0786E-12	792.120E-3	11.6269E-3
-2.17359E-3	-88.9434E-12	746.515E-3	20.6791E-3	-89.6582E-12	794.692E-3	-5.88676E-3
-2.17859E-3	-89.9499E-12	761.197E-3	13.4161E-3	-90.9369E-12	791.125E-3	-6.76127E-3
-2.18359E-3	-90.5295E-12	756.051E-3	-11.7301E-3	-91.8206E-12	792.914E-3	4.08470E-3
-2.18859E-3	-91.0983E-12	753.744E-3	-22.2043E-3	-92.1996E-12	783.918E-3	7.99592E-3
-2.19360E-3	-92.1660E-12	766.460E-3	-21.9641E-3	-92.7568E-12	765.450E-3	-3.14703E-3
-2.19860E-3	-93.2143E-12	765.859E-3	-20.8699E-3	-92.6540E-12	749.486E-3	-16.6101E-3
-2.20360E-3	-93.5234E-12	765.836E-3	-14.5291E-3	-92.1928E-12	738.155E-3	-22.9267E-3
-2.20860E-3	-93.6684E-12	785.389E-3	-4.02822E-3	-91.9402E-12	736.877E-3	-17.9855E-3
-2.21361E-3	-93.7833E-12	793.863E-3	7.60215E-3	-91.9929E-12	738.098E-3	-14.9354E-3
-2.21861E-3	-93.8471E-12	792.947E-3	13.7202E-3	-90.9358E-12	737.844E-3	-19.4876E-3
-2.22361E-3	-93.5662E-12	794.630E-3	13.3335E-3	-90.2784E-12	748.446E-3	-19.9038E-3
-2.22861E-3	-93.0958E-12	790.143E-3	-6.91761E-3	-90.0473E-12	748.444E-3	-17.1821E-3
-2.23362E-3	-91.6393E-12	788.324E-3	-35.7591E-3	-89.5467E-12	736.161E-3	-21.8039E-3
-2.23862E-3	-90.8627E-12	777.967E-3	-44.5670E-3	-89.1530E-12	732.033E-3	-29.8997E-3
-2.24362E-3	-90.7180E-12	758.487E-3	-41.8233E-3	-89.3600E-12	724.805E-3	-19.7943E-3
-2.24862E-3	-90.4260E-12	749.796E-3	-22.6986E-3	-89.4892E-12	720.169E-3	-14.6697E-3
-2.25363E-3	-89.1463E-12	739.366E-3	5.64545E-3	-89.5861E-12	724.694E-3	-12.3840E-3
-2.25863E-3	-89.6516E-12	724.160E-3	22.6407E-3	-90.4399E-12	735.203E-3	-1.62669E-3
-2.26363E-3	-90.3860E-12	717.550E-3	14.9874E-3	-91.3838E-12	744.397E-3	-7.61292E-3
-2.26863E-3	-90.2053E-12	721.427E-3	-6.29299E-3	-91.9810E-12	751.590E-3	-27.6097E-3
-2.27364E-3	-90.5577E-12	738.505E-3	-17.8492E-3	-93.0573E-12	765.740E-3	-45.4026E-3
-2.27864E-3	-91.3918E-12	751.109E-3	-32.3659E-3	-94.2978E-12	769.787E-3	-52.1085E-3
-2.28364E-3	-92.2964E-12	735.108E-3	-34.2435E-3	-94.9432E-12	754.806E-3	-43.1229E-3
-2.28864E-3	-93.1201E-12	715.238E-3	-19.1082E-3	-95.8426E-12	742.023E-3	-24.9358E-3
-2.29365E-3	-94.2213E-12	713.154E-3	-12.0906E-3	-96.6444E-12	745.786E-3	-22.5003E-3
-2.29865E-3	-94.8684E-12	719.867E-3	-23.0119E-3	-96.5526E-12	751.961E-3	-26.1128E-3
-2.30365E-3	-95.8057E-12	730.781E-3	-41.0516E-3	-96.4154E-12	753.313E-3	-15.3032E-3
-2.30865E-3	-96.3926E-12	741.402E-3	-50.0448E-3	-96.1673E-12	755.220E-3	-5.28559E-3
-2.31366E-3	-96.7637E-12	734.994E-3	-41.6844E-3	-95.8096E-12	737.249E-3	-1.50090E-3
-2.31866E-3	-96.4774E-12	727.027E-3	-24.6612E-3	-95.3198E-12	718.680E-3	2.85764E-3
-2.32366E-3	-96.0680E-12	740.818E-3	-10.1592E-3	-94.4876E-12	716.201E-3	2.14116E-3
-2.32866E-3	-95.1433E-12	749.610E-3	5.45416E-3	-94.2359E-12	707.082E-3	-1.46312E-3
-2.33367E-3	-94.7684E-12	749.209E-3	14.1357E-3	-93.5065E-12	701.309E-3	2.40183E-3
-2.33867E-3	-94.3296E-12	743.090E-3	8.98928E-3	-92.8944E-12	704.612E-3	-1.39193E-3
-2.34367E-3	-93.5087E-12	722.832E-3	-548.226E-6	-92.4511E-12	699.227E-3	-18.7714E-3
-2.34867E-3	-93.2338E-12	706.777E-3	-7.86991E-3	-92.6656E-12	685.081E-3	-28.0620E-3
-2.35368E-3	-93.1959E-12	701.076E-3	-12.3596E-3	-92.4448E-12	682.360E-3	-13.8077E-3
-2.35868E-3	-93.3839E-12	697.790E-3	-27.0043E-3	-93.2962E-12	697.851E-3	3.41704E-3
-2.36368E-3	-93.5401E-12	694.918E-3	-40.3716E-3	-93.9397E-12	717.151E-3	5.76180E-3
-2.36868E-3	-94.2200E-12	683.527E-3	-20.0599E-3	-95.5431E-12	732.930E-3	801.854E-6
-2.37369E-3	-94.6491E-12	680.403E-3	11.2643E-3	-96.1754E-12	743.927E-3	-2.53320E-3
-2.37869E-3	-95.3137E-12	707.288E-3	17.1095E-3	-97.5796E-12	743.698E-3	-14.6296E-3
-2.38369E-3	-97.0170E-12	732.391E-3	-740.461E-6	-99.6220E-12	743.878E-3	-28.4959E-3
-2.38869E-3	-97.8772E-12	735.935E-3	-25.3731E-3	-101.714E-12	750.045E-3	-23.4132E-3
-2.39370E-3	-99.2469E-12	734.506E-3	-36.5695E-3	-102.140E-12	754.717E-3	-11.2055E-3
-2.39870E-3	-100.068E-12	723.485E-3	-31.6478E-3	-103.213E-12	752.273E-3	7.08649E-3
-2.40370E-3	-101.531E-12	710.949E-3	-34.3326E-3	-104.462E-12	733.665E-3	23.2164E-3
-2.40870E-3	-101.660E-12	727.778E-3	-32.9462E-3	-104.101E-12	719.729E-3	14.8924E-3
-2.41371E-3	-102.579E-12	749.960E-3	-15.2165E-3	-104.171E-12	731.508E-3	1.31051E-3
-2.41871E-3	-102.755E-12	736.942E-3	-11.0034E-3	-104.083E-12	742.342E-3	-14.1217E-3
-2.42371E-3	-102.807E-12	722.710E-3	-29.2624E-3	-103.318E-12	725.523E-3	-36.5401E-3
-2.42871E-3	-102.379E-12	729.765E-3	-33.7336E-3	-102.448E-12	707.645E-3	-42.3265E-3
-2.43372E-3	-102.199E-12	735.148E-3	-20.5720E-3	-101.671E-12	706.650E-3	-41.6606E-3
-2.43872E-3	-102.012E-12	728.480E-3	-21.2093E-3	-100.877E-12	706.021E-3	-42.6080E-3
-2.44372E-3	-101.800E-12	718.315E-3	-24.5569E-3	-100.415E-12	704.937E-3	-40.5935E-3
-2.44872E-3	-101.635E-12	718.176E-3	-33.1236E-3	-100.481E-12	699.904E-3	-31.2232E-3
-2.45373E-3	-101.254E-12	718.776E-3	-43.9124E-3	-99.9093E-12	693.844E-3	-9.15857E-3
-2.45873E-3	-101.373E-12	711.851E-3	-24.3381E-3	-100.143E-12	707.745E-3	1.64634E-3
-2.46373E-3	-101.305E-12	697.759E-3	-572.187E-6	-100.945E-12	737.685E-3	-6.28520E-3
-2.46873E-3	-101.856E-12	683.201E-3	124.634E-6	-102.139E-12	749.302E-3	-22.5184E-3
-2.47374E-3	-101.482E-12	687.732E-3	-5.91384E-3	-103.216E-12	731.795E-3	-37.9765E-3
-2.47874E-3	-102.491E-12	704.647E-3	5.26126E-3	-104.362E-12	711.460E-3	-46.0391E-3
-2.48374E-3	-103.270E-12	708.978E-3	10.3934E-3	-105.893E-12	712.436E-3	-38.8038E-3
-2.48874E-3	-103.943E-12	701.836E-3	-249.329E-6	-106.757E-12	735.581E-3	-20.7711E-3
-2.49375E-3	-104.544E-12	693.539E-3	11.5176E-3	-107.969E-12	747.040E-3	-22.4060E-3
-2.49875E-3	-105.316E-12	695.604E-3	12.8647E-3	-108.769E-12	737.318E-3	-34.1638E-3
-2.50375E-3	-105.894E-12	710.482E-3	-12.9784E-3	-109.128E-12	746.522E-3	-48.4602E-3
-2.50875E-3	-105.831E-12	715.516E-3	-17.1474E-3	-108.682E-12	757.769E-3	-59.8139E-3
-2.51376E-3	-106.913E-12	716.908E-3	-8.88938E-3	-109.161E-12	746.095E-3	-39.1744E-3
-2.51876E-3	-107.305E-12	732.535E-3	-16.1965E-3	-108.508E-12	750.516E-3	-19.7973E-3
-2.52376E-3	-106.908E-12	742.843E-3	-19.9877E-3	-107.543E-12	757.686E-3	-19.4636E-3
-2.52876E-3	-107.051E-12	740.291E-3	-17.8321E-3	-106.746E-12	732.149E-3	-18.0953E-3
-2.53377E-3	-107.675E-12	742.979E-3	-23.1409E-3	-106.600E-12	704.954E-3	-11.4761E-3
-2.53877E-3	-107.145E-12	742.032E-3	-27.7231E-3	-106.083E-12	693.366E-3	-3.49301E-3
-2.54377E-3	-106.003E-12	724.809E-3	-27.6192E-3	-105.061E-12	681.561E-3	-9.83162E-3
-2.54877E-3	-105.971E-12	712.783E-3	-29.3430E-3	-104.641E-12	681.633E-3	-15.1470E-3
-2.55378E-3	-105.801E-12	713.178E-3	-29.7446E-3	-104.134E-12	697.424E-3	-9.27169E-3
-2.55878E-3	-105.361E-12	704.246E-3	-28.9039E-3	-104.150E-12	694.026E-3	-5.60253E-3
-2.56378E-3	-104.129E-12	689.939E-3	-27.9261E-3	-104.383E-12	680.309E-3	-12.9076E-3
-2.56878E-3	-104.338E-12	692.163E-3	-23.4601E-3	-104.515E-12	696.286E-3	-28.2664E-3
-2.57379E-3	-104.670E-12	699.897E-3	-18.5106E-3	-105.016E-12	704.687E-3	-34.7445E-3
-2.57879E-3	-104.870E-12	705.592E-3	-13.7828E-3	-106.036E-12	690.892E-3	-25.4550E-3
-2.58379E-3	-104.551E-12	710.611E-3	-13.8660E-3	-106.885E-12	702.499E-3	-17.4813E-3
-2.58879E-3	-105.066E-12	697.375E-3	-20.3823E-3	-108.007E-12	718.467E-3	-33.2822E-3
-2.59380E-3	-105.808E-12	680.729E-3	-19.5305E-3	-108.788E-12	724.618E-3	-55.4669E-3
-2.59880E-3	-106.453E-12	662.912E-3	-16.7808E-3	-109.527E-12	740.054E-3	-47.7718E-3
-2.60380E-3	-106.629E-12	649.648E-3	-18.2513E-3	-110.832E-12	743.574E-3	-26.0106E-3
-2.60880E-3	-107.540E-12	669.551E-3	-11.6728E-3	-111.336E-12	724.920E-3	-25.3266E-3
-2.61381E-3	-108.390E-12	690.445E-3	-2.44693E-3	-111.129E-12	709.316E-3	-26.9055E-3
-2.61881E-3	-109.536E-12	696.514E-3	-2.58799E-3	-112.134E-12	707.073E-3	-28.0490E-3
-2.62381E-3	-110.317E-12	708.164E-3	-9.07419E-3	-112.658E-12	710.728E-3	-30.3850E-3
-2.62881E-3	-110.481E-12	714.006E-3	-9.56044E-3	-112.566E-12	725.485E-3	-19.1366E-3
-2.63382E-3	-110.734E-12	701.554E-3	-7.97860E-3	-111.518E-12	734.142E-3	-19.8252E-3
-2.63882E-3	-110.808E-12	692.894E-3	-15.1957E-3	-111.493E-12	718.245E-3	-42.4483E-3
-2.64382E-3	-110.963E-12	693.624E-3	-25.2193E-3	-111.137E-12	693.180E-3	-43.3747E-3
-2.64882E-3	-110.839E-12	692.420E-3	-21.7725E-3	-110.925E-12	692.427E-3	-8.98896E-3
-2.65383E-3	-110.497E-12	698.010E-3	1.50107E-3	-109.860E-12	702.453E-3	3.38599E-3
-2.65883E-3	-109.955E-12	698.970E-3	23.0865E-3	-109.621E-12	688.998E-3	-21.2001E-3
-2.66383E-3	-110.072E-12	691.491E-3	20.8943E-3	-109.722E-12	677.187E-3	-32.1781E-3
-2.66883E-3	-110.627E-12	679.639E-3	12.3021E-3	-108.871E-12	684.773E-3	-28.0412E-3
-2.67384E-3	-110.190E-12	668.797E-3	9.19310E-3	-109.538E-12	696.123E-3	-26.2675E-3
-2.67884E-3	-110.202E-12	683.008E-3	-10.1566E-3	-109.776E-12	695.770E-3	-13.5894E-3
-2.68384E-3	-111.140E-12	697.062E-3	-29.4193E-3	-110.947E-12	697.325E-3	2.73433E-3
-2.68884E-3	-111.475E-12	690.565E-3	-36.5821E-3	-111.246E-12	712.993E-3	1.53137E-3
-2.69385E-3	-111.673E-12	687.041E-3	-49.4197E-3	-112.695E-12	732.049E-3	-6.94775E-3
-2.69885E-3	-112.509E-12	691.352E-3	-44.0769E-3	-114.242E-12	747.747E-3	-3.51084E-3
-2.70385E-3	-113.755E-12	706.704E-3	-12.1642E-3	-115.423E-12	735.445E-3	-1.49670E-3
-2.70885E-3	-114.544E-12	727.542E-3	15.5518E-3	-116.043E-12	704.364E-3	-17.3044E-3
-2.71386E-3	-116.168E-12	726.313E-3	12.4902E-3	-117.843E-12	699.556E-3	-34.8580E-3
-2.71886E-3	-116.950E-12	710.287E-3	-8.38961E-3	-118.998E-12	713.534E-3	-38.0026E-3
-2.72386E-3	-117.701E-12	707.752E-3	-17.4389E-3	-118.668E-12	732.513E-3	-26.4402E-3
-2.72886E-3	-118.436E-12	713.595E-3	-17.1485E-3	-119.363E-12	745.260E-3	-4.91029E-3
-2.73387E-3	-118.907E-12	721.012E-3	-8.32258E-3	-119.644E-12	722.572E-3	-1.66801E-3
-2.73887E-3	-119.367E-12	717.030E-3	4.80299E-3	-118.779E-12	688.785E-3	-23.8866E-3
-2.74387E-3	-118.921E-12	706.357E-3	-2.26509E-3	-117.288E-12	677.154E-3	-25.6887E-3
-2.74887E-3	-119.017E-12	706.566E-3	-22.2718E-3	-117.544E-12	668.523E-3	-194.170E-6
-2.75388E-3	-118.797E-12	708.243E-3	-27.2334E-3	-116.921E-12	659.802E-3	1.29435E-3
-2.75888E-3	-117.964E-12	709.689E-3	-17.5970E-3	-115.275E-12	676.066E-3	-16.3852E-3
-2.76388E-3	-117.299E-12	726.397E-3	-6.17180E-3	-114.021E-12	695.576E-3	-18.5346E-3
-2.76888E-3	-116.932E-12	743.742E-3	-26.1668E-6	-114.044E-12	691.101E-3	-8.97641E-3
-2.77389E-3	-117.219E-12	727.746E-3	-3.41730E-3	-113.684E-12	689.266E-3	2.23116E-3
-2.77889E-3	-115.901E-12	698.757E-3	-10.0825E-3	-114.110E-12	685.916E-3	-1.71782E-3
-2.78389E-3	-116.050E-12	687.688E-3	-5.71521E-3	-114.721E-12	685.431E-3	-8.03481E-3
-2.78889E-3	-116.407E-12	682.873E-3	10.5082E-3	-115.382E-12	707.330E-3	-8.20510E-3
-2.79390E-3	-116.614E-12	679.088E-3	14.4954E-3	-116.617E-12	728.201E-3	-14.3863E-3
-2.79890E-3	-116.749E-12	683.154E-3	-15.5703E-3	-117.663E-12	722.267E-3	-11.7718E-3
-2.80390E-3	-118.055E-12	688.958E-3	-42.7661E-3	-119.291E-12	699.140E-3	7.02367E-3
-2.80890E-3	-119.948E-12	691.186E-3	-25.2906E-3	-120.299E-12	706.268E-3	19.1533E-3
-2.81391E-3	-119.922E-12	685.543E-3	5.95141E-3	-121.637E-12	732.630E-3	5.29276E-3
-2.81891E-3	-120.789E-12	684.044E-3	14.9585E-3	-122.746E-12	732.033E-3	-9.51431E-3
-2.82391E-3	-122.417E-12	705.331E-3	-6.17657E-3	-123.723E-12	709.363E-3	-8.89751E-3
-2.82891E-3	-123.072E-12	729.118E-3	-30.9816E-3	-123.721E-12	699.982E-3	-10.7327E-3
-2.83392E-3	-122.751E-12	732.057E-3	-31.8737E-3	-124.002E-12	702.513E-3	-18.7573E-3
-2.83892E-3	-122.824E-12	725.542E-3	-34.5652E-3	-123.896E-12	699.170E-3	-23.0235E-3
-2.84392E-3	-122.428E-12	713.398E-3	-39.5809E-3	-122.783E-12	689.961E-3	-23.8048E-3
-2.84892E-3	-122.027E-12	691.884E-3	-28.9964E-3	-122.231E-12	672.188E-3	-21.4984E-3
-2.85393E-3	-120.797E-12	683.603E-3	-24.8745E-3	-120.660E-12	658.280E-3	-16.4728E-3
-2.85893E-3	-120.036E-12	692.747E-3	-33.9197E-3	-119.058E-12	664.611E-3	-15.6221E-3
-2.86393E-3	-119.230E-12	696.805E-3	-30.5797E-3	-118.323E-12	681.041E-3	-9.33133E-3
-2.86893E-3	-118.585E-12	698.839E-3	-14.3295E-3	-118.015E-12	688.373E-3	-9.02843E-3
-2.87394E-3	-117.651E-12	703.337E-3	-19.1872E-3	-116.875E-12	686.362E-3	-18.3306E-3
-2.87894E-3	-117.175E-12	694.776E-3	-21.1307E-3	-117.557E-12	680.357E-3	-18.1025E-3
-2.88394E-3	-116.904E-12	670.403E-3	-11.6613E-3	-117.987E-12	674.230E-3	-16.2839E-3
-2.88894E-3	-116.738E-12	662.173E-3	-28.2144E-3	-118.420E-12	674.155E-3	-17.0507E-3
-2.89395E-3	-117.339E-12	673.717E-3	-33.1631E-3	-119.476E-12	690.869E-3	-20.0670E-3
-2.89895E-3	-118.257E-12	671.938E-3	-11.8295E-3	-120.628E-12	719.894E-3	-25.2891E-3
-2.90395E-3	-119.177E-12	663.498E-3	-6.27174E-3	-121.752E-12	726.568E-3	-15.6454E-3
-2.90895E-3	-119.692E-12	667.449E-3	-21.5742E-3	-122.633E-12	710.970E-3	-1.69713E-3
-2.91396E-3	-121.203E-12	679.991E-3	-43.2495E-3	-124.486E-12	703.484E-3	-10.1377E-3
-2.91896E-3	-122.477E-12	682.086E-3	-54.5696E-3	-125.696E-12	706.683E-3	-30.2421E-3
-2.92396E-3	-122.798E-12	676.977E-3	-41.4785E-3	-126.415E-12	710.891E-3	-49.6094E-3
-2.92896E-3	-124.567E-12	687.739E-3	-25.3485E-3	-127.258E-12	711.997E-3	-53.9318E-3
-2.93397E-3	-125.365E-12	694.690E-3	-32.5059E-3	-127.722E-12	701.694E-3	-33.4396E-3
-2.93897E-3	-125.761E-12	680.005E-3	-38.1403E-3	-127.194E-12	683.363E-3	-23.4661E-3
-2.94397E-3	-125.666E-12	683.637E-3	-25.2534E-3	-126.532E-12	670.551E-3	-20.3046E-3
-2.94897E-3	-125.814E-12	706.835E-3	-26.0761E-3	-126.711E-12	661.894E-3	-5.55050E-3
-2.95398E-3	-126.122E-12	713.882E-3	-32.6602E-3	-125.843E-12	662.315E-3	-9.11784E-3
-2.95898E-3	-125.726E-12	717.622E-3	-21.7592E-3	-124.706E-12	663.243E-3	-27.6985E-3
-2.96398E-3	-125.417E-12	722.868E-3	-22.9535E-3	-124.328E-12	652.110E-3	-30.1421E-3
-2.96898E-3	-125.094E-12	709.641E-3	-31.3882E-3	-124.116E-12	660.841E-3	-11.8068E-3
-2.97399E-3	-124.698E-12	701.617E-3	-20.9159E-3	-123.470E-12	680.753E-3	-769.976E-6
-2.97899E-3	-124.470E-12	705.324E-3	-12.8252E-3	-123.198E-12	664.308E-3	-13.5671E-3
-2.98399E-3	-124.471E-12	701.645E-3	-16.2286E-3	-123.254E-12	652.995E-3	-21.1625E-3
-2.98899E-3	-124.077E-12	667.992E-3	-13.1268E-3	-123.744E-12	676.615E-3	-6.03454E-3
-2.99400E-3	-124.765E-12	633.834E-3	-8.98639E-3	-124.540E-12	698.066E-3	7.74940E-3
-2.99900E-3	-125.278E-12	635.552E-3	-23.6668E-3	-125.906E-12	716.133E-3	18.0305E-3
-3.00400E-3	-126.035E-12	647.670E-3	-34.3178E-3	-126.696E-12	723.414E-3	26.6746E-3
-3.00900E-3	-126.830E-12	664.231E-3	-27.4200E-3	-127.625E-12	719.111E-3	14.0596E-3
-3.01401E-3	-128.416E-12	677.343E-3	-18.2005E-3	-129.816E-12	726.723E-3	-7.67466E-3
-3.01901E-3	-129.866E-12	685.019E-3	-19.1027E-3	-131.056E-12	728.644E-3	-25.9748E-3
-3.02401E-3	-130.966E-12	699.443E-3	-23.6533E-3	-132.024E-12	708.369E-3	-41.0248E-3
-3.02901E-3	-132.156E-12	718.821E-3	-9.37179E-3	-133.073E-12	703.075E-3	-40.4055E-3
-3.03402E-3	-132.992E-12	718.520E-3	-6.52230E-3	-133.754E-12	714.744E-3	-36.9957E-3
-3.03902E-3	-133.712E-12	694.792E-3	-26.6023E-3	-134.529E-12	703.101E-3	-40.3310E-3
-3.04402E-3	-134.382E-12	697.008E-3	-19.4882E-3	-134.999E-12	682.524E-3	-36.7529E-3
-3.04902E-3	-135.063E-12	731.757E-3	-1.75561E-3	-135.095E-12	684.223E-3	-37.4406E-3
-3.05403E-3	-133.635E-12	735.019E-3	-22.4255E-3	-134.441E-12	692.950E-3	-32.5370E-3
-3.05903E-3	-133.941E-12	707.430E-3	-47.6435E-3	-134.168E-12	693.008E-3	-16.8463E-3
-3.06403E-3	-134.034E-12	694.948E-3	-38.1700E-3	-133.708E-12	713.276E-3	-16.9126E-3
-3.06903E-3	-132.738E-12	689.959E-3	-13.6130E-3	-132.637E-12	735.392E-3	-17.4164E-3
-3.07404E-3	-131.913E-12	679.871E-3	-5.14961E-3	-131.165E-12	711.119E-3	6.52035E-3
-3.07904E-3	-131.611E-12	686.753E-3	-3.03846E-3	-130.976E-12	675.074E-3	27.3920E-3
-3.08404E-3	-130.614E-12	708.817E-3	-3.95567E-3	-129.833E-12	657.900E-3	14.3768E-3
-3.08904E-3	-129.421E-12	711.789E-3	-26.7192E-3	-129.393E-12	652.698E-3	-11.2188E-3
-3.09405E-3	-129.929E-12	702.757E-3	-33.4676E-3	-128.628E-12	647.218E-3	-11.3780E-3
-3.09905E-3	-129.484E-12	684.745E-3	-8.46764E-3	-129.215E-12	651.637E-3	-1.02122E-3
-3.10405E-3	-129.347E-12	663.453E-3	1.37398E-3	-129.396E-12	673.910E-3	-4.41934E-3
-3.10905E-3	-129.150E-12	670.011E-3	-10.5951E-3	-129.677E-12	688.082E-3	-7.46422E-3
-3.11406E-3	-130.343E-12	687.937E-3	-21.8125E-3	-130.511E-12	702.277E-3	-3.30117E-3
-3.11906E-3	-130.699E-12	694.995E-3	-22.3702E-3	-131.756E-12	704.180E-3	-8.36420E-3
-3.12406E-3	-131.414E-12	692.524E-3	-16.1750E-3	-132.897E-12	686.706E-3	-14.1393E-3
-3.12906E-3	-131.825E-12	688.623E-3	-12.3189E-3	-133.994E-12	675.937E-3	-1.23703E-3
-3.13407E-3	-132.813E-12	676.400E-3	-13.7644E-3	-135.285E-12	677.945E-3	11.6292E-3
-3.13907E-3	-133.860E-12	661.291E-3	-3.56911E-3	-136.018E-12	688.242E-3	7.18580E-3
-3.14407E-3	-134.600E-12	660.803E-3	11.2143E-3	-137.750E-12	692.548E-3	-13.7968E-3
-3.14907E-3	-135.000E-12	672.922E-3	5.31499E-3	-138.045E-12	689.897E-3	-27.8619E-3
-3.15408E-3	-135.397E-12	710.236E-3	-3.82361E-3	-137.674E-12	673.964E-3	-14.7066E-3
-3.15908E-3	-135.788E-12	743.405E-3	-6.26849E-3	-137.770E-12	663.828E-3	-16.5035E-3
-3.16408E-3	-135.306E-12	733.851E-3	-5.50966E-3	-136.974E-12	682.069E-3	-34.8780E-3
-3.16908E-3	-135.564E-12	705.353E-3	1.13402E-3	-135.775E-12	684.380E-3	-23.9087E-3
-3.17409E-3	-133.968E-12	677.312E-3	5.38631E-3	-134.820E-12	675.883E-3	1.23325E-3
-3.17909E-3	-133.793E-12	665.899E-3	-275.853E-6	-133.761E-12	681.450E-3	13.9698E-3
-3.18409E-3	-133.644E-12	670.272E-3	-2.29190E-3	-132.072E-12	680.414E-3	8.79195E-3
-3.18909E-3	-132.661E-12	674.902E-3	-1.22934E-3	-131.305E-12	678.508E-3	-4.84096E-3
-3.19410E-3	-132.417E-12	670.715E-3	-22.7010E-3	-130.506E-12	675.927E-3	-11.8860E-3
-3.19910E-3	-132.015E-12	662.642E-3	-37.8150E-3	-130.003E-12	675.107E-3	-12.7992E-3
-3.20410E-3	-131.701E-12	680.282E-3	-28.2605E-3	-129.876E-12	659.939E-3	-10.2299E-3
-3.20910E-3	-131.845E-12	692.463E-3	-14.8912E-3	-129.835E-12	639.207E-3	-11.8499E-3
-3.21411E-3	-132.631E-12	678.265E-3	-2.98846E-3	-131.101E-12	655.574E-3	-18.0537E-3
-3.21911E-3	-132.736E-12	672.196E-3	2.09914E-3	-132.314E-12	668.321E-3	-23.6672E-3
-3.22411E-3	-134.207E-12	669.752E-3	11.3171E-3	-134.714E-12	667.522E-3	-18.7797E-3
-3.22911E-3	-135.400E-12	674.582E-3	14.9152E-3	-135.681E-12	688.523E-3	-1.39801E-3
-3.23412E-3	-135.832E-12	693.506E-3	5.49323E-3	-138.363E-12	720.458E-3	-6.78501E-3
-3.23912E-3	-137.295E-12	695.864E-3	-3.22042E-3	-140.588E-12	745.138E-3	-26.1614E-3
-3.24412E-3	-139.311E-12	681.190E-3	-6.71977E-3	-142.758E-12	738.974E-3	-35.7907E-3
-3.24912E-3	-140.862E-12	666.699E-3	3.49480E-3	-143.134E-12	712.551E-3	-25.5337E-3
-3.25413E-3	-140.827E-12	664.989E-3	3.99516E-3	-144.169E-12	684.427E-3	1.84461E-3
-3.25913E-3	-142.305E-12	676.731E-3	-12.7445E-3	-144.672E-12	672.090E-3	8.14886E-3
-3.26413E-3	-143.051E-12	690.536E-3	-16.0433E-3	-143.819E-12	691.252E-3	13.2302E-3
-3.26913E-3	-143.271E-12	700.983E-3	-6.68110E-3	-143.678E-12	702.038E-3	16.3946E-3
-3.27414E-3	-142.902E-12	689.482E-3	12.5610E-3	-143.073E-12	692.704E-3	5.01952E-3
-3.27914E-3	-143.288E-12	681.865E-3	12.1934E-3	-141.595E-12	684.837E-3	-4.15851E-3
-3.28414E-3	-142.495E-12	687.585E-3	-27.4187E-3	-140.107E-12	673.068E-3	-10.4405E-3
-3.28914E-3	-142.070E-12	691.062E-3	-54.2505E-3	-139.311E-12	658.512E-3	-14.4303E-3
-3.29415E-3	-141.790E-12	688.888E-3	-44.9508E-3	-138.681E-12	656.578E-3	-19.1045E-3
-3.29915E-3	-141.387E-12	673.453E-3	-20.9592E-3	-137.981E-12	663.225E-3	-20.6737E-3
-3.30415E-3	-140.324E-12	669.563E-3	-7.80514E-3	-137.380E-12	653.361E-3	-21.3043E-3
-3.30915E-3	-140.297E-12	674.109E-3	-662.703E-6	-137.378E-12	638.076E-3	-17.5263E-3
-3.31416E-3	-140.932E-12	676.897E-3	-4.98274E-3	-138.382E-12	638.225E-3	-17.6044E-3
-3.31916E-3	-141.151E-12	680.687E-3	-28.7686E-3	-139.556E-12	642.417E-3	-21.0036E-3
-3.32416E-3	-141.610E-12	682.771E-3	-33.0240E-3	-140.571E-12	645.797E-3	-10.5017E-3
-3.32916E-3	-142.538E-12	657.089E-3	-11.3664E-3	-142.472E-12	667.114E-3	7.82173E-3
-3.33417E-3	-143.675E-12	615.329E-3	-15.9730E-3	-144.227E-12	705.588E-3	6.85491E-3
-3.33917E-3	-144.429E-12	628.005E-3	-50.5073E-3	-145.389E-12	725.679E-3	-18.7547E-3
-3.34417E-3	-146.479E-12	664.729E-3	-42.0403E-3	-146.755E-12	724.045E-3	-26.3004E-3
-3.34917E-3	-146.450E-12	676.349E-3	-718.576E-6	-147.661E-12	713.041E-3	-13.6728E-3
-3.35418E-3	-147.818E-12	676.792E-3	11.1659E-3	-148.526E-12	696.853E-3	-15.1343E-3
-3.35918E-3	-148.159E-12	679.399E-3	-2.24695E-3	-148.992E-12	688.399E-3	-22.9519E-3
-3.36418E-3	-148.609E-12	692.555E-3	-31.7495E-3	-148.575E-12	692.015E-3	-26.8967E-3
-3.36918E-3	-148.809E-12	708.593E-3	-48.2453E-3	-148.295E-12	698.425E-3	-26.5667E-3
-3.37419E-3	-147.938E-12	717.879E-3	-37.3448E-3	-147.504E-12	702.629E-3	-18.9727E-3
-3.37919E-3	-146.716E-12	730.215E-3	-33.7231E-3	-145.948E-12	698.771E-3	-25.3941E-3
-3.38419E-3	-145.432E-12	745.713E-3	-44.0064E-3	-144.876E-12	683.369E-3	-41.5074E-3
-3.38919E-3	-145.135E-12	737.712E-3	-40.2805E-3	-143.490E-12	667.060E-3	-31.2436E-3
-3.39420E-3	-143.944E-12	705.736E-3	-27.1539E-3	-142.291E-12	658.817E-3	-16.2880E-3
-3.39920E-3	-142.980E-12	668.340E-3	-26.8712E-3	-141.320E-12	667.132E-3	-30.4733E-3
-3.40420E-3	-142.740E-12	642.174E-3	-16.4430E-3	-141.465E-12	685.787E-3	-40.3332E-3
-3.40920E-3	-142.168E-12	648.652E-3	1.80117E-3	-140.986E-12	686.423E-3	-24.3630E-3
-3.41421E-3	-142.446E-12	666.215E-3	3.56901E-3	-141.078E-12	668.917E-3	-13.2799E-3
-3.41921E-3	-142.188E-12	669.755E-3	-1.44717E-3	-142.619E-12	666.746E-3	-10.4304E-3
-3.42421E-3	-142.609E-12	670.075E-3	-15.6367E-3	-143.541E-12	691.693E-3	-11.1828E-3
-3.42921E-3	-142.186E-12	669.670E-3	-25.5218E-3	-144.874E-12	703.256E-3	-16.7402E-3
-3.43422E-3	-143.640E-12	656.952E-3	-19.0891E-3	-145.968E-12	689.587E-3	-27.6964E-3
-3.43922E-3	-144.565E-12	638.470E-3	-24.1544E-3	-147.794E-12	677.878E-3	-25.9465E-3
-3.44422E-3	-146.137E-12	632.793E-3	-21.4300E-3	-148.932E-12	681.420E-3	-11.5660E-3
-3.44922E-3	-146.559E-12	638.058E-3	-9.91554E-3	-150.598E-12	698.861E-3	-11.8958E-3
-3.45423E-3	-147.496E-12	633.324E-3	-23.9056E-3	-151.235E-12	699.240E-3	-18.7847E-3
-3.45923E-3	-148.327E-12	626.568E-3	-45.6370E-3	-151.800E-12	680.366E-3	-32.7297E-3
-3.46423E-3	-149.645E-12	632.722E-3	-47.0910E-3	-152.870E-12	677.890E-3	-34.2704E-3
-3.46923E-3	-149.671E-12	649.594E-3	-27.9338E-3	-153.433E-12	690.961E-3	-17.0869E-3
-3.47424E-3	-149.426E-12	677.518E-3	-14.3619E-3	-153.026E-12	690.836E-3	-9.68279E-3
-3.47924E-3	-149.248E-12	685.798E-3	-21.9804E-3	-152.090E-12	673.916E-3	-10.6946E-3
-3.48424E-3	-148.546E-12	672.723E-3	-43.0751E-3	-151.933E-12	664.093E-3	-14.7153E-3
-3.48924E-3	-148.997E-12	656.263E-3	-46.9090E-3	-150.841E-12	671.408E-3	-20.1398E-3
-3.49425E-3	-147.611E-12	633.139E-3	-27.9871E-3	-149.711E-12	675.542E-3	-19.6300E-3
-3.49925E-3	-147.717E-12	622.715E-3	-14.3672E-3	-148.189E-12	662.384E-3	-12.5081E-3
-3.50425E-3	-147.467E-12	637.116E-3	-5.37306E-3	-147.514E-12	635.216E-3	-931.405E-6
-3.50925E-3	-147.079E-12	669.805E-3	1.19154E-3	-147.296E-12	618.821E-3	-103.943E-6
-3.51426E-3	-146.882E-12	672.799E-3	-8.07384E-3	-147.051E-12	638.498E-3	-12.8024E-3
-3.51926E-3	-147.045E-12	641.414E-3	-14.3380E-3	-146.569E-12	670.638E-3	-26.3889E-3
-3.52426E-3	-147.208E-12	625.150E-3	-10.5629E-3	-146.319E-12	691.585E-3	-21.5551E-3
-3.52926E-3	-148.272E-12	629.663E-3	-10.4748E-3	-147.325E-12	683.346E-3	-13.2214E-3
-3.53427E-3	-149.350E-12	638.246E-3	-22.4596E-3	-148.213E-12	673.636E-3	-37.2872E-3
-3.53927E-3	-150.027E-12	633.842E-3	-46.1977E-3	-148.853E-12	692.198E-3	-47.0166E-3
-3.54427E-3	-152.537E-12	634.596E-3	-46.9105E-3	-150.799E-12	692.281E-3	-21.3774E-3
-3.54927E-3	-153.315E-12	665.380E-3	-45.1677E-3	-152.671E-12	681.632E-3	-12.9902E-3
-3.55428E-3	-154.596E-12	696.385E-3	-53.8790E-3	-154.788E-12	698.103E-3	-12.6689E-3
-3.55928E-3	-155.306E-12	690.693E-3	-29.9977E-3	-156.421E-12	718.989E-3	2.07308E-3
-3.56428E-3	-156.751E-12	673.650E-3	8.09020E-3	-157.489E-12	732.308E-3	7.60910E-3
-3.56928E-3	-158.429E-12	681.940E-3	17.9265E-3	-159.600E-12	739.855E-3	6.18928E-3
-3.57429E-3	-158.491E-12	698.017E-3	428.205E-6	-159.824E-12	738.569E-3	-7.82475E-3
-3.57929E-3	-158.414E-12	689.198E-3	-18.9476E-3	-160.612E-12	709.764E-3	-39.1855E-3
-3.58429E-3	-158.333E-12	674.912E-3	-30.9385E-3	-160.377E-12	662.357E-3	-51.2332E-3
-3.58929E-3	-158.683E-12	698.174E-3	-29.3316E-3	-158.922E-12	656.706E-3	-39.3028E-3
-3.59430E-3	-157.715E-12	720.002E-3	-11.5983E-3	-157.327E-12	673.313E-3	-25.6109E-3
-3.59930E-3	-157.023E-12	697.855E-3	-11.8390E-3	-157.197E-12	662.624E-3	-27.3086E-3
-3.60430E-3	-157.483E-12	675.862E-3	-19.2641E-3	-155.091E-12	653.312E-3	-27.5891E-3
-3.60930E-3	-156.271E-12	663.903E-3	-22.6133E-3	-153.221E-12	648.030E-3	-15.5599E-3
-3.61431E-3	-155.210E-12	657.429E-3	-31.5585E-3	-152.354E-12	624.037E-3	-10.8152E-3
-3.61931E-3	-154.762E-12	670.254E-3	-24.4331E-3	-152.228E-12	608.859E-3	-14.1963E-3
-3.62431E-3	-154.802E-12	683.490E-3	-4.70253E-3	-151.487E-12	617.084E-3	-27.7741E-3
-3.62931E-3	-155.068E-12	672.826E-3	182.295E-6	-151.326E-12	627.513E-3	-35.8223E-3
-3.63432E-3	-154.597E-12	645.116E-3	-22.2649E-3	-151.374E-12	646.636E-3	-16.7873E-3
-3.63932E-3	-154.427E-12	636.355E-3	-36.9423E-3	-152.772E-12	673.894E-3	6.93292E-3
-3.64432E-3	-155.173E-12	650.668E-3	-29.4983E-3	-153.935E-12	676.497E-3	7.40626E-3
-3.64932E-3	-155.507E-12	653.411E-3	-26.5581E-3	-155.570E-12	667.803E-3	-15.5662E-3
-3.65433E-3	-155.133E-12	641.539E-3	-20.6645E-3	-157.681E-12	687.041E-3	-39.5733E-3
-3.65933E-3	-156.576E-12	638.214E-3	-6.96695E-3	-159.066E-12	719.409E-3	-31.8508E-3
-3.66433E-3	-157.088E-12	652.263E-3	11.7989E-3	-160.868E-12	725.625E-3	-9.78996E-3
-3.66933E-3	-157.860E-12	669.775E-3	15.1238E-3	-162.559E-12	705.756E-3	-8.31202E-3
-3.67434E-3	-158.224E-12	679.832E-3	-14.0425E-3	-163.607E-12	684.921E-3	-8.49048E-3
-3.67934E-3	-158.912E-12	700.755E-3	-34.4882E-3	-163.865E-12	676.595E-3	-3.75474E-3
-3.68434E-3	-158.459E-12	719.560E-3	-21.6071E-3	-164.194E-12	677.619E-3	-14.9437E-3
-3.68934E-3	-159.106E-12	703.696E-3	-7.37002E-3	-164.126E-12	676.863E-3	-37.4878E-3
-3.69435E-3	-159.077E-12	667.202E-3	-1.97895E-3	-162.976E-12	656.998E-3	-47.5717E-3
-3.69935E-3	-159.219E-12	649.088E-3	2.45225E-3	-161.626E-12	635.138E-3	-42.2732E-3
-3.70435E-3	-157.920E-12	650.662E-3	-13.5005E-3	-159.873E-12	632.498E-3	-32.2368E-3
-3.70935E-3	-158.053E-12	661.835E-3	-28.2416E-3	-158.634E-12	638.376E-3	-14.7443E-3
-3.71436E-3	-156.878E-12	676.000E-3	-17.5739E-3	-156.401E-12	648.589E-3	-7.46933E-3
-3.71936E-3	-156.809E-12	671.226E-3	-270.978E-6	-154.779E-12	644.464E-3	-32.6923E-3
-3.72436E-3	-155.854E-12	649.309E-3	8.07682E-3	-154.133E-12	639.336E-3	-51.1055E-3
-3.72936E-3	-155.670E-12	633.567E-3	-1.16833E-3	-153.440E-12	650.854E-3	-50.9738E-3
-3.73437E-3	-155.281E-12	626.143E-3	-18.0884E-3	-153.581E-12	653.995E-3	-50.6972E-3
-3.73937E-3	-155.331E-12	627.572E-3	-21.8669E-3	-154.008E-12	659.850E-3	-26.5359E-3
-3.74437E-3	-155.735E-12	640.078E-3	-15.8047E-3	-155.247E-12	669.165E-3	12.9009E-3
-3.74937E-3	-156.299E-12	643.760E-3	-17.2676E-3	-156.453E-12	661.016E-3	15.0780E-3
-3.75438E-3	-157.266E-12	634.802E-3	-18.8534E-3	-158.686E-12	659.696E-3	-8.65484E-3
-3.75938E-3	-158.240E-12	622.636E-3	-11.7077E-3	-159.878E-12	665.908E-3	-15.4691E-3
-3.76438E-3	-160.737E-12	618.563E-3	-15.7881E-3	-162.461E-12	661.859E-3	-16.7266E-3
-3.76938E-3	-161.730E-12	630.625E-3	-34.1645E-3	-163.836E-12	663.081E-3	-13.1475E-3
-3.77439E-3	-163.053E-12	661.299E-3	-43.1225E-3	-165.421E-12	672.105E-3	3.85975E-3
-3.77939E-3	-165.906E-12	677.087E-3	-41.1114E-3	-167.125E-12	672.058E-3	8.09485E-3
-3.78439E-3	-166.772E-12	652.369E-3	-39.3892E-3	-167.877E-12	678.956E-3	2.45211E-3
-3.78939E-3	-167.329E-12	635.607E-3	-23.6921E-3	-167.358E-12	692.919E-3	11.5621E-3
-3.79440E-3	-167.646E-12	654.895E-3	1.23955E-3	-166.593E-12	688.940E-3	18.5349E-3
-3.79940E-3	-169.499E-12	681.056E-3	18.1879E-3	-166.405E-12	675.514E-3	5.66411E-3
-3.80440E-3	-168.264E-12	691.910E-3	20.7572E-3	-164.832E-12	661.214E-3	-13.2425E-3
-3.80940E-3	-167.643E-12	706.675E-3	2.64011E-3	-162.983E-12	640.891E-3	-38.1970E-3
-3.81441E-3	-166.955E-12	710.492E-3	-18.0587E-3	-162.821E-12	619.585E-3	-58.5800E-3
-3.81941E-3	-166.164E-12	681.097E-3	-14.3134E-3	-161.746E-12	628.313E-3	-38.9211E-3
-3.82441E-3	-164.845E-12	662.250E-3	-7.33950E-3	-160.464E-12	652.738E-3	-5.81250E-3
-3.82941E-3	-163.797E-12	667.003E-3	-29.5733E-3	-160.175E-12	657.013E-3	-2.11121E-3
-3.83442E-3	-163.234E-12	671.013E-3	-53.5217E-3	-160.661E-12	651.618E-3	2.88771E-3
-3.83942E-3	-163.269E-12	671.071E-3	-61.6339E-3	-160.997E-12	650.216E-3	6.95487E-3
-3.84442E-3	-163.556E-12	668.922E-3	-49.5450E-3	-162.110E-12	654.356E-3	-17.3100E-3
-3.84942E-3	-163.697E-12	653.153E-3	-16.3425E-3	-163.611E-12	659.415E-3	-31.8535E-3
-3.85443E-3	-164.822E-12	639.556E-3	-3.99176E-3	-165.395E-12	676.973E-3	-20.4801E-3
-3.85943E-3	-166.356E-12	654.798E-3	-25.4744E-3	-167.267E-12	703.756E-3	-15.6651E-3
-3.86443E-3	-167.187E-12	682.051E-3	-44.8745E-3	-168.595E-12	700.458E-3	-17.2847E-3
-3.86943E-3	-168.703E-12	684.781E-3	-43.5897E-3	-170.766E-12	675.139E-3	-9.47239E-3
-3.87444E-3	-170.285E-12	654.420E-3	-30.0005E-3	-172.850E-12	672.665E-3	-6.90994E-3
-3.87944E-3	-171.967E-12	649.364E-3	-22.7524E-3	-173.781E-12	696.788E-3	-28.4433E-3
-3.88444E-3	-172.753E-12	686.812E-3	-27.2028E-3	-174.411E-12	726.170E-3	-44.1145E-3
-3.88944E-3	-173.020E-12	694.702E-3	-27.1419E-3	-174.827E-12	721.007E-3	-19.2000E-3
-3.89445E-3	-174.303E-12	685.256E-3	-19.4278E-3	-174.949E-12	689.903E-3	8.64255E-3
-3.89945E-3	-174.306E-12	701.591E-3	-9.24008E-3	-173.672E-12	675.484E-3	9.47908E-3
-3.90445E-3	-173.319E-12	699.772E-3	9.58405E-3	-172.451E-12	656.772E-3	5.83441E-3
-3.90945E-3	-171.846E-12	676.112E-3	37.9442E-3	-171.590E-12	639.979E-3	7.67508E-3
-3.91446E-3	-171.035E-12	669.890E-3	36.9746E-3	-170.601E-12	649.613E-3	-3.67235E-3
-3.91946E-3	-169.622E-12	666.383E-3	7.40281E-3	-169.219E-12	657.453E-3	-9.78469E-3
-3.92446E-3	-168.094E-12	658.449E-3	-12.5606E-3	-168.454E-12	647.374E-3	5.87295E-3
-3.92946E-3	-166.138E-12	652.775E-3	-23.8166E-3	-167.314E-12	649.236E-3	-13.7849E-3
-3.93447E-3	-165.561E-12	640.010E-3	-37.2086E-3	-166.450E-12	663.754E-3	-52.4196E-3
-3.93947E-3	-164.969E-12	627.985E-3	-39.9131E-3	-165.313E-12	666.885E-3	-64.0866E-3
-3.94447E-3	-165.040E-12	633.672E-3	-16.2325E-3	-165.710E-12	659.181E-3	-57.8085E-3
-3.94947E-3	-165.549E-12	654.552E-3	-4.70553E-3	-166.188E-12	648.642E-3	-46.6968E-3
-3.95448E-3	-165.597E-12	663.185E-3	-5.70394E-3	-167.191E-12	651.076E-3	-36.7522E-3
-3.95948E-3	-166.890E-12	651.360E-3	7.75292E-3	-168.263E-12	656.045E-3	-17.9670E-3
-3.96448E-3	-168.010E-12	647.527E-3	20.6072E-3	-169.089E-12	651.842E-3	-11.4456E-3
-3.96948E-3	-169.165E-12	658.218E-3	29.9040E-3	-170.885E-12	650.922E-3	-15.7866E-3
-3.97449E-3	-170.684E-12	659.156E-3	28.8517E-3	-171.502E-12	656.217E-3	-13.6573E-3
-3.97949E-3	-171.728E-12	653.404E-3	24.7634E-3	-172.065E-12	660.995E-3	720.520E-6
-3.98449E-3	-173.548E-12	648.755E-3	24.8369E-3	-173.416E-12	644.317E-3	9.60294E-3
-3.98949E-3	-174.068E-12	639.687E-3	10.1278E-3	-174.329E-12	633.904E-3	-2.80001E-3
-3.99450E-3	-174.554E-12	640.862E-3	-19.7006E-3	-174.732E-12	657.434E-3	-4.53071E-3
-3.99950E-3	-174.453E-12	650.349E-3	-36.0933E-3	-174.670E-12	672.271E-3	2.13452E-3
-4.00450E-3	-174.852E-12	654.224E-3	-14.2944E-3	-174.167E-12	674.396E-3	-8.77543E-3
-4.00950E-3	-173.675E-12	664.166E-3	3.56081E-3	-174.221E-12	682.402E-3	-24.5116E-3
-4.01451E-3	-172.910E-12	666.817E-3	-8.28130E-3	-173.837E-12	679.480E-3	-19.2960E-3
-4.01951E-3	-172.270E-12	655.075E-3	-28.9269E-3	-173.544E-12	650.925E-3	-2.29924E-3
-4.02451E-3	-171.268E-12	644.663E-3	-51.8016E-3	-171.254E-12	631.710E-3	494.996E-6
-4.02951E-3	-170.207E-12	638.994E-3	-51.4072E-3	-171.621E-12	655.516E-3	-11.3426E-3
-4.03452E-3	-170.140E-12	641.291E-3	-24.5432E-3	-169.850E-12	674.900E-3	-27.8108E-3
-4.03952E-3	-170.110E-12	651.046E-3	-6.98716E-3	-169.396E-12	669.529E-3	-24.9220E-3
-4.04452E-3	-170.447E-12	664.896E-3	-22.9351E-3	-168.645E-12	665.901E-3	-8.74867E-3
-4.04952E-3	-171.008E-12	666.316E-3	-30.6445E-3	-168.542E-12	663.284E-3	-6.28089E-3
-4.05453E-3	-171.891E-12	649.632E-3	-1.52492E-3	-169.670E-12	654.286E-3	-17.8274E-3
-4.05953E-3	-172.064E-12	624.916E-3	4.48082E-3	-170.332E-12	636.654E-3	-26.0472E-3
-4.06453E-3	-172.629E-12	607.898E-3	-15.4831E-3	-171.131E-12	634.160E-3	-8.19398E-3
-4.06953E-3	-174.086E-12	607.404E-3	-32.8243E-3	-172.535E-12	662.817E-3	-15.7328E-3
-4.07454E-3	-175.957E-12	602.680E-3	-39.0120E-3	-175.074E-12	665.293E-3	-59.9066E-3
-4.07954E-3	-176.567E-12	590.485E-3	-24.9453E-3	-176.935E-12	648.920E-3	-68.6401E-3
-4.08454E-3	-177.061E-12	604.740E-3	-11.7408E-3	-178.871E-12	657.127E-3	-53.9564E-3
-4.08954E-3	-178.855E-12	629.976E-3	-9.25289E-3	-180.809E-12	665.696E-3	-40.4256E-3
-4.09455E-3	-179.164E-12	632.560E-3	-2.70033E-3	-182.059E-12	677.011E-3	-29.3153E-3
-4.09955E-3	-180.589E-12	637.514E-3	1.40918E-3	-184.508E-12	702.424E-3	-43.2332E-3
-4.10455E-3	-180.655E-12	665.184E-3	-3.67885E-3	-184.398E-12	719.158E-3	-51.7097E-3
-4.10955E-3	-181.593E-12	696.091E-3	-11.9600E-3	-185.085E-12	707.680E-3	-49.8460E-3
-4.11456E-3	-181.793E-12	714.849E-3	-5.59155E-3	-183.661E-12	684.846E-3	-50.1350E-3
-4.11956E-3	-181.067E-12	714.179E-3	5.99449E-3	-182.961E-12	668.032E-3	-26.2142E-3
-4.12456E-3	-180.702E-12	687.131E-3	-6.37210E-3	-181.080E-12	667.223E-3	4.50203E-3
-4.12956E-3	-180.090E-12	661.467E-3	-14.1570E-3	-179.722E-12	656.999E-3	6.76541E-3
-4.13457E-3	-179.471E-12	649.194E-3	-652.143E-6	-177.364E-12	637.918E-3	-32.5261E-3
-4.13957E-3	-177.559E-12	646.668E-3	-1.96644E-3	-175.939E-12	639.696E-3	-59.1927E-3
-4.14457E-3	-177.585E-12	645.140E-3	-17.5351E-3	-175.598E-12	645.930E-3	-41.8627E-3
-4.14957E-3	-176.754E-12	617.382E-3	-30.7947E-3	-174.867E-12	657.058E-3	-30.8567E-3
-4.15458E-3	-176.043E-12	616.153E-3	-45.2149E-3	-174.435E-12	650.884E-3	-23.1081E-3
-4.15958E-3	-176.102E-12	648.057E-3	-39.5970E-3	-174.591E-12	639.300E-3	-8.15826E-3
-4.16458E-3	-177.429E-12	659.937E-3	-18.4793E-3	-175.081E-12	662.222E-3	-11.2412E-3
-4.16958E-3	-177.455E-12	677.748E-3	-25.1572E-3	-177.260E-12	681.908E-3	-16.4939E-3
-4.17459E-3	-177.707E-12	685.683E-3	-36.2887E-3	-179.259E-12	678.615E-3	-12.7811E-3
-4.17959E-3	-179.316E-12	647.457E-3	-22.3252E-3	-180.979E-12	665.756E-3	-13.3372E-3
-4.18459E-3	-180.171E-12	610.707E-3	-29.0890E-3	-183.965E-12	658.422E-3	-24.4531E-3
-4.18959E-3	-181.650E-12	616.368E-3	-43.8880E-3	-187.447E-12	669.061E-3	-27.8971E-3
-4.19460E-3	-183.151E-12	629.820E-3	-36.5721E-3	-187.922E-12	684.650E-3	-20.8317E-3
-4.19960E-3	-184.586E-12	638.711E-3	-16.1284E-3	-189.721E-12	687.543E-3	-4.77660E-3
-4.20460E-3	-187.797E-12	661.618E-3	3.79273E-3	-191.081E-12	679.828E-3	4.41076E-3
-4.20960E-3	-187.728E-12	665.629E-3	-11.2553E-3	-190.406E-12	673.524E-3	-1.82450E-3
-4.21461E-3	-187.749E-12	662.426E-3	-41.0293E-3	-188.631E-12	656.911E-3	12.1772E-3
-4.21961E-3	-187.261E-12	681.341E-3	-48.8893E-3	-186.880E-12	628.663E-3	31.6970E-3
-4.22461E-3	-187.557E-12	680.362E-3	-41.0456E-3	-185.195E-12	612.112E-3	16.5667E-3
-4.22961E-3	-186.540E-12	671.787E-3	-23.1236E-3	-182.662E-12	627.242E-3	-9.89563E-3
-4.23462E-3	-186.017E-12	687.817E-3	-14.8577E-3	-180.256E-12	653.825E-3	-19.2482E-3
-4.23962E-3	-183.997E-12	676.310E-3	-34.4525E-3	-178.448E-12	644.250E-3	-16.4990E-3
-4.24462E-3	-182.886E-12	629.509E-3	-48.3938E-3	-176.437E-12	601.878E-3	-11.6920E-3
-4.24962E-3	-181.746E-12	608.227E-3	-39.0380E-3	-176.069E-12	573.497E-3	-10.7718E-3
-4.25463E-3	-180.348E-12	620.499E-3	-23.5245E-3	-175.172E-12	580.593E-3	-2.03812E-3
-4.25963E-3	-178.478E-12	636.653E-3	-27.4935E-3	-174.995E-12	616.843E-3	-9.16857E-3
-4.26463E-3	-177.375E-12	638.180E-3	-45.4490E-3	-175.783E-12	651.282E-3	-46.1250E-3
-4.26963E-3	-177.941E-12	638.178E-3	-50.9825E-3	-177.151E-12	647.935E-3	-60.8571E-3
-4.27464E-3	-178.363E-12	645.502E-3	-51.4201E-3	-178.432E-12	629.680E-3	-19.6661E-3
-4.27964E-3	-179.797E-12	634.804E-3	-44.9972E-3	-181.183E-12	628.608E-3	21.2152E-3
-4.28464E-3	-180.595E-12	619.336E-3	-37.7688E-3	-183.298E-12	648.831E-3	5.78917E-3
-4.28964E-3	-182.757E-12	644.204E-3	-43.5134E-3	-186.603E-12	673.168E-3	-21.3486E-3
-4.29465E-3	-186.080E-12	679.348E-3	-40.3575E-3	-188.347E-12	669.487E-3	-25.7857E-3
-4.29965E-3	-188.220E-12	678.005E-3	-16.4387E-3	-190.467E-12	666.317E-3	-9.47285E-3
-4.30465E-3	-188.996E-12	665.689E-3	-18.6956E-3	-191.054E-12	688.893E-3	9.94652E-3
-4.30965E-3	-190.441E-12	665.525E-3	-38.2097E-3	-191.488E-12	703.943E-3	3.76221E-3
-4.31466E-3	-191.893E-12	663.436E-3	-18.3068E-3	-191.557E-12	693.896E-3	-29.0990E-3
-4.31966E-3	-191.895E-12	653.838E-3	10.0331E-3	-190.411E-12	662.989E-3	-61.3863E-3
-4.32466E-3	-191.825E-12	653.449E-3	3.52675E-3	-189.546E-12	647.480E-3	-53.2484E-3
-4.32966E-3	-190.828E-12	662.308E-3	-22.4038E-3	-188.437E-12	671.672E-3	-17.9651E-3
-4.33467E-3	-190.283E-12	671.843E-3	-33.5343E-3	-186.677E-12	679.381E-3	-10.5998E-3
-4.33967E-3	-189.188E-12	677.585E-3	-28.8348E-3	-184.143E-12	653.068E-3	-40.7283E-3
-4.34467E-3	-187.606E-12	661.209E-3	-18.0935E-3	-182.269E-12	660.001E-3	-55.4873E-3
-4.34967E-3	-185.618E-12	639.898E-3	-23.9842E-3	-181.518E-12	671.647E-3	-25.7931E-3
-4.35468E-3	-185.102E-12	639.705E-3	-51.7234E-3	-180.994E-12	650.470E-3	2.52352E-3
-4.35968E-3	-183.484E-12	644.424E-3	-57.2605E-3	-179.297E-12	628.412E-3	7.89215E-3
-4.36468E-3	-183.576E-12	641.608E-3	-38.9165E-3	-179.686E-12	624.176E-3	11.0756E-3
-4.36968E-3	-183.433E-12	641.944E-3	-16.9794E-3	-180.903E-12	630.965E-3	17.4712E-3
-4.37469E-3	-184.367E-12	644.874E-3	-5.54735E-3	-182.410E-12	655.746E-3	19.0031E-3
-4.37969E-3	-185.654E-12	644.309E-3	5.59930E-3	-183.741E-12	687.960E-3	-1.89754E-3
-4.38469E-3	-187.591E-12	631.111E-3	12.0883E-3	-186.556E-12	688.210E-3	-24.4275E-3
-4.38969E-3	-189.528E-12	620.544E-3	-17.5546E-3	-188.896E-12	676.776E-3	-20.2976E-3
-4.39470E-3	-191.602E-12	637.000E-3	-44.1759E-3	-191.155E-12	687.578E-3	-11.5371E-3
-4.39970E-3	-193.667E-12	661.774E-3	-28.9531E-3	-194.638E-12	696.642E-3	-6.59930E-3
-4.40470E-3	-195.258E-12	670.520E-3	-9.99112E-3	-195.512E-12	670.527E-3	-2.09226E-3
-4.40970E-3	-196.748E-12	673.640E-3	-4.09497E-3	-197.442E-12	631.848E-3	-9.52924E-3
-4.41471E-3	-197.082E-12	682.138E-3	-7.25923E-3	-198.687E-12	640.107E-3	-25.3944E-3
-4.41971E-3	-198.545E-12	701.987E-3	-11.4479E-3	-200.164E-12	683.568E-3	-19.5376E-3
-4.42471E-3	-199.220E-12	720.776E-3	-12.1174E-3	-198.801E-12	706.123E-3	-6.84747E-3
-4.42971E-3	-198.182E-12	719.794E-3	-36.5949E-3	-197.561E-12	689.677E-3	-9.22109E-3
-4.43472E-3	-196.918E-12	726.341E-3	-49.8398E-3	-196.219E-12	659.459E-3	-5.47274E-3
-4.43972E-3	-196.541E-12	735.976E-3	-26.8077E-3	-195.272E-12	654.666E-3	-15.9338E-3
-4.44472E-3	-194.749E-12	717.583E-3	-11.6950E-3	-193.438E-12	661.932E-3	-27.3572E-3
-4.44972E-3	-191.637E-12	696.717E-3	-14.8392E-3	-192.028E-12	668.482E-3	-24.9476E-3
-4.45473E-3	-190.175E-12	681.413E-3	-9.49014E-3	-190.642E-12	676.199E-3	-28.0498E-3
-4.45973E-3	-189.847E-12	662.792E-3	1.48649E-3	-189.544E-12	656.765E-3	-40.4709E-3
-4.46473E-3	-188.885E-12	671.007E-3	3.74038E-3	-188.948E-12	624.896E-3	-43.2751E-3
-4.46973E-3	-189.144E-12	696.562E-3	1.59674E-3	-188.426E-12	612.771E-3	-23.6440E-3
-4.47474E-3	-189.625E-12	711.871E-3	-17.8775E-3	-189.284E-12	632.457E-3	-24.9379E-3
-4.47974E-3	-189.534E-12	713.622E-3	-43.5753E-3	-189.173E-12	668.225E-3	-44.5136E-3
-4.48474E-3	-189.805E-12	694.499E-3	-39.6134E-3	-190.907E-12	672.043E-3	-50.0657E-3
-4.48974E-3	-191.571E-12	660.439E-3	-6.51562E-3	-192.579E-12	654.556E-3	-28.4225E-3
-4.49475E-3	-192.387E-12	634.779E-3	11.6998E-3	-193.865E-12	645.343E-3	-1.48581E-3
-4.49975E-3	-193.812E-12	634.814E-3	3.65372E-3	-194.588E-12	658.408E-3	-2.59805E-3
-4.50475E-3	-194.571E-12	654.240E-3	11.3013E-3	-197.145E-12	685.415E-3	-8.38371E-3
-4.50975E-3	-197.192E-12	677.481E-3	11.8447E-3	-198.821E-12	699.873E-3	-16.6728E-3
-4.51476E-3	-197.399E-12	680.293E-3	30.8750E-6	-199.745E-12	704.098E-3	-21.5988E-3
-4.51976E-3	-197.711E-12	683.637E-3	3.87544E-3	-200.461E-12	689.034E-3	-8.29489E-3
-4.52476E-3	-198.410E-12	709.303E-3	489.806E-6	-200.991E-12	669.326E-3	9.72574E-3
-4.52976E-3	-198.312E-12	701.573E-3	-11.5014E-3	-201.095E-12	663.817E-3	29.7480E-3
-4.53477E-3	-197.738E-12	659.692E-3	-18.0985E-3	-199.529E-12	669.650E-3	29.3134E-3
-4.53977E-3	-197.177E-12	647.996E-3	-19.1641E-3	-199.546E-12	689.166E-3	-4.29063E-3
-4.54477E-3	-197.137E-12	659.632E-3	-27.3782E-3	-197.700E-12	688.388E-3	-42.5831E-3
-4.54977E-3	-196.168E-12	657.043E-3	-37.7553E-3	-196.398E-12	655.500E-3	-68.6646E-3
-4.55478E-3	-194.819E-12	654.886E-3	-27.1307E-3	-194.291E-12	628.312E-3	-72.0074E-3
-4.55978E-3	-194.266E-12	668.630E-3	-14.7285E-3	-192.709E-12	625.953E-3	-57.4807E-3
-4.56478E-3	-193.717E-12	684.897E-3	-8.76506E-3	-191.989E-12	637.305E-3	-38.6349E-3
-4.56978E-3	-192.814E-12	690.062E-3	-2.77420E-3	-189.948E-12	627.804E-3	-10.9627E-3
-4.57479E-3	-192.007E-12	673.506E-3	1.26202E-3	-188.634E-12	605.731E-3	5.29258E-3
-4.57979E-3	-192.476E-12	659.245E-3	3.84835E-3	-188.726E-12	599.875E-3	1.46961E-3
-4.58479E-3	-193.226E-12	664.047E-3	-9.91675E-3	-189.788E-12	609.204E-3	-7.39832E-3
-4.58979E-3	-193.486E-12	669.004E-3	-26.3067E-3	-189.659E-12	613.842E-3	-6.51352E-3
-4.59480E-3	-194.529E-12	670.527E-3	-24.0669E-3	-190.260E-12	617.440E-3	-13.0497E-3
-4.59980E-3	-194.946E-12	655.688E-3	-18.1121E-3	-193.873E-12	647.094E-3	-29.0339E-3
-4.60480E-3	-197.181E-12	644.594E-3	-23.9249E-3	-195.942E-12	689.505E-3	-23.7416E-3
-4.60980E-3	-198.235E-12	648.429E-3	-23.1484E-3	-198.684E-12	705.861E-3	-12.2992E-3
-4.61481E-3	-199.341E-12	643.925E-3	3.23107E-3	-201.078E-12	701.193E-3	-12.7393E-3
-4.61981E-3	-201.055E-12	651.455E-3	9.48124E-3	-203.710E-12	704.568E-3	-24.8413E-3
-4.62481E-3	-203.121E-12	666.929E-3	-15.2978E-3	-206.229E-12	718.374E-3	-35.2993E-3
-4.62981E-3	-203.893E-12	683.405E-3	-24.5086E-3	-207.214E-12	723.463E-3	-24.6214E-3
-4.63482E-3	-205.344E-12	701.164E-3	-19.5624E-3	-207.483E-12	730.751E-3	-8.58560E-3
-4.63982E-3	-206.027E-12	696.675E-3	-7.61288E-3	-207.223E-12	713.445E-3	-14.0638E-3
-4.64482E-3	-207.225E-12	678.004E-3	-7.27447E-3	-207.817E-12	650.130E-3	-22.9158E-3
-4.64982E-3	-207.760E-12	667.807E-3	-34.4967E-3	-206.036E-12	643.457E-3	-7.42215E-3
-4.65483E-3	-207.398E-12	685.537E-3	-47.1537E-3	-204.860E-12	696.582E-3	2.18352E-3
-4.65983E-3	-206.597E-12	691.349E-3	-28.4839E-3	-201.975E-12	714.814E-3	-11.2205E-3
-4.66483E-3	-204.747E-12	680.905E-3	-12.9701E-3	-199.690E-12	683.302E-3	-7.73864E-3
-4.66983E-3	-204.677E-12	683.812E-3	-9.48216E-3	-198.342E-12	643.932E-3	8.80204E-3
-4.67484E-3	-203.039E-12	675.202E-3	-10.3717E-3	-196.830E-12	633.267E-3	-1.86835E-3
-4.67984E-3	-201.107E-12	662.168E-3	-9.78391E-3	-195.835E-12	639.758E-3	-25.0452E-3
-4.68484E-3	-200.380E-12	662.017E-3	7.24112E-3	-195.884E-12	649.197E-3	-19.0456E-3
-4.68984E-3	-200.430E-12	653.398E-3	20.2833E-3	-196.448E-12	650.274E-3	2.45784E-3
-4.69485E-3	-199.107E-12	639.718E-3	20.6699E-3	-198.314E-12	633.600E-3	-13.6328E-3
-4.69985E-3	-199.704E-12	643.802E-3	34.9749E-3	-200.292E-12	640.008E-3	-36.6408E-3
-4.70485E-3	-201.338E-12	659.119E-3	25.9426E-3	-202.787E-12	669.707E-3	-34.6604E-3
-4.70985E-3	-202.104E-12	662.772E-3	-25.6159E-3	-205.476E-12	694.746E-3	-37.6890E-3
-4.71486E-3	-204.167E-12	649.533E-3	-50.1550E-3	-209.214E-12	719.546E-3	-40.8852E-3
-4.71986E-3	-205.589E-12	639.743E-3	-32.9982E-3	-211.927E-12	710.843E-3	-24.0121E-3
-4.72486E-3	-207.797E-12	645.523E-3	-19.5289E-3	-213.890E-12	678.316E-3	-10.9408E-3
-4.72986E-3	-209.192E-12	660.736E-3	-25.9559E-3	-215.718E-12	668.389E-3	-30.2020E-3
-4.73487E-3	-210.371E-12	677.947E-3	-47.9784E-3	-215.520E-12	659.432E-3	-40.8932E-3
-4.73987E-3	-211.194E-12	680.122E-3	-48.2940E-3	-216.216E-12	651.662E-3	-22.4037E-3
-4.74487E-3	-212.977E-12	672.819E-3	-21.5723E-3	-215.397E-12	660.834E-3	-1.28707E-3
-4.74988E-3	-212.321E-12	683.995E-3	2.07028E-3	-212.914E-12	676.316E-3	6.42587E-3
-4.75488E-3	-211.113E-12	686.446E-3	14.7437E-3	-211.126E-12	678.014E-3	-7.94533E-3
-4.75988E-3	-210.621E-12	674.104E-3	20.0496E-3	-208.779E-12	661.772E-3	-34.9473E-3
-4.76488E-3	-209.262E-12	676.339E-3	21.3592E-3	-206.013E-12	655.685E-3	-49.8243E-3
-4.76988E-3	-206.827E-12	671.711E-3	26.0829E-3	-203.939E-12	635.888E-3	-45.8898E-3
-4.77489E-3	-204.365E-12	652.521E-3	27.1325E-3	-201.953E-12	604.556E-3	-29.2703E-3
-4.77989E-3	-202.065E-12	630.345E-3	9.43600E-3	-199.905E-12	613.293E-3	-5.55229E-3
-4.78489E-3	-200.502E-12	612.188E-3	-12.0514E-3	-200.893E-12	645.872E-3	-4.44464E-3
-4.78989E-3	-199.416E-12	618.456E-3	-26.0883E-3	-200.224E-12	662.636E-3	-16.6112E-3
-4.79490E-3	-199.151E-12	629.062E-3	-30.9657E-3	-200.875E-12	664.461E-3	-15.6413E-3
-4.79990E-3	-199.699E-12	647.905E-3	-44.1852E-3	-201.732E-12	678.078E-3	-11.7895E-3
-4.80490E-3	-200.117E-12	676.905E-3	-43.4706E-3	-203.562E-12	695.787E-3	-14.6096E-3
-4.80990E-3	-202.184E-12	662.464E-3	-4.56624E-3	-205.477E-12	708.763E-3	-14.8696E-3
-4.81491E-3	-204.370E-12	636.930E-3	7.41322E-3	-207.105E-12	716.188E-3	-12.7591E-3
-4.81991E-3	-206.281E-12	639.228E-3	-19.5240E-3	-209.423E-12	696.328E-3	-19.8322E-3
-4.82491E-3	-208.237E-12	635.236E-3	-31.2617E-3	-211.000E-12	678.079E-3	-16.5785E-3
-4.82991E-3	-210.478E-12	632.566E-3	-15.8999E-3	-212.634E-12	672.709E-3	-5.80418E-3
-4.83492E-3	-212.764E-12	657.619E-3	15.8377E-3	-213.288E-12	646.459E-3	-6.28915E-3
-4.83992E-3	-214.082E-12	676.709E-3	20.0547E-3	-213.124E-12	621.959E-3	1.34927E-3
-4.84492E-3	-215.005E-12	654.502E-3	-14.4056E-3	-211.864E-12	619.406E-3	10.2388E-3
-4.84992E-3	-214.711E-12	641.717E-3	-44.1787E-3	-211.146E-12	616.402E-3	-4.90179E-3
-4.85493E-3	-214.688E-12	665.938E-3	-34.4344E-3	-210.223E-12	623.459E-3	-24.3653E-3
-4.85993E-3	-214.366E-12	700.474E-3	11.8055E-3	-208.616E-12	649.152E-3	-36.4676E-3
-4.86493E-3	-212.301E-12	712.326E-3	23.8514E-3	-207.235E-12	653.277E-3	-35.2431E-3
-4.86993E-3	-210.384E-12	696.120E-3	587.576E-6	-206.700E-12	638.587E-3	-27.5236E-3
-4.87494E-3	-209.208E-12	703.289E-3	-29.5362E-3	-206.054E-12	626.220E-3	-14.3282E-3
-4.87994E-3	-207.072E-12	707.291E-3	-48.5302E-3	-206.038E-12	622.896E-3	-290.876E-6
-4.88494E-3	-205.197E-12	671.957E-3	-36.6080E-3	-205.160E-12	633.439E-3	-21.7358E-3
-4.88995E-3	-203.994E-12	625.416E-3	-30.4080E-3	-206.108E-12	637.277E-3	-48.7851E-3
-4.89495E-3	-203.817E-12	603.320E-3	-49.0132E-3	-205.211E-12	634.993E-3	-34.2874E-3
-4.89995E-3	-204.451E-12	610.321E-3	-70.3164E-3	-206.317E-12	634.504E-3	-16.0038E-3
-4.90495E-3	-205.323E-12	616.775E-3	-62.2820E-3	-207.701E-12	637.462E-3	-16.6730E-3
-4.90995E-3	-207.217E-12	620.856E-3	-33.2928E-3	-209.175E-12	654.859E-3	-14.8126E-3
-4.91496E-3	-209.228E-12	632.371E-3	-12.0823E-3	-210.456E-12	682.506E-3	6.56892E-3
-4.91996E-3	-212.072E-12	639.812E-3	-9.40971E-3	-212.397E-12	699.657E-3	25.3891E-3
-4.92496E-3	-214.025E-12	636.016E-3	-7.74252E-3	-214.708E-12	683.955E-3	11.7160E-3
-4.92996E-3	-217.439E-12	642.548E-3	4.97947E-3	-216.512E-12	651.882E-3	-3.43615E-3
-4.93497E-3	-218.707E-12	658.464E-3	-7.93635E-3	-217.401E-12	645.344E-3	-15.8971E-3
-4.93997E-3	-221.528E-12	666.975E-3	-21.8353E-3	-219.174E-12	661.626E-3	-43.8112E-3
-4.94497E-3	-221.907E-12	684.721E-3	4.20734E-3	-219.479E-12	668.496E-3	-54.8485E-3
-4.94997E-3	-222.810E-12	688.256E-3	3.56033E-3	-220.367E-12	675.776E-3	-47.5568E-3
-4.95498E-3	-221.873E-12	669.491E-3	-32.6157E-3	-219.661E-12	685.920E-3	-38.0775E-3
-4.95998E-3	-220.660E-12	677.451E-3	-33.3818E-3	-218.850E-12	676.168E-3	-33.0355E-3
-4.96498E-3	-219.963E-12	682.677E-3	-6.27433E-3	-218.827E-12	665.691E-3	-27.2283E-3
-4.96998E-3	-218.751E-12	659.171E-3	1.22017E-3	-218.659E-12	667.017E-3	-6.00528E-3
-4.97499E-3	-216.360E-12	648.127E-3	-10.8637E-3	-217.715E-12	658.162E-3	12.5297E-3
-4.97999E-3	-214.707E-12	650.840E-3	-4.14198E-3	-216.950E-12	660.850E-3	24.6855E-3
-4.98499E-3	-214.013E-12	644.720E-3	-7.28440E-3	-216.228E-12	670.150E-3	33.2534E-3
-4.98999E-3	-213.225E-12	614.287E-3	-45.9700E-3	-214.895E-12	641.660E-3	20.1032E-3
-4.99500E-3	-212.311E-12	617.486E-3	-61.8588E-3	-213.772E-12	626.772E-3	-6.33697E-3
-5.00000E-3	-213.019E-12	659.821E-3	-48.3608E-3	-213.493E-12	655.947E-3	-29.8974E-3
