Experiment	bias spectroscopy	
Date	19.01.2016 19:26:14	
User		
X (m)	49.6812E-9	
Y (m)	256.207E-9	
Z (m)	-132.594E-9	
Z offset (m)	0E+0	
Settling time (s)	200E-6	
Integration time (s)	5E-3	
Z-Ctrl hold	TRUE	
Final Z (m)	N/A	
Filter type	None	
Order		
Cutoff frq		
Comment01	MnPc/Pb(111)	
Comment02	dz =00pm	
Comment03	7 Sweeps	
Comment04	MagField =0.T	
Comment05	Divider 1:10	
Comment06	Setpoint:5mV,200 pA	
Comment07	Lockin: 50uVrms,5ms,5mV	
Comment08	Gain:9; 912Hz modulation	
Comment09	T=1.06K	
Bias>Bias (V)	5E-3	
Bias>Calibration (V/V)	81.475E-3	
Bias>Offset (V)	1.046E-3	
Bias Spectroscopy>Sweep Start (V)	5E-3	
Bias Spectroscopy>Sweep End (V)	-5E-3	
Bias Spectroscopy>Num Pixel	2000	
Bias Spectroscopy>Z Avg time (s)	500E-3	
Bias Spectroscopy>Z offset (m)	0E+0	
Bias Spectroscopy>1st Settling time (s)	500E-3	
Bias Spectroscopy>Settling time (s)	200E-6	
Bias Spectroscopy>Integration time (s)	5E-3	
Bias Spectroscopy>End Settling time (s)	500E-3	
Bias Spectroscopy>Z control time (s)	500E-3	
Bias Spectroscopy>Max Slew rate (V/s)	Inf	
Bias Spectroscopy>backward sweep	TRUE	
Bias Spectroscopy>Z-controller hold	TRUE	
Bias Spectroscopy>Number of sweeps	7	
Bias Spectroscopy>Channels	Current (A);X% LockIn (V);Y% LockIn (V)	
Bias Spectroscopy>Reset Bias	TRUE	
Bias Spectroscopy>Record final Z	FALSE	
Bias Spectroscopy>Lock-In run	FALSE	
Bias Spectroscopy>Sweep mode	Linear	
Bias Spectroscopy>MultiLine Settings : Segment Start (V), Segment End (V), Settling (s), Integration (s), Steps (xn)	100E-3,3.3E-3,100E-6,10E-3,2500;3.3E-3,-3.3E-3,100E-6,10E-3,10;-3.3E-3,-100E-3,100E-6,10E-3,2500	
Current>Current (A)	200.069E-12	
Current>Calibration (A/V)	999.99900E-12	
Current>Offset (A)	-455.429E-15	
Current>Gain	LN 10^9	
Z-Controller>Z (m)	-132.592E-9	
Z-Controller>Controller name	log Current	
Z-Controller>Controller status	ON	
Z-Controller>Setpoint	200E-12	
Z-Controller>Setpoint unit	A	
Z-Controller>P gain	2.96994E-12	
Z-Controller>I gain	67.0321E-9	
Z-Controller>Time const (s)	44.3062E-6	
Z-Controller>TipLift (m)	0E+0	
Z-Controller>Switch off delay (s)	50E-3	
Current (A)	199.825E-12	
Z (m)	-132.592E-9	

[DATA]
Bias calc (V)	Current (A)	X% LockIn (V)	Y% LockIn (V)	Current [bwd] (A)	X% LockIn [bwd] (V)	Y% LockIn [bwd] (V)
5.00000E-3	204.534E-12	641.611E-3	-1.47642E-3	198.792E-12	619.235E-3	-2.27259E-3
4.99500E-3	203.531E-12	657.525E-3	4.24237E-3	198.230E-12	623.105E-3	-4.89397E-3
4.98999E-3	202.201E-12	674.564E-3	1.08230E-3	197.908E-12	609.266E-3	-37.8557E-3
4.98499E-3	200.473E-12	687.084E-3	-4.44507E-3	197.687E-12	615.466E-3	-66.5887E-3
4.97999E-3	199.545E-12	686.281E-3	-1.89351E-3	197.771E-12	644.893E-3	-52.3490E-3
4.97499E-3	198.770E-12	683.436E-3	-8.26371E-3	197.186E-12	642.044E-3	-36.9364E-3
4.96998E-3	198.075E-12	687.441E-3	-28.3398E-3	196.832E-12	633.918E-3	-11.8451E-3
4.96498E-3	196.701E-12	675.444E-3	-27.4659E-3	198.175E-12	635.331E-3	13.2665E-3
4.95998E-3	196.498E-12	655.232E-3	-25.3624E-3	198.338E-12	614.097E-3	13.3481E-3
4.95498E-3	196.611E-12	646.304E-3	-37.3021E-3	198.258E-12	581.069E-3	8.31150E-3
4.94997E-3	195.321E-12	641.652E-3	-30.5023E-3	197.724E-12	579.372E-3	-4.21497E-3
4.94497E-3	195.919E-12	615.724E-3	-9.98919E-3	198.289E-12	601.451E-3	-17.6627E-3
4.93997E-3	196.063E-12	620.157E-3	9.27778E-3	197.836E-12	611.511E-3	-15.2227E-3
4.93497E-3	196.360E-12	641.916E-3	22.7357E-3	197.295E-12	608.708E-3	-1.06918E-3
4.92996E-3	196.212E-12	627.165E-3	26.9536E-3	197.275E-12	598.696E-3	2.20694E-3
4.92496E-3	197.912E-12	608.326E-3	20.9862E-3	196.819E-12	595.968E-3	-1.62668E-3
4.91996E-3	198.394E-12	616.952E-3	21.4373E-3	195.810E-12	598.757E-3	3.57110E-3
4.91496E-3	198.104E-12	626.974E-3	28.3078E-3	195.223E-12	592.211E-3	-4.25915E-3
4.90995E-3	199.046E-12	626.474E-3	17.6171E-3	194.354E-12	595.874E-3	-20.3608E-3
4.90495E-3	199.323E-12	642.481E-3	-18.6100E-3	193.104E-12	611.284E-3	-27.1762E-3
4.89995E-3	199.416E-12	649.789E-3	-57.1468E-3	192.720E-12	603.221E-3	-24.0604E-3
4.89495E-3	198.932E-12	639.115E-3	-71.2261E-3	192.733E-12	578.194E-3	-9.37878E-3
4.88995E-3	198.582E-12	632.099E-3	-54.4642E-3	191.794E-12	567.599E-3	-3.77576E-3
4.88494E-3	197.110E-12	624.219E-3	-37.7561E-3	191.232E-12	576.492E-3	-24.3399E-3
4.87994E-3	196.042E-12	623.498E-3	-39.9605E-3	190.638E-12	576.391E-3	-32.5250E-3
4.87494E-3	195.480E-12	631.734E-3	-32.4764E-3	191.110E-12	580.475E-3	-17.9864E-3
4.86993E-3	193.519E-12	631.705E-3	-20.6204E-3	190.812E-12	600.063E-3	-21.8357E-3
4.86493E-3	192.019E-12	631.365E-3	-24.8504E-3	191.374E-12	626.666E-3	-32.3588E-3
4.85993E-3	190.516E-12	625.047E-3	-39.8238E-3	191.124E-12	648.660E-3	-32.5247E-3
4.85493E-3	189.244E-12	596.978E-3	-47.4454E-3	191.790E-12	640.417E-3	-25.9943E-3
4.84992E-3	187.756E-12	568.415E-3	-25.9291E-3	192.063E-12	620.852E-3	10.3057E-3
4.84492E-3	187.216E-12	571.203E-3	4.49256E-3	191.750E-12	621.954E-3	39.9270E-3
4.83992E-3	186.824E-12	590.186E-3	-420.567E-6	192.372E-12	636.592E-3	9.47111E-3
4.83492E-3	187.852E-12	603.397E-3	-27.4038E-3	193.355E-12	642.358E-3	-13.4365E-3
4.82991E-3	188.706E-12	616.767E-3	-13.5427E-3	192.583E-12	646.170E-3	-7.59720E-3
4.82491E-3	189.583E-12	609.072E-3	26.8214E-3	192.570E-12	654.254E-3	-23.0215E-3
4.81991E-3	191.169E-12	606.494E-3	11.9824E-3	193.054E-12	650.828E-3	-21.8558E-3
4.81491E-3	192.090E-12	634.348E-3	-24.1558E-3	191.958E-12	630.542E-3	-5.25924E-3
4.80990E-3	193.425E-12	658.428E-3	-27.3123E-3	191.153E-12	602.118E-3	-7.19290E-3
4.80490E-3	194.681E-12	662.286E-3	-30.2885E-3	190.921E-12	579.118E-3	-7.79701E-3
4.79990E-3	195.635E-12	662.003E-3	-34.9181E-3	191.068E-12	588.690E-3	7.32122E-3
4.79490E-3	195.629E-12	652.833E-3	-26.4296E-3	190.617E-12	617.881E-3	5.98936E-3
4.78989E-3	196.337E-12	637.430E-3	-17.7406E-3	189.860E-12	628.618E-3	-31.6271E-3
4.78489E-3	195.197E-12	646.342E-3	-13.2645E-3	189.800E-12	621.790E-3	-40.8962E-3
4.77989E-3	193.549E-12	670.234E-3	-2.20061E-3	189.222E-12	618.159E-3	-19.3890E-3
4.77489E-3	191.823E-12	662.079E-3	-7.58450E-3	189.075E-12	624.597E-3	-18.7093E-3
4.76988E-3	189.672E-12	629.843E-3	-19.7815E-3	188.273E-12	638.911E-3	-32.6181E-3
4.76488E-3	187.658E-12	613.895E-3	8.83840E-3	188.583E-12	644.740E-3	-36.0590E-3
4.75988E-3	186.227E-12	603.368E-3	44.7980E-3	188.585E-12	626.447E-3	-3.14423E-3
4.75488E-3	184.305E-12	596.417E-3	28.6371E-3	188.717E-12	619.462E-3	38.7215E-3
4.74988E-3	182.802E-12	600.570E-3	-2.94537E-3	188.955E-12	632.634E-3	32.6397E-3
4.74487E-3	183.202E-12	606.090E-3	-22.7839E-3	189.991E-12	622.267E-3	-7.72696E-3
4.73987E-3	183.506E-12	603.383E-3	-37.2886E-3	189.536E-12	616.497E-3	-19.4952E-3
4.73487E-3	183.973E-12	608.379E-3	-32.9234E-3	189.245E-12	623.676E-3	-19.0301E-3
4.72986E-3	184.809E-12	628.845E-3	-27.6853E-3	189.448E-12	608.328E-3	-38.1583E-3
4.72486E-3	186.656E-12	639.198E-3	-7.21956E-3	189.743E-12	601.184E-3	-36.1003E-3
4.71986E-3	187.872E-12	621.134E-3	19.7140E-3	188.308E-12	613.040E-3	-19.3372E-3
4.71486E-3	189.508E-12	600.595E-3	11.7854E-3	188.780E-12	612.403E-3	-11.1333E-3
4.70985E-3	190.780E-12	626.809E-3	-7.89327E-3	188.600E-12	604.339E-3	-4.16490E-3
4.70485E-3	191.517E-12	656.740E-3	-4.38084E-3	188.221E-12	610.427E-3	-14.4205E-3
4.69985E-3	192.709E-12	646.470E-3	8.60486E-3	186.629E-12	611.728E-3	-18.5387E-3
4.69485E-3	192.758E-12	628.958E-3	20.2166E-3	186.472E-12	613.301E-3	3.04075E-3
4.68984E-3	191.775E-12	635.960E-3	22.7806E-3	186.006E-12	646.451E-3	1.34584E-3
4.68484E-3	190.969E-12	665.974E-3	-4.77876E-3	185.308E-12	647.230E-3	-13.7694E-3
4.67984E-3	190.032E-12	672.991E-3	-43.5741E-3	184.581E-12	607.229E-3	-412.903E-6
4.67484E-3	188.325E-12	668.127E-3	-48.7022E-3	184.434E-12	619.837E-3	8.73126E-3
4.66983E-3	186.764E-12	668.845E-3	-27.1235E-3	183.758E-12	647.898E-3	-3.01113E-3
4.66483E-3	185.304E-12	645.784E-3	-19.0415E-3	183.579E-12	640.717E-3	1.41287E-3
4.65983E-3	182.973E-12	630.814E-3	-12.6165E-3	184.322E-12	628.243E-3	14.3251E-3
4.65483E-3	182.150E-12	623.667E-3	-14.5355E-3	184.363E-12	621.619E-3	17.1722E-3
4.64982E-3	182.187E-12	611.564E-3	-28.6241E-3	184.541E-12	626.611E-3	6.47862E-3
4.64482E-3	180.646E-12	620.459E-3	-22.0657E-3	184.991E-12	640.807E-3	-15.2512E-3
4.63982E-3	180.174E-12	622.077E-3	3.39156E-3	184.976E-12	653.290E-3	-18.6076E-3
4.63482E-3	180.528E-12	609.847E-3	18.1236E-3	185.983E-12	658.441E-3	1.95818E-3
4.62981E-3	181.033E-12	603.571E-3	17.6581E-3	186.086E-12	657.676E-3	11.5135E-3
4.62481E-3	180.930E-12	594.150E-3	28.5497E-3	185.959E-12	640.119E-3	-21.2742E-3
4.61981E-3	182.018E-12	594.793E-3	20.9474E-3	185.458E-12	622.568E-3	-44.4095E-3
4.61481E-3	183.132E-12	625.005E-3	4.02170E-3	185.577E-12	624.756E-3	-20.9331E-3
4.60980E-3	183.467E-12	645.175E-3	-975.943E-6	184.065E-12	608.800E-3	6.22199E-3
4.60480E-3	183.752E-12	643.191E-3	-16.8643E-3	183.085E-12	581.445E-3	23.3736E-3
4.59980E-3	184.243E-12	647.376E-3	-37.3566E-3	182.287E-12	596.572E-3	26.9715E-3
4.59480E-3	184.398E-12	639.573E-3	-45.7534E-3	181.494E-12	630.603E-3	18.9305E-3
4.58979E-3	184.380E-12	625.102E-3	-47.9856E-3	179.721E-12	631.620E-3	9.54942E-3
4.58479E-3	183.753E-12	636.651E-3	-48.7737E-3	178.832E-12	620.275E-3	1.50636E-3
4.57979E-3	183.372E-12	655.796E-3	-27.2596E-3	179.024E-12	634.832E-3	-7.59335E-3
4.57479E-3	182.632E-12	651.882E-3	-3.43982E-3	177.996E-12	646.756E-3	-11.7832E-3
4.56978E-3	182.098E-12	641.772E-3	-5.54077E-3	176.877E-12	626.985E-3	716.676E-6
4.56478E-3	180.820E-12	636.536E-3	-4.97173E-3	177.480E-12	595.950E-3	-13.3101E-3
4.55978E-3	179.881E-12	635.317E-3	2.27504E-3	178.171E-12	588.055E-3	-38.8840E-3
4.55478E-3	179.473E-12	641.496E-3	1.24785E-3	177.571E-12	620.998E-3	-30.5688E-3
4.54977E-3	178.558E-12	647.801E-3	7.71877E-3	177.471E-12	659.534E-3	-22.3163E-3
4.54477E-3	177.628E-12	636.600E-3	7.32045E-3	178.558E-12	668.715E-3	-20.0986E-3
4.53977E-3	177.869E-12	615.902E-3	-479.266E-6	178.546E-12	663.660E-3	-8.75963E-3
4.53477E-3	177.778E-12	623.223E-3	-3.46056E-3	179.847E-12	666.616E-3	-10.1746E-3
4.52976E-3	177.667E-12	646.715E-3	-9.34988E-3	180.251E-12	677.392E-3	-33.4076E-3
4.52476E-3	178.285E-12	654.441E-3	-15.7998E-3	180.516E-12	689.396E-3	-27.5628E-3
4.51976E-3	178.946E-12	653.549E-3	-12.8573E-3	180.577E-12	673.370E-3	4.52178E-3
4.51476E-3	178.718E-12	659.231E-3	-2.94753E-3	180.460E-12	635.532E-3	875.767E-6
4.50975E-3	180.133E-12	662.672E-3	3.63650E-3	180.640E-12	632.741E-3	-3.86019E-3
4.50475E-3	180.550E-12	654.363E-3	23.9336E-3	179.964E-12	637.492E-3	15.6930E-3
4.49975E-3	180.968E-12	633.283E-3	34.7468E-3	179.225E-12	616.247E-3	-2.63207E-3
4.49475E-3	181.586E-12	607.711E-3	15.5974E-3	178.464E-12	610.116E-3	-33.3223E-3
4.48974E-3	182.221E-12	601.269E-3	497.671E-6	179.025E-12	628.259E-3	-27.3039E-3
4.48474E-3	182.020E-12	618.226E-3	2.65404E-3	177.403E-12	649.750E-3	-29.4798E-3
4.47974E-3	182.843E-12	644.931E-3	13.2307E-3	176.192E-12	643.332E-3	-40.1787E-3
4.47474E-3	182.238E-12	669.286E-3	23.1534E-3	176.227E-12	627.894E-3	-39.5319E-3
4.46973E-3	181.532E-12	683.444E-3	13.3926E-3	175.985E-12	630.181E-3	-49.3621E-3
4.46473E-3	180.287E-12	684.916E-3	3.39956E-3	174.512E-12	631.510E-3	-46.3615E-3
4.45973E-3	179.790E-12	676.402E-3	-516.907E-6	173.962E-12	639.310E-3	-18.1564E-3
4.45473E-3	178.312E-12	656.036E-3	-21.9057E-3	173.773E-12	657.184E-3	6.69992E-3
4.44972E-3	176.411E-12	630.737E-3	-44.5890E-3	173.496E-12	672.726E-3	18.5700E-3
4.44472E-3	175.650E-12	634.441E-3	-43.4188E-3	173.984E-12	671.645E-3	20.5958E-3
4.43972E-3	174.380E-12	658.979E-3	-26.5320E-3	174.347E-12	642.434E-3	-3.21247E-3
4.43472E-3	173.789E-12	650.335E-3	-11.8321E-3	174.392E-12	597.053E-3	-33.5874E-3
4.42971E-3	172.814E-12	632.574E-3	7.29511E-3	174.467E-12	584.259E-3	-36.9627E-3
4.42471E-3	172.298E-12	635.649E-3	11.6336E-3	175.567E-12	627.008E-3	-31.7324E-3
4.41971E-3	171.751E-12	630.948E-3	-8.99125E-3	175.731E-12	653.115E-3	-29.1478E-3
4.41471E-3	172.288E-12	624.665E-3	-29.2140E-3	176.217E-12	644.635E-3	-23.1930E-3
4.40970E-3	172.444E-12	610.596E-3	-40.3376E-3	176.250E-12	640.338E-3	-4.33772E-3
4.40470E-3	172.651E-12	614.913E-3	-62.5334E-3	176.393E-12	629.983E-3	20.8375E-3
4.39970E-3	173.953E-12	642.579E-3	-77.7079E-3	176.852E-12	638.602E-3	24.2061E-3
4.39470E-3	175.248E-12	637.864E-3	-47.8373E-3	176.360E-12	666.222E-3	849.409E-6
4.38969E-3	176.269E-12	618.502E-3	-22.8396E-3	175.851E-12	654.295E-3	-24.2816E-3
4.38469E-3	177.251E-12	617.644E-3	-19.3553E-3	174.919E-12	638.129E-3	-28.2427E-3
4.37969E-3	178.009E-12	623.358E-3	-16.4164E-3	175.159E-12	655.357E-3	-19.6128E-3
4.37469E-3	177.705E-12	624.695E-3	-23.7146E-3	173.696E-12	650.732E-3	-24.2165E-3
4.36968E-3	177.598E-12	619.340E-3	-16.9500E-3	172.365E-12	633.315E-3	-27.0227E-3
4.36468E-3	177.463E-12	612.675E-3	4.32167E-3	171.500E-12	638.683E-3	-16.3483E-3
4.35968E-3	175.925E-12	619.619E-3	9.72485E-3	171.001E-12	633.436E-3	-6.13494E-3
4.35468E-3	174.475E-12	626.390E-3	16.7988E-3	169.790E-12	611.120E-3	-570.461E-6
4.34967E-3	172.487E-12	620.654E-3	21.9054E-3	169.536E-12	609.050E-3	-16.3446E-3
4.34467E-3	170.510E-12	615.691E-3	-5.61945E-3	169.144E-12	614.510E-3	-43.0461E-3
4.33967E-3	168.605E-12	609.519E-3	-34.3091E-3	168.615E-12	620.061E-3	-40.2856E-3
4.33467E-3	166.713E-12	593.159E-3	-42.7510E-3	168.580E-12	648.038E-3	-17.8007E-3
4.32966E-3	165.042E-12	604.506E-3	-31.3966E-3	168.920E-12	650.926E-3	-21.0939E-3
4.32466E-3	164.521E-12	634.103E-3	-9.82415E-3	168.994E-12	611.175E-3	-31.2496E-3
4.31966E-3	164.264E-12	640.263E-3	-6.15464E-3	169.461E-12	599.430E-3	-27.8858E-3
4.31466E-3	164.720E-12	631.787E-3	-20.9866E-3	169.388E-12	611.361E-3	-30.5377E-3
4.30965E-3	165.080E-12	617.566E-3	-23.6614E-3	170.168E-12	624.332E-3	-25.2841E-3
4.30465E-3	166.639E-12	625.169E-3	-21.1333E-3	170.110E-12	644.724E-3	-13.4585E-3
4.29965E-3	167.775E-12	642.945E-3	-36.9729E-3	170.109E-12	639.165E-3	-9.76751E-3
4.29465E-3	168.908E-12	621.192E-3	-51.4490E-3	169.829E-12	613.691E-3	75.0122E-6
4.28964E-3	170.464E-12	604.603E-3	-48.8812E-3	170.593E-12	617.690E-3	-170.288E-6
4.28464E-3	171.999E-12	623.608E-3	-48.7287E-3	169.284E-12	636.850E-3	-28.1597E-3
4.27964E-3	172.436E-12	622.574E-3	-40.7729E-3	168.764E-12	635.736E-3	-26.8277E-3
4.27464E-3	173.360E-12	632.450E-3	-13.3977E-3	168.708E-12	621.685E-3	9.23921E-3
4.26963E-3	173.484E-12	661.402E-3	5.96712E-3	168.080E-12	603.711E-3	2.55422E-3
4.26463E-3	173.302E-12	664.676E-3	7.44043E-3	166.611E-12	595.697E-3	-19.5796E-3
4.25963E-3	172.388E-12	661.964E-3	1.71867E-3	166.161E-12	610.701E-3	-9.04079E-3
4.25463E-3	171.074E-12	672.526E-3	-11.8184E-3	165.630E-12	626.762E-3	-11.9063E-3
4.24962E-3	168.963E-12	676.557E-3	-35.2115E-3	165.263E-12	627.546E-3	-20.2188E-3
4.24462E-3	167.572E-12	667.128E-3	-38.8274E-3	164.511E-12	638.208E-3	-25.7647E-3
4.23962E-3	165.473E-12	646.716E-3	-18.9842E-3	164.530E-12	655.034E-3	-44.2780E-3
4.23462E-3	163.990E-12	625.692E-3	-7.37715E-3	164.327E-12	640.398E-3	-24.0095E-3
4.22961E-3	162.852E-12	618.590E-3	-12.6259E-3	164.655E-12	627.040E-3	3.47014E-3
4.22461E-3	161.968E-12	615.633E-3	-21.0106E-3	164.893E-12	643.444E-3	-11.3921E-3
4.21961E-3	162.403E-12	617.470E-3	-32.2622E-3	165.738E-12	642.597E-3	-10.5842E-3
4.21461E-3	162.100E-12	608.961E-3	-43.8715E-3	166.167E-12	621.412E-3	3.32771E-3
4.20960E-3	162.376E-12	601.030E-3	-29.1159E-3	166.184E-12	609.780E-3	-7.80653E-3
4.20460E-3	163.420E-12	601.208E-3	-12.2225E-3	166.443E-12	606.385E-3	-17.5540E-3
4.19960E-3	164.135E-12	606.022E-3	-13.4979E-3	166.314E-12	612.230E-3	-14.9105E-3
4.19460E-3	164.546E-12	620.157E-3	-7.83636E-3	166.376E-12	612.700E-3	-20.9961E-3
4.18959E-3	166.237E-12	625.757E-3	1.70149E-3	165.864E-12	611.425E-3	-11.5282E-3
4.18459E-3	166.645E-12	629.418E-3	6.74228E-3	165.746E-12	640.755E-3	4.32614E-3
4.17959E-3	167.364E-12	634.064E-3	30.2617E-3	165.211E-12	669.055E-3	-9.16994E-3
4.17459E-3	168.498E-12	636.042E-3	49.8470E-3	165.214E-12	669.876E-3	-9.50203E-3
4.16958E-3	168.821E-12	640.327E-3	36.6652E-3	165.043E-12	667.345E-3	15.3744E-3
4.16458E-3	168.176E-12	660.386E-3	9.08782E-3	164.917E-12	667.221E-3	17.6277E-3
4.15958E-3	168.149E-12	675.029E-3	-10.0320E-3	164.452E-12	650.419E-3	-1.71240E-3
4.15458E-3	167.499E-12	670.411E-3	-13.2054E-3	163.844E-12	630.853E-3	-13.0486E-3
4.14957E-3	166.004E-12	664.462E-3	-15.6598E-3	163.931E-12	626.402E-3	-23.6730E-3
4.14457E-3	164.672E-12	652.821E-3	-25.8474E-3	163.849E-12	627.193E-3	-34.5344E-3
4.13957E-3	163.385E-12	650.928E-3	-37.0883E-3	163.390E-12	633.604E-3	-35.8950E-3
4.13457E-3	162.209E-12	661.860E-3	-33.4895E-3	162.641E-12	636.559E-3	-25.6887E-3
4.12956E-3	161.090E-12	652.575E-3	-28.3253E-3	162.800E-12	636.477E-3	-8.66972E-3
4.12456E-3	160.028E-12	625.735E-3	-46.0067E-3	163.136E-12	638.252E-3	881.444E-6
4.11956E-3	159.071E-12	614.722E-3	-55.2974E-3	162.444E-12	646.849E-3	-1.68396E-3
4.11456E-3	158.674E-12	619.672E-3	-22.8983E-3	162.611E-12	655.287E-3	-17.0660E-3
4.10955E-3	158.474E-12	641.923E-3	1.95925E-3	162.504E-12	653.704E-3	-41.2041E-3
4.10455E-3	158.690E-12	671.446E-3	-7.68944E-3	162.322E-12	655.273E-3	-61.4401E-3
4.09955E-3	159.224E-12	673.047E-3	-12.1082E-3	161.909E-12	646.425E-3	-61.5270E-3
4.09455E-3	159.442E-12	671.294E-3	-20.0838E-3	162.002E-12	622.339E-3	-41.4350E-3
4.08954E-3	160.292E-12	683.643E-3	-27.0938E-3	161.719E-12	623.321E-3	-21.2471E-3
4.08454E-3	161.214E-12	670.151E-3	-4.94653E-3	161.652E-12	636.145E-3	-24.8763E-3
4.07954E-3	161.729E-12	635.909E-3	11.6515E-3	161.398E-12	623.450E-3	-35.2496E-3
4.07454E-3	162.890E-12	624.261E-3	178.423E-6	161.610E-12	621.879E-3	-29.6790E-3
4.06953E-3	163.980E-12	631.856E-3	-8.04126E-3	160.307E-12	625.561E-3	-41.4685E-3
4.06453E-3	163.564E-12	645.591E-3	-4.90750E-3	159.459E-12	610.924E-3	-55.1859E-3
4.05953E-3	163.339E-12	665.100E-3	-13.6980E-3	159.669E-12	611.652E-3	-35.6692E-3
4.05453E-3	163.787E-12	679.863E-3	-25.0337E-3	159.638E-12	632.659E-3	-11.4890E-3
4.04952E-3	164.102E-12	688.848E-3	-11.6785E-3	157.798E-12	643.688E-3	247.157E-6
4.04452E-3	163.187E-12	693.508E-3	-15.2001E-3	157.521E-12	634.865E-3	-5.84272E-3
4.03952E-3	161.957E-12	678.884E-3	-46.9655E-3	157.499E-12	634.434E-3	-30.1064E-3
4.03452E-3	161.255E-12	660.496E-3	-47.9361E-3	157.186E-12	637.399E-3	-40.3214E-3
4.02951E-3	159.503E-12	660.516E-3	-23.1699E-3	156.661E-12	630.149E-3	-27.7209E-3
4.02451E-3	158.091E-12	657.759E-3	-15.5598E-3	155.938E-12	637.930E-3	-23.4375E-3
4.01951E-3	157.119E-12	642.064E-3	-35.8342E-3	156.025E-12	655.638E-3	-31.4032E-3
4.01451E-3	155.575E-12	649.666E-3	-48.0599E-3	155.706E-12	644.719E-3	-15.6237E-3
4.00950E-3	153.982E-12	670.271E-3	-15.7042E-3	155.525E-12	628.042E-3	-3.07209E-3
4.00450E-3	153.223E-12	656.057E-3	19.3315E-3	156.051E-12	627.238E-3	-24.9228E-3
3.99950E-3	152.376E-12	636.917E-3	12.9793E-3	155.892E-12	633.108E-3	-38.0823E-3
3.99450E-3	152.526E-12	649.131E-3	-10.4534E-3	155.553E-12	646.176E-3	-24.8286E-3
3.98949E-3	152.640E-12	663.961E-3	-29.0222E-3	156.041E-12	640.199E-3	-9.36388E-3
3.98449E-3	153.176E-12	652.196E-3	-31.5202E-3	155.874E-12	640.237E-3	-645.822E-6
3.97949E-3	153.846E-12	636.068E-3	-30.0321E-3	155.602E-12	660.884E-3	-356.262E-6
3.97449E-3	154.839E-12	644.097E-3	-35.4318E-3	155.537E-12	655.849E-3	-3.04762E-3
3.96948E-3	156.132E-12	655.118E-3	-25.0834E-3	155.566E-12	625.609E-3	7.88635E-3
3.96448E-3	157.025E-12	652.437E-3	-3.95512E-3	156.009E-12	618.280E-3	-12.4897E-3
3.95948E-3	158.123E-12	646.154E-3	-5.61503E-3	155.177E-12	629.895E-3	-38.0226E-3
3.95448E-3	158.647E-12	631.253E-3	-37.4614E-3	154.965E-12	620.187E-3	-11.4240E-3
3.94947E-3	159.510E-12	655.608E-3	-57.3603E-3	154.822E-12	616.982E-3	18.2506E-3
3.94447E-3	160.316E-12	694.142E-3	-38.2169E-3	154.349E-12	636.040E-3	12.1879E-3
3.93947E-3	159.797E-12	682.417E-3	-7.57047E-3	153.809E-12	646.013E-3	-18.4200E-3
3.93447E-3	159.074E-12	671.014E-3	-7.09304E-3	153.260E-12	644.351E-3	-44.6924E-3
3.92946E-3	158.159E-12	658.312E-3	-19.3556E-3	152.927E-12	638.617E-3	-51.3203E-3
3.92446E-3	157.021E-12	640.249E-3	-32.6037E-3	152.455E-12	641.740E-3	-37.1673E-3
3.91946E-3	154.411E-12	644.172E-3	-45.5537E-3	152.424E-12	656.354E-3	-27.1271E-3
3.91446E-3	152.938E-12	641.051E-3	-24.9782E-3	152.412E-12	653.708E-3	-28.6230E-3
3.90945E-3	151.787E-12	629.383E-3	-6.36610E-3	152.641E-12	628.814E-3	-13.6538E-3
3.90445E-3	150.024E-12	632.360E-3	-8.18451E-3	152.280E-12	607.377E-3	5.76563E-3
3.89945E-3	149.038E-12	628.922E-3	-4.04546E-3	152.560E-12	615.699E-3	10.1204E-3
3.89445E-3	148.341E-12	609.875E-3	-10.0840E-3	152.982E-12	640.174E-3	-1.74049E-3
3.88944E-3	148.096E-12	605.124E-3	-19.4746E-3	152.580E-12	651.186E-3	-21.8312E-3
3.88444E-3	148.080E-12	608.308E-3	-11.5642E-3	152.177E-12	646.044E-3	-36.0337E-3
3.87944E-3	149.263E-12	609.017E-3	-5.07975E-3	152.083E-12	632.752E-3	-37.1234E-3
3.87444E-3	149.815E-12	633.869E-3	-4.82781E-3	152.661E-12	637.281E-3	-21.6793E-3
3.86943E-3	151.302E-12	675.218E-3	-15.5205E-3	151.760E-12	665.906E-3	-18.4160E-3
3.86443E-3	152.750E-12	679.944E-3	-23.9462E-3	151.189E-12	675.787E-3	-35.6673E-3
3.85943E-3	154.311E-12	665.375E-3	-10.0277E-3	150.606E-12	666.326E-3	-39.8651E-3
3.85443E-3	154.625E-12	676.123E-3	-5.26452E-3	150.055E-12	663.221E-3	-36.9721E-3
3.84942E-3	155.270E-12	688.867E-3	-5.02561E-3	148.751E-12	648.331E-3	-43.4239E-3
3.84442E-3	155.338E-12	686.064E-3	-5.74587E-3	148.416E-12	629.884E-3	-30.6584E-3
3.83942E-3	155.421E-12	670.748E-3	-11.1006E-3	148.007E-12	630.981E-3	-4.80356E-3
3.83442E-3	154.409E-12	647.778E-3	-25.1485E-3	147.931E-12	636.183E-3	-3.26830E-3
3.82941E-3	153.407E-12	643.828E-3	-45.5355E-3	147.736E-12	640.217E-3	-1.70776E-3
3.82441E-3	151.473E-12	665.080E-3	-29.2894E-3	148.023E-12	648.375E-3	-2.57204E-3
3.81941E-3	150.056E-12	678.794E-3	-1.31968E-3	148.348E-12	641.989E-3	-26.7807E-3
3.81441E-3	148.701E-12	667.918E-3	3.58452E-3	148.905E-12	617.768E-3	-43.3931E-3
3.80940E-3	146.571E-12	655.071E-3	13.9630E-3	148.822E-12	614.842E-3	-38.9781E-3
3.80440E-3	145.749E-12	645.620E-3	22.0384E-3	149.289E-12	619.360E-3	-34.9608E-3
3.79940E-3	144.598E-12	630.622E-3	6.43549E-3	149.399E-12	608.620E-3	-32.2667E-3
3.79440E-3	144.387E-12	630.349E-3	-12.0544E-3	148.696E-12	622.582E-3	-28.9650E-3
3.78939E-3	143.552E-12	631.081E-3	-20.5237E-3	149.367E-12	651.176E-3	-22.5218E-3
3.78439E-3	143.978E-12	623.298E-3	-14.0377E-3	149.316E-12	650.551E-3	-3.69741E-3
3.77939E-3	144.300E-12	626.473E-3	-21.4619E-3	148.634E-12	642.640E-3	7.73237E-3
3.77439E-3	145.423E-12	634.365E-3	-34.0821E-3	148.561E-12	640.033E-3	-2.20235E-3
3.76938E-3	146.115E-12	644.952E-3	-20.0736E-3	148.200E-12	624.591E-3	-8.98736E-3
3.76438E-3	146.788E-12	640.176E-3	-24.5713E-3	147.669E-12	626.605E-3	-16.8580E-3
3.75938E-3	147.526E-12	621.734E-3	-36.1865E-3	146.847E-12	643.283E-3	-42.0467E-3
3.75438E-3	148.094E-12	619.159E-3	-31.0235E-3	146.352E-12	647.442E-3	-48.6807E-3
3.74937E-3	148.334E-12	633.702E-3	-42.5166E-3	146.301E-12	656.378E-3	-28.4194E-3
3.74437E-3	148.629E-12	654.369E-3	-36.6779E-3	145.620E-12	667.691E-3	-5.70942E-3
3.73937E-3	148.619E-12	668.740E-3	-3.84961E-3	145.116E-12	666.136E-3	10.3096E-3
3.73437E-3	147.627E-12	678.793E-3	20.5258E-3	144.472E-12	655.927E-3	15.3978E-3
3.72936E-3	146.826E-12	687.581E-3	21.3874E-3	144.007E-12	644.288E-3	-972.761E-6
3.72436E-3	146.094E-12	682.973E-3	-3.94162E-3	143.956E-12	639.247E-3	-30.8986E-3
3.71936E-3	145.239E-12	667.369E-3	-18.7842E-3	143.736E-12	651.848E-3	-48.9527E-3
3.71436E-3	144.069E-12	644.901E-3	-13.8771E-3	143.870E-12	657.713E-3	-36.3100E-3
3.70935E-3	142.694E-12	628.896E-3	-10.6996E-3	144.188E-12	637.563E-3	3.37563E-3
3.70435E-3	142.076E-12	625.765E-3	-17.3855E-3	144.052E-12	630.120E-3	32.8912E-3
3.69935E-3	141.128E-12	637.396E-3	-19.4315E-3	144.122E-12	630.496E-3	26.8355E-3
3.69435E-3	140.893E-12	645.182E-3	-18.7844E-3	144.653E-12	618.292E-3	8.84267E-3
3.68934E-3	140.743E-12	639.900E-3	-17.4030E-3	144.481E-12	629.052E-3	3.33481E-3
3.68434E-3	140.895E-12	637.782E-3	-13.9802E-3	143.632E-12	643.538E-3	13.7509E-3
3.67934E-3	140.836E-12	620.759E-3	-21.5366E-3	143.576E-12	625.775E-3	27.6267E-3
3.67434E-3	141.146E-12	611.800E-3	-35.9541E-3	143.795E-12	613.024E-3	16.4709E-3
3.66933E-3	141.491E-12	622.665E-3	-44.2599E-3	143.145E-12	619.058E-3	-31.4043E-3
3.66433E-3	141.813E-12	621.087E-3	-36.9488E-3	142.818E-12	617.887E-3	-68.5737E-3
3.65933E-3	142.251E-12	628.756E-3	-29.0338E-3	142.746E-12	630.334E-3	-69.8756E-3
3.65433E-3	143.094E-12	659.216E-3	-33.8360E-3	142.908E-12	646.707E-3	-55.2587E-3
3.64932E-3	143.436E-12	671.017E-3	-36.6903E-3	142.183E-12	620.661E-3	-30.8139E-3
3.64432E-3	143.739E-12	654.384E-3	-22.7691E-3	142.113E-12	599.603E-3	-15.1722E-3
3.63932E-3	144.243E-12	639.506E-3	-4.46412E-3	141.501E-12	609.698E-3	-12.6331E-3
3.63432E-3	144.690E-12	637.368E-3	-5.34477E-3	141.148E-12	605.897E-3	-15.5721E-3
3.62931E-3	144.263E-12	652.636E-3	-28.1746E-3	140.487E-12	609.381E-3	-11.9987E-3
3.62431E-3	144.161E-12	661.911E-3	-38.3265E-3	140.275E-12	625.640E-3	-9.11454E-3
3.61931E-3	143.916E-12	652.272E-3	-25.1980E-3	139.812E-12	613.800E-3	-25.4581E-3
3.61431E-3	142.601E-12	653.638E-3	-26.0294E-3	139.460E-12	611.216E-3	-27.6489E-3
3.60930E-3	142.081E-12	652.327E-3	-20.1681E-3	138.882E-12	640.858E-3	-18.3164E-3
3.60430E-3	141.646E-12	634.718E-3	8.88564E-3	139.561E-12	655.630E-3	-24.1724E-3
3.59930E-3	140.214E-12	638.057E-3	12.9169E-3	139.183E-12	661.776E-3	-18.3160E-3
3.59430E-3	139.054E-12	659.727E-3	-13.8093E-3	139.040E-12	679.568E-3	-14.2798E-3
3.58929E-3	138.505E-12	665.318E-3	-20.9696E-3	139.111E-12	683.570E-3	-32.1208E-3
3.58429E-3	137.154E-12	651.985E-3	-6.40527E-3	139.531E-12	676.665E-3	-28.2338E-3
3.57929E-3	136.160E-12	631.973E-3	-2.41248E-3	139.034E-12	676.868E-3	-3.24432E-3
3.57429E-3	135.521E-12	636.400E-3	-13.9222E-3	139.463E-12	678.598E-3	6.26407E-3
3.56928E-3	135.849E-12	646.727E-3	-32.8970E-3	139.489E-12	665.683E-3	6.13586E-3
3.56428E-3	135.558E-12	626.247E-3	-38.0854E-3	139.872E-12	651.150E-3	3.73813E-3
3.55928E-3	135.736E-12	615.386E-3	-29.7947E-3	139.586E-12	659.586E-3	-1.54733E-3
3.55428E-3	136.426E-12	627.815E-3	-29.5422E-3	139.862E-12	670.933E-3	41.5306E-6
3.54927E-3	136.916E-12	633.363E-3	-28.4270E-3	139.310E-12	674.361E-3	3.16085E-3
3.54427E-3	137.895E-12	636.083E-3	-11.3556E-3	138.830E-12	665.432E-3	-5.08672E-3
3.53927E-3	138.597E-12	641.494E-3	-9.03871E-3	137.989E-12	643.770E-3	-18.9851E-3
3.53427E-3	139.008E-12	645.098E-3	-24.7561E-3	137.572E-12	636.438E-3	-30.7169E-3
3.52926E-3	139.356E-12	658.910E-3	-20.8285E-3	136.315E-12	629.387E-3	-26.7063E-3
3.52426E-3	140.491E-12	667.055E-3	-16.0785E-3	135.790E-12	615.569E-3	-6.60028E-3
3.51926E-3	140.050E-12	663.239E-3	-33.3619E-3	134.921E-12	620.952E-3	5.43372E-3
3.51426E-3	139.630E-12	661.991E-3	-41.6622E-3	134.239E-12	636.016E-3	-1.80028E-3
3.50925E-3	139.346E-12	649.244E-3	-45.8061E-3	133.591E-12	646.940E-3	-18.9335E-3
3.50425E-3	138.839E-12	633.166E-3	-54.6618E-3	132.900E-12	641.198E-3	-6.09950E-3
3.49925E-3	137.290E-12	640.530E-3	-38.6590E-3	132.724E-12	632.594E-3	3.06242E-3
3.49425E-3	136.265E-12	646.550E-3	-8.97530E-3	133.023E-12	639.249E-3	-23.2846E-3
3.48924E-3	135.003E-12	635.055E-3	11.6843E-3	132.886E-12	650.057E-3	-39.1275E-3
3.48424E-3	133.233E-12	629.883E-3	8.83303E-3	133.364E-12	671.283E-3	-40.1650E-3
3.47924E-3	132.617E-12	625.567E-3	-13.3689E-3	133.615E-12	672.126E-3	-26.3838E-3
3.47424E-3	132.202E-12	629.666E-3	-25.5791E-3	134.017E-12	637.561E-3	-1.59014E-3
3.46923E-3	131.849E-12	645.805E-3	-26.6424E-3	134.190E-12	618.178E-3	6.31520E-3
3.46423E-3	131.472E-12	650.297E-3	-24.2935E-3	134.360E-12	621.139E-3	-16.4170E-3
3.45923E-3	131.655E-12	631.877E-3	-25.5224E-3	134.414E-12	637.832E-3	-29.2033E-3
3.45423E-3	132.126E-12	619.865E-3	-35.4090E-3	134.375E-12	664.539E-3	-18.0693E-3
3.44922E-3	132.508E-12	629.731E-3	-28.0519E-3	133.782E-12	670.190E-3	-6.83035E-3
3.44422E-3	132.847E-12	635.997E-3	-10.1736E-3	133.784E-12	645.923E-3	-628.976E-6
3.43922E-3	133.868E-12	641.644E-3	-18.8297E-3	133.325E-12	617.510E-3	-14.4195E-3
3.43422E-3	134.317E-12	645.441E-3	-34.4516E-3	132.189E-12	618.941E-3	-25.8609E-3
3.42921E-3	134.742E-12	642.131E-3	-33.1066E-3	131.762E-12	639.989E-3	-20.8395E-3
3.42421E-3	134.934E-12	651.091E-3	-29.3693E-3	131.031E-12	644.420E-3	-17.7902E-3
3.41921E-3	135.170E-12	657.045E-3	-32.4337E-3	130.661E-12	632.300E-3	-25.6623E-3
3.41421E-3	134.617E-12	641.119E-3	-41.8404E-3	129.839E-12	614.088E-3	-39.7236E-3
3.40920E-3	134.086E-12	649.343E-3	-59.9288E-3	129.370E-12	605.604E-3	-39.7514E-3
3.40420E-3	133.041E-12	676.400E-3	-58.1400E-3	128.952E-12	612.411E-3	-29.3470E-3
3.39920E-3	131.435E-12	661.867E-3	-34.4022E-3	129.262E-12	621.306E-3	-20.3412E-3
3.39420E-3	130.611E-12	641.182E-3	-28.1785E-3	129.250E-12	644.483E-3	-19.6845E-3
3.38919E-3	128.788E-12	651.701E-3	-27.0011E-3	129.474E-12	669.485E-3	-36.8851E-3
3.38419E-3	128.385E-12	656.352E-3	-13.6172E-3	129.609E-12	663.860E-3	-43.8415E-3
3.37919E-3	127.696E-12	646.035E-3	-4.16006E-3	130.232E-12	654.016E-3	-36.7272E-3
3.37419E-3	127.262E-12	640.895E-3	-15.7377E-3	129.905E-12	656.108E-3	-33.1099E-3
3.36918E-3	127.147E-12	653.686E-3	-13.3479E-3	130.256E-12	649.903E-3	-20.6999E-3
3.36418E-3	127.222E-12	648.520E-3	669.853E-6	130.891E-12	648.084E-3	-13.7305E-3
3.35918E-3	127.492E-12	622.434E-3	-9.26719E-3	130.429E-12	655.186E-3	-13.5467E-3
3.35418E-3	127.329E-12	622.428E-3	-17.5970E-3	130.245E-12	654.071E-3	408.988E-6
3.34917E-3	128.174E-12	633.504E-3	-17.1355E-3	130.139E-12	667.080E-3	15.0556E-3
3.34417E-3	128.794E-12	632.267E-3	-19.3393E-3	129.716E-12	689.097E-3	10.1992E-3
3.33917E-3	129.478E-12	627.683E-3	-7.38192E-3	129.194E-12	670.414E-3	2.30824E-3
3.33417E-3	129.855E-12	641.070E-3	5.50356E-3	129.159E-12	638.199E-3	9.05586E-3
3.32916E-3	130.680E-12	659.455E-3	-13.0306E-3	128.481E-12	630.525E-3	7.05663E-3
3.32416E-3	130.907E-12	660.256E-3	-32.0495E-3	128.202E-12	632.724E-3	-4.41045E-3
3.31916E-3	130.526E-12	660.715E-3	-29.5437E-3	127.710E-12	637.853E-3	-10.0433E-3
3.31416E-3	130.127E-12	671.757E-3	-18.6634E-3	127.095E-12	640.880E-3	-13.3288E-3
3.30915E-3	129.544E-12	676.794E-3	-11.0872E-3	127.085E-12	634.398E-3	-10.0445E-3
3.30415E-3	128.235E-12	669.574E-3	-6.04717E-3	126.828E-12	627.829E-3	-2.09344E-3
3.29915E-3	127.391E-12	656.310E-3	-1.52873E-3	126.580E-12	629.908E-3	-10.7435E-3
3.29415E-3	126.662E-12	639.643E-3	-6.62789E-3	126.461E-12	631.074E-3	-30.4772E-3
3.28914E-3	125.885E-12	637.041E-3	-27.1717E-3	126.066E-12	629.760E-3	-45.0335E-3
3.28414E-3	124.592E-12	647.446E-3	-50.3242E-3	125.866E-12	639.735E-3	-54.5366E-3
3.27914E-3	124.544E-12	645.449E-3	-44.4057E-3	125.802E-12	645.089E-3	-53.5572E-3
3.27414E-3	124.312E-12	636.490E-3	-22.1212E-3	125.307E-12	643.106E-3	-36.3495E-3
3.26913E-3	123.816E-12	629.347E-3	-17.9643E-3	124.872E-12	647.605E-3	-20.0616E-3
3.26413E-3	123.628E-12	622.062E-3	-31.9758E-3	124.670E-12	638.985E-3	-8.53048E-3
3.25913E-3	123.986E-12	631.151E-3	-48.1245E-3	123.914E-12	630.179E-3	1.87579E-3
3.25413E-3	124.030E-12	649.641E-3	-46.4900E-3	124.002E-12	638.721E-3	-13.2161E-3
3.24912E-3	124.388E-12	658.112E-3	-24.3156E-3	123.892E-12	647.372E-3	-41.0314E-3
3.24412E-3	124.751E-12	659.678E-3	-11.9973E-3	124.227E-12	656.092E-3	-40.1097E-3
3.23912E-3	125.765E-12	651.880E-3	-18.1711E-3	123.885E-12	650.764E-3	-12.4308E-3
3.23412E-3	125.490E-12	640.397E-3	-10.3060E-3	124.116E-12	617.491E-3	-5.71951E-3
3.22911E-3	126.340E-12	644.573E-3	1.85984E-3	123.462E-12	614.943E-3	-15.1605E-3
3.22411E-3	126.239E-12	657.532E-3	-5.34457E-3	124.043E-12	644.924E-3	-10.4063E-3
3.21911E-3	125.853E-12	667.271E-3	-5.81015E-3	124.101E-12	656.187E-3	-5.12378E-3
3.21411E-3	125.649E-12	665.719E-3	15.0807E-3	123.928E-12	662.215E-3	-1.18552E-3
3.20910E-3	125.579E-12	653.197E-3	17.5641E-3	123.673E-12	675.964E-3	-225.978E-6
3.20410E-3	125.142E-12	651.878E-3	354.989E-6	123.850E-12	678.829E-3	-11.7884E-3
3.19910E-3	124.504E-12	657.261E-3	1.43324E-3	123.980E-12	662.161E-3	-14.7135E-3
3.19410E-3	123.939E-12	645.219E-3	1.20428E-3	123.043E-12	642.186E-3	-3.92477E-3
3.18909E-3	122.952E-12	641.057E-3	-11.0332E-3	123.004E-12	625.193E-3	-4.66341E-3
3.18409E-3	122.169E-12	660.901E-3	-16.1684E-3	122.403E-12	614.367E-3	-13.0126E-3
3.17909E-3	121.426E-12	669.775E-3	-19.2935E-3	121.660E-12	627.599E-3	-8.42489E-3
3.17409E-3	120.530E-12	663.694E-3	-24.4383E-3	120.886E-12	646.749E-3	7.87752E-3
3.16908E-3	119.740E-12	649.638E-3	-20.5757E-3	120.860E-12	644.681E-3	3.97130E-3
3.16408E-3	119.443E-12	640.590E-3	-9.02365E-3	120.007E-12	638.276E-3	-14.6619E-3
3.15908E-3	119.063E-12	652.864E-3	-7.71447E-3	119.592E-12	633.294E-3	-21.7536E-3
3.15408E-3	118.595E-12	649.384E-3	-10.1234E-3	119.563E-12	621.027E-3	-15.2400E-3
3.14907E-3	118.669E-12	632.901E-3	-11.1061E-3	119.494E-12	623.976E-3	3.37464E-3
3.14407E-3	118.865E-12	634.343E-3	-20.3212E-3	119.788E-12	647.486E-3	-280.979E-6
3.13907E-3	119.039E-12	630.029E-3	-18.9471E-3	119.387E-12	670.171E-3	-15.2826E-3
3.13407E-3	119.398E-12	624.151E-3	-16.9049E-3	120.163E-12	676.600E-3	-4.04734E-3
3.12906E-3	120.170E-12	638.757E-3	-18.5059E-3	120.115E-12	670.183E-3	243.808E-6
3.12406E-3	119.992E-12	648.805E-3	4.29450E-3	120.545E-12	653.305E-3	-18.7395E-3
3.11906E-3	120.766E-12	642.966E-3	12.9712E-3	120.652E-12	633.412E-3	-25.9348E-3
3.11406E-3	121.090E-12	650.937E-3	-10.7024E-3	120.868E-12	620.292E-3	-15.1107E-3
3.10905E-3	121.042E-12	663.082E-3	-15.3026E-3	120.232E-12	607.651E-3	-26.6000E-3
3.10405E-3	121.385E-12	649.460E-3	-2.97057E-3	120.063E-12	613.997E-3	-45.1463E-3
3.09905E-3	121.874E-12	638.087E-3	-5.66239E-3	119.372E-12	636.289E-3	-36.3030E-3
3.09405E-3	121.205E-12	655.883E-3	-16.8133E-3	118.962E-12	643.459E-3	-29.7501E-3
3.08904E-3	120.350E-12	678.461E-3	-24.3996E-3	118.042E-12	647.323E-3	-24.9568E-3
3.08404E-3	119.731E-12	685.194E-3	-18.0291E-3	117.259E-12	657.854E-3	-20.4929E-3
3.07904E-3	118.640E-12	683.353E-3	-17.0890E-3	117.040E-12	660.787E-3	-26.6859E-3
3.07404E-3	117.510E-12	682.976E-3	-18.3735E-3	116.583E-12	656.787E-3	-22.4842E-3
3.06903E-3	116.546E-12	681.902E-3	-5.66183E-3	116.127E-12	641.845E-3	-10.6919E-3
3.06403E-3	115.683E-12	675.244E-3	-3.92936E-3	115.782E-12	634.064E-3	746.503E-6
3.05903E-3	114.764E-12	669.229E-3	-8.70768E-3	115.694E-12	651.368E-3	11.2279E-3
3.05403E-3	114.942E-12	674.229E-3	-15.2203E-3	115.611E-12	670.111E-3	12.1196E-3
3.04902E-3	114.142E-12	686.605E-3	-22.1332E-3	114.707E-12	673.667E-3	-1.84589E-3
3.04402E-3	114.388E-12	677.296E-3	-19.7151E-3	115.473E-12	655.637E-3	-13.7449E-3
3.03902E-3	114.997E-12	645.194E-3	-21.7118E-3	115.364E-12	642.914E-3	-14.6499E-3
3.03402E-3	115.233E-12	623.283E-3	-14.6149E-3	115.444E-12	653.585E-3	-14.4722E-3
3.02901E-3	115.544E-12	636.557E-3	10.6838E-3	115.415E-12	661.989E-3	-15.2655E-3
3.02401E-3	116.293E-12	662.776E-3	6.56328E-3	115.717E-12	657.983E-3	-27.3677E-3
3.01901E-3	116.685E-12	659.052E-3	-9.21452E-3	115.188E-12	652.154E-3	-34.1322E-3
3.01401E-3	117.117E-12	640.140E-3	-7.60991E-3	114.942E-12	639.435E-3	-14.7597E-3
3.00900E-3	117.296E-12	629.452E-3	-13.5402E-3	114.408E-12	636.225E-3	-2.19711E-3
3.00400E-3	117.520E-12	635.854E-3	-20.8715E-3	113.984E-12	664.253E-3	-13.2021E-3
2.99900E-3	117.275E-12	652.983E-3	-31.1411E-3	113.066E-12	679.677E-3	-23.1945E-3
2.99400E-3	116.587E-12	665.390E-3	-43.6076E-3	112.491E-12	669.911E-3	-24.1860E-3
2.98899E-3	115.527E-12	673.900E-3	-32.7583E-3	112.312E-12	657.766E-3	-28.3700E-3
2.98399E-3	114.425E-12	675.110E-3	-18.0027E-3	111.902E-12	646.548E-3	-34.6965E-3
2.97899E-3	113.307E-12	681.135E-3	-24.5682E-3	111.744E-12	643.752E-3	-34.1827E-3
2.97399E-3	112.060E-12	690.873E-3	-24.4693E-3	111.748E-12	654.123E-3	-33.7811E-3
2.96898E-3	110.391E-12	675.818E-3	-12.1195E-3	112.064E-12	652.473E-3	-35.2690E-3
2.96398E-3	109.504E-12	643.693E-3	-12.1034E-3	111.668E-12	633.273E-3	-44.6276E-3
2.95898E-3	108.796E-12	633.463E-3	-30.1266E-3	111.823E-12	629.305E-3	-48.4806E-3
2.95398E-3	107.987E-12	649.106E-3	-41.4742E-3	111.792E-12	642.570E-3	-25.3582E-3
2.94897E-3	107.771E-12	655.569E-3	-38.6001E-3	111.872E-12	657.786E-3	-1.18273E-3
2.94397E-3	108.349E-12	643.927E-3	-36.2420E-3	111.598E-12	659.322E-3	-2.97982E-3
2.93897E-3	108.380E-12	634.894E-3	-27.4026E-3	111.373E-12	650.311E-3	-23.8155E-3
2.93397E-3	108.959E-12	623.060E-3	-35.5851E-3	111.145E-12	646.466E-3	-40.9050E-3
2.92896E-3	109.649E-12	626.071E-3	-59.9486E-3	110.691E-12	654.189E-3	-49.7324E-3
2.92396E-3	110.285E-12	646.588E-3	-45.4000E-3	110.228E-12	666.863E-3	-44.3979E-3
2.91896E-3	111.022E-12	649.142E-3	-24.1431E-3	109.629E-12	666.210E-3	-30.0029E-3
2.91396E-3	111.625E-12	649.311E-3	-24.8107E-3	109.321E-12	663.967E-3	-23.5991E-3
2.90895E-3	112.157E-12	658.693E-3	-22.7649E-3	108.264E-12	667.705E-3	-17.3600E-3
2.90395E-3	112.315E-12	659.887E-3	-26.5691E-3	107.743E-12	660.743E-3	-917.645E-6
2.89895E-3	112.089E-12	665.435E-3	-32.8120E-3	107.633E-12	656.319E-3	7.89801E-3
2.89395E-3	111.835E-12	681.255E-3	-30.5050E-3	107.560E-12	658.576E-3	-12.2830E-3
2.88894E-3	111.641E-12	693.654E-3	-17.8453E-3	107.341E-12	656.369E-3	-34.4196E-3
2.88394E-3	110.627E-12	697.434E-3	-14.6914E-3	107.556E-12	663.136E-3	-31.6186E-3
2.87894E-3	109.877E-12	689.185E-3	-22.1551E-3	107.816E-12	658.334E-3	-17.4359E-3
2.87394E-3	108.904E-12	670.911E-3	-25.6779E-3	108.139E-12	635.169E-3	-8.14839E-3
2.86893E-3	107.996E-12	657.303E-3	-27.8382E-3	108.146E-12	639.584E-3	-3.64406E-3
2.86393E-3	106.964E-12	655.669E-3	-18.0471E-3	108.239E-12	675.687E-3	-7.89793E-3
2.85893E-3	106.380E-12	642.923E-3	-3.16274E-3	108.051E-12	703.486E-3	-18.0357E-3
2.85393E-3	105.550E-12	643.053E-3	3.72687E-3	108.061E-12	694.530E-3	-12.1975E-3
2.84892E-3	104.921E-12	669.871E-3	6.39632E-3	107.440E-12	667.318E-3	3.38647E-3
2.84392E-3	104.606E-12	674.392E-3	-2.55954E-3	106.879E-12	647.611E-3	1.21358E-3
2.83892E-3	104.622E-12	659.998E-3	-18.1794E-3	106.340E-12	639.582E-3	-11.3967E-3
2.83392E-3	104.237E-12	651.011E-3	-23.9440E-3	105.709E-12	647.241E-3	-8.59305E-3
2.82891E-3	104.482E-12	643.112E-3	-25.6350E-3	105.254E-12	660.882E-3	-2.75858E-3
2.82391E-3	105.233E-12	635.120E-3	-27.8876E-3	104.805E-12	655.869E-3	-10.8628E-3
2.81891E-3	106.036E-12	641.359E-3	-20.9518E-3	104.438E-12	650.206E-3	-16.9876E-3
2.81391E-3	106.253E-12	651.810E-3	-13.5750E-3	103.976E-12	674.636E-3	-10.4600E-3
2.80890E-3	106.776E-12	646.300E-3	-33.0909E-3	104.025E-12	694.092E-3	4.71224E-3
2.80390E-3	107.345E-12	649.589E-3	-53.8373E-3	104.445E-12	684.729E-3	7.96969E-3
2.79890E-3	107.795E-12	667.847E-3	-51.2980E-3	104.392E-12	670.361E-3	-15.2873E-3
2.79390E-3	108.012E-12	672.820E-3	-41.9255E-3	104.571E-12	676.613E-3	-29.4194E-3
2.78889E-3	108.202E-12	674.360E-3	-24.3483E-3	104.925E-12	688.827E-3	-20.2158E-3
2.78389E-3	107.340E-12	690.660E-3	-8.20885E-3	105.040E-12	681.640E-3	-26.8350E-3
2.77889E-3	106.887E-12	696.697E-3	-8.67657E-3	105.175E-12	671.539E-3	-34.3396E-3
2.77389E-3	106.511E-12	692.180E-3	-18.5325E-3	105.194E-12	682.492E-3	-15.8284E-3
2.76888E-3	106.178E-12	694.223E-3	-12.6839E-3	105.106E-12	704.022E-3	-2.08098E-3
2.76388E-3	104.873E-12	682.556E-3	-5.33785E-3	104.518E-12	703.494E-3	2.21260E-3
2.75888E-3	103.835E-12	659.872E-3	-19.4099E-3	104.771E-12	684.901E-3	-3.87431E-3
2.75388E-3	103.236E-12	659.072E-3	-37.7893E-3	104.201E-12	664.894E-3	-20.4674E-3
2.74887E-3	102.283E-12	671.091E-3	-41.5273E-3	103.956E-12	652.049E-3	-16.8509E-3
2.74387E-3	101.628E-12	672.984E-3	-31.8900E-3	102.911E-12	657.926E-3	-8.30462E-3
2.73887E-3	100.894E-12	673.653E-3	-29.6326E-3	103.223E-12	676.108E-3	-9.90953E-3
2.73387E-3	100.379E-12	668.831E-3	-33.5637E-3	102.499E-12	685.390E-3	1.92165E-3
2.72886E-3	100.281E-12	652.035E-3	-35.9338E-3	102.426E-12	677.730E-3	7.50137E-3
2.72386E-3	100.181E-12	652.918E-3	-35.3692E-3	101.886E-12	666.474E-3	-10.0827E-3
2.71886E-3	100.005E-12	660.117E-3	-28.4526E-3	102.197E-12	669.724E-3	-22.9457E-3
2.71386E-3	100.481E-12	655.318E-3	-17.6490E-3	101.909E-12	686.081E-3	-19.9102E-3
2.70885E-3	100.567E-12	667.194E-3	-5.22770E-3	101.558E-12	705.210E-3	-25.1172E-3
2.70385E-3	101.096E-12	673.160E-3	9.55892E-3	101.230E-12	702.402E-3	-34.5053E-3
2.69885E-3	101.125E-12	665.190E-3	22.9380E-3	101.265E-12	674.298E-3	-25.6117E-3
2.69385E-3	101.728E-12	681.482E-3	10.4048E-3	100.909E-12	663.507E-3	-21.7276E-3
2.68884E-3	102.066E-12	694.216E-3	-13.2934E-3	100.314E-12	678.429E-3	-30.3593E-3
2.68384E-3	101.744E-12	681.406E-3	-23.4391E-3	99.7125E-12	699.904E-3	-27.7174E-3
2.67884E-3	101.916E-12	677.012E-3	-17.6470E-3	99.5230E-12	710.327E-3	-18.6082E-3
2.67384E-3	101.524E-12	683.340E-3	2.50752E-3	98.7325E-12	693.517E-3	-14.3078E-3
2.66883E-3	101.058E-12	678.467E-3	13.7088E-3	98.4639E-12	677.777E-3	-10.7989E-3
2.66383E-3	100.135E-12	664.002E-3	13.6325E-3	97.8112E-12	681.343E-3	-6.27938E-3
2.65883E-3	99.4433E-12	652.863E-3	4.48600E-3	97.6651E-12	679.093E-3	-7.25752E-3
2.65383E-3	98.5321E-12	652.059E-3	-10.3805E-3	97.1385E-12	670.496E-3	-10.5807E-3
2.64882E-3	97.6468E-12	656.773E-3	-10.3833E-3	97.0422E-12	667.591E-3	-7.19697E-3
2.64382E-3	96.8631E-12	655.315E-3	-10.0184E-3	96.9040E-12	669.788E-3	-4.42021E-3
2.63882E-3	96.1213E-12	651.401E-3	-19.8031E-3	97.0113E-12	680.371E-3	862.532E-6
2.63382E-3	95.5067E-12	654.252E-3	-24.8192E-3	96.9272E-12	690.832E-3	-1.26279E-3
2.62881E-3	95.4672E-12	665.725E-3	-32.6822E-3	97.4808E-12	687.637E-3	-19.6599E-3
2.62381E-3	94.9242E-12	674.042E-3	-30.0264E-3	97.8050E-12	682.778E-3	-32.3600E-3
2.61881E-3	95.2811E-12	675.657E-3	-13.6113E-3	97.4217E-12	689.225E-3	-39.0951E-3
2.61381E-3	95.1121E-12	668.244E-3	-6.70355E-3	97.1686E-12	692.011E-3	-43.5461E-3
2.60880E-3	95.5303E-12	655.043E-3	-5.07395E-3	96.9788E-12	694.772E-3	-33.0550E-3
2.60380E-3	95.7820E-12	655.101E-3	-3.79266E-3	97.1073E-12	692.198E-3	-9.32708E-3
2.59880E-3	96.2996E-12	663.806E-3	-1.23772E-3	96.0336E-12	671.299E-3	-4.00145E-3
2.59380E-3	96.5960E-12	672.099E-3	-4.38109E-3	95.3842E-12	666.100E-3	-19.8723E-3
2.58879E-3	96.7075E-12	673.702E-3	-16.5921E-3	94.9187E-12	682.718E-3	-24.1511E-3
2.58379E-3	96.9930E-12	671.775E-3	-22.2102E-3	94.1426E-12	688.882E-3	-16.7526E-3
2.57879E-3	96.7827E-12	679.146E-3	-19.2738E-3	93.0203E-12	670.844E-3	-19.1143E-3
2.57379E-3	96.5984E-12	693.406E-3	-13.5473E-3	93.1201E-12	653.989E-3	-22.8818E-3
2.56878E-3	96.3947E-12	697.334E-3	-10.9486E-3	92.6863E-12	662.720E-3	-10.9030E-3
2.56378E-3	95.8957E-12	685.575E-3	-5.09363E-3	92.1694E-12	675.843E-3	2.35359E-3
2.55878E-3	95.0576E-12	685.819E-3	-5.63273E-3	92.7781E-12	675.415E-3	-57.6871E-6
2.55378E-3	94.2580E-12	691.214E-3	-22.8791E-3	92.9490E-12	661.927E-3	-10.7418E-3
2.54877E-3	93.8679E-12	683.393E-3	-28.9779E-3	93.3768E-12	655.769E-3	-20.9578E-3
2.54377E-3	92.7542E-12	678.708E-3	-21.9504E-3	93.4120E-12	676.196E-3	-32.0273E-3
2.53877E-3	91.8487E-12	672.194E-3	-10.5893E-3	94.1017E-12	700.938E-3	-45.7996E-3
2.53377E-3	91.4979E-12	663.798E-3	-7.73330E-3	94.2584E-12	701.552E-3	-57.3028E-3
2.52876E-3	91.1804E-12	664.727E-3	-20.3795E-3	94.5367E-12	691.110E-3	-45.2604E-3
2.52376E-3	91.3050E-12	665.007E-3	-27.3872E-3	94.2792E-12	689.910E-3	-29.3401E-3
2.51876E-3	91.1134E-12	660.480E-3	-19.5599E-3	94.3781E-12	691.211E-3	-29.7889E-3
2.51376E-3	91.4262E-12	665.800E-3	-16.2715E-3	93.9532E-12	688.837E-3	-15.7168E-3
2.50875E-3	91.5647E-12	678.182E-3	-25.2088E-3	93.2871E-12	682.859E-3	142.735E-6
2.50375E-3	92.0575E-12	680.162E-3	-25.7031E-3	92.4752E-12	673.792E-3	-6.82066E-3
2.49875E-3	92.3935E-12	674.890E-3	-21.1451E-3	91.7781E-12	664.359E-3	-16.8584E-3
2.49375E-3	92.9410E-12	679.411E-3	-14.5473E-3	90.7914E-12	663.890E-3	-25.9637E-3
2.48874E-3	93.1191E-12	691.038E-3	-12.9763E-3	89.8549E-12	670.560E-3	-25.0083E-3
2.48374E-3	92.9723E-12	696.601E-3	-22.1784E-3	89.2407E-12	680.988E-3	-8.76435E-3
2.47874E-3	92.9552E-12	704.188E-3	-19.3163E-3	88.6458E-12	702.406E-3	1.84685E-3
2.47374E-3	93.0488E-12	709.645E-3	-8.81720E-3	88.1301E-12	713.965E-3	-9.04612E-3
2.46873E-3	92.2745E-12	706.580E-3	-17.5451E-3	88.0221E-12	688.546E-3	-12.7214E-3
2.46373E-3	91.4467E-12	701.489E-3	-30.2386E-3	87.8729E-12	656.744E-3	3.99132E-3
2.45873E-3	91.3220E-12	692.751E-3	-28.2744E-3	88.0623E-12	652.394E-3	7.75189E-3
2.45373E-3	90.2942E-12	685.669E-3	-16.0420E-3	88.1142E-12	667.169E-3	3.53031E-3
2.44872E-3	89.1587E-12	691.341E-3	-6.14781E-3	88.8008E-12	691.352E-3	-7.84164E-3
2.44372E-3	88.3390E-12	687.822E-3	-11.7193E-3	88.9269E-12	709.258E-3	-28.4259E-3
2.43872E-3	87.6072E-12	670.824E-3	-26.6467E-3	89.1400E-12	703.875E-3	-34.4416E-3
2.43372E-3	86.9490E-12	667.055E-3	-38.5454E-3	89.3567E-12	687.420E-3	-22.8621E-3
2.42871E-3	86.5491E-12	671.037E-3	-29.4591E-3	89.3976E-12	682.886E-3	-9.19779E-3
2.42371E-3	86.1626E-12	665.514E-3	-8.46842E-3	89.4457E-12	682.624E-3	-166.512E-6
2.41871E-3	85.9796E-12	673.124E-3	-1.08917E-3	88.5664E-12	672.105E-3	-3.75863E-3
2.41371E-3	85.7680E-12	697.843E-3	-1.20446E-3	88.2454E-12	669.185E-3	-17.3281E-3
2.40870E-3	85.8463E-12	693.776E-3	-4.45761E-3	87.6276E-12	669.809E-3	-17.4906E-3
2.40370E-3	86.0270E-12	674.767E-3	-22.1135E-3	86.8310E-12	668.648E-3	-9.21888E-3
2.39870E-3	86.0090E-12	678.468E-3	-38.3156E-3	85.9721E-12	669.148E-3	-13.1889E-3
2.39370E-3	85.9081E-12	686.615E-3	-29.0612E-3	85.7524E-12	655.131E-3	-23.8809E-3
2.38869E-3	86.2281E-12	686.486E-3	-12.0805E-3	84.8704E-12	655.444E-3	-33.7325E-3
2.38369E-3	86.2023E-12	683.933E-3	-7.35693E-3	84.7335E-12	670.459E-3	-45.1762E-3
2.37869E-3	86.3461E-12	675.172E-3	-9.17040E-3	84.1783E-12	680.976E-3	-40.2456E-3
2.37369E-3	85.8955E-12	671.202E-3	-9.24692E-3	84.2594E-12	696.774E-3	-13.2166E-3
2.36868E-3	85.5872E-12	690.241E-3	801.252E-6	84.2176E-12	706.026E-3	-1.55349E-3
2.36368E-3	85.5234E-12	703.366E-3	12.1960E-3	84.5301E-12	710.559E-3	-15.2459E-3
2.35868E-3	85.1451E-12	697.097E-3	14.1870E-3	84.2181E-12	711.915E-3	-23.8321E-3
2.35368E-3	84.5914E-12	686.667E-3	13.7427E-3	84.7989E-12	707.011E-3	-20.7710E-3
2.34867E-3	84.1775E-12	672.166E-3	5.58264E-3	85.0404E-12	706.895E-3	-7.18990E-3
2.34367E-3	83.5409E-12	680.332E-3	-9.56054E-3	84.6066E-12	708.573E-3	17.5272E-3
2.33867E-3	83.0225E-12	705.545E-3	-19.8890E-3	84.5885E-12	699.241E-3	22.4160E-3
2.33367E-3	82.7478E-12	706.103E-3	-31.5400E-3	84.4828E-12	689.890E-3	9.06096E-3
2.32866E-3	82.4018E-12	692.274E-3	-41.9979E-3	84.4284E-12	688.493E-3	-3.36383E-3
2.32366E-3	82.2037E-12	693.991E-3	-31.7032E-3	83.3855E-12	686.794E-3	-15.5082E-3
2.31866E-3	81.8038E-12	703.113E-3	-17.8482E-3	83.4890E-12	677.530E-3	-18.9348E-3
2.31366E-3	81.4845E-12	703.123E-3	-29.5426E-3	82.8713E-12	664.571E-3	-15.6215E-3
2.30865E-3	81.3302E-12	699.991E-3	-34.0140E-3	82.6777E-12	680.384E-3	-6.33564E-3
2.30365E-3	81.3961E-12	698.256E-3	-15.6792E-3	82.1608E-12	701.177E-3	5.23274E-3
2.29865E-3	81.2854E-12	691.807E-3	-10.7610E-3	82.1087E-12	693.471E-3	12.7937E-3
2.29365E-3	81.3062E-12	688.679E-3	-19.1819E-3	82.0290E-12	691.000E-3	11.5417E-3
2.28864E-3	81.4068E-12	684.836E-3	-17.1208E-3	81.4956E-12	695.776E-3	-1.02235E-3
2.28364E-3	81.8818E-12	674.914E-3	-14.9579E-3	81.6882E-12	693.035E-3	-10.3922E-3
2.27864E-3	82.1749E-12	681.388E-3	-22.3275E-3	81.4351E-12	694.306E-3	-19.2898E-3
2.27364E-3	82.2094E-12	695.176E-3	-18.7552E-3	81.2063E-12	706.799E-3	-36.0831E-3
2.26863E-3	82.5728E-12	701.514E-3	-4.47903E-3	80.7261E-12	719.625E-3	-48.7352E-3
2.26363E-3	82.2422E-12	707.223E-3	-4.65699E-3	80.9152E-12	712.379E-3	-41.9450E-3
2.25863E-3	82.2910E-12	698.535E-3	-13.5728E-3	80.5690E-12	699.082E-3	-25.6339E-3
2.25363E-3	81.9862E-12	689.592E-3	-9.77125E-3	79.7562E-12	696.079E-3	-16.0923E-3
2.24862E-3	81.6626E-12	699.240E-3	-12.0715E-3	79.2406E-12	689.880E-3	-17.1242E-3
2.24362E-3	81.0904E-12	725.523E-3	-25.7995E-3	79.2580E-12	685.219E-3	-26.4859E-3
2.23862E-3	80.7067E-12	748.723E-3	-30.5699E-3	78.6632E-12	695.310E-3	-23.9324E-3
2.23362E-3	80.0511E-12	736.825E-3	-28.5270E-3	78.3116E-12	715.915E-3	-11.5342E-3
2.22861E-3	79.6158E-12	715.453E-3	-21.7527E-3	78.2746E-12	733.612E-3	-15.1933E-3
2.22361E-3	79.0234E-12	714.883E-3	-16.6326E-3	78.3051E-12	737.777E-3	-19.4118E-3
2.21861E-3	78.5163E-12	721.104E-3	-6.74740E-3	78.2810E-12	730.862E-3	-14.9788E-3
2.21361E-3	77.9393E-12	717.990E-3	13.1698E-3	78.2436E-12	734.387E-3	-21.2684E-3
2.20860E-3	77.6524E-12	710.861E-3	11.5316E-3	78.1606E-12	743.294E-3	-34.4232E-3
2.20360E-3	77.6125E-12	705.817E-3	-16.8864E-3	77.8848E-12	734.415E-3	-42.4768E-3
2.19860E-3	77.4064E-12	709.414E-3	-29.5161E-3	77.9354E-12	717.601E-3	-37.6953E-3
2.19360E-3	77.7514E-12	716.942E-3	-29.2998E-3	77.9619E-12	704.190E-3	-35.0680E-3
2.18859E-3	77.8723E-12	712.729E-3	-39.3191E-3	77.8476E-12	709.570E-3	-29.1312E-3
2.18359E-3	78.3141E-12	712.837E-3	-40.1675E-3	77.5112E-12	718.831E-3	-16.9297E-3
2.17859E-3	78.2290E-12	719.359E-3	-33.1178E-3	77.4003E-12	717.803E-3	-18.1342E-3
2.17359E-3	78.2078E-12	733.960E-3	-33.2805E-3	77.0441E-12	725.246E-3	-15.1118E-3
2.16858E-3	78.2785E-12	746.136E-3	-29.7476E-3	76.6935E-12	733.276E-3	-2.58230E-3
2.16358E-3	78.1107E-12	742.901E-3	-15.9061E-3	76.0871E-12	733.873E-3	7.56432E-3
2.15858E-3	77.9862E-12	745.798E-3	-15.3151E-3	75.4860E-12	728.031E-3	10.9285E-3
2.15358E-3	77.2822E-12	754.577E-3	-31.2984E-3	75.3980E-12	731.817E-3	-4.70593E-3
2.14857E-3	76.6498E-12	754.675E-3	-43.2588E-3	74.7485E-12	739.267E-3	-26.1252E-3
2.14357E-3	75.7405E-12	742.430E-3	-39.1280E-3	74.2868E-12	724.402E-3	-30.3086E-3
2.13857E-3	74.9309E-12	733.972E-3	-24.8114E-3	74.0932E-12	705.005E-3	-28.4028E-3
2.13357E-3	74.1312E-12	729.303E-3	-17.6046E-3	74.1389E-12	697.682E-3	-31.7608E-3
2.12856E-3	73.3242E-12	724.013E-3	-18.0429E-3	73.7517E-12	700.887E-3	-33.3733E-3
2.12356E-3	72.4876E-12	732.197E-3	-22.1183E-3	73.9794E-12	724.989E-3	-27.3058E-3
2.11856E-3	71.6945E-12	743.222E-3	-28.4561E-3	73.8153E-12	752.472E-3	-18.6140E-3
2.11356E-3	71.3603E-12	732.727E-3	-29.0348E-3	73.7300E-12	757.801E-3	-9.17021E-3
2.10855E-3	70.8139E-12	713.560E-3	-20.8686E-3	74.0346E-12	757.469E-3	-6.09579E-3
2.10355E-3	70.6653E-12	701.343E-3	-22.4077E-3	73.9528E-12	759.141E-3	-16.1392E-3
2.09855E-3	70.5423E-12	693.042E-3	-32.7031E-3	74.0711E-12	747.486E-3	-14.7590E-3
2.09355E-3	71.0152E-12	689.404E-3	-27.1674E-3	73.3195E-12	741.956E-3	-6.81903E-3
2.08854E-3	71.0454E-12	697.360E-3	-7.95810E-3	72.9641E-12	747.351E-3	-18.5446E-3
2.08354E-3	71.3438E-12	716.096E-3	-2.61788E-3	72.4577E-12	746.754E-3	-19.2657E-3
2.07854E-3	71.6275E-12	727.242E-3	-1.75133E-3	71.9043E-12	747.747E-3	-10.0548E-3
2.07354E-3	71.7303E-12	724.010E-3	9.51678E-3	70.8010E-12	735.343E-3	-26.6324E-3
2.06853E-3	71.7423E-12	719.921E-3	2.37375E-3	70.3340E-12	714.626E-3	-31.6160E-3
2.06353E-3	72.0372E-12	718.827E-3	-17.6820E-3	69.6908E-12	719.210E-3	-7.61380E-3
2.05853E-3	71.6352E-12	724.229E-3	-16.7583E-3	69.0348E-12	727.081E-3	-4.70051E-3
2.05353E-3	71.7619E-12	733.982E-3	-10.3791E-3	68.7084E-12	725.554E-3	-21.5730E-3
2.04852E-3	71.1862E-12	735.749E-3	-19.4961E-3	68.3950E-12	738.318E-3	-20.5235E-3
2.04352E-3	71.1020E-12	732.051E-3	-27.9799E-3	68.2416E-12	749.311E-3	-18.9234E-3
2.03852E-3	70.1293E-12	727.988E-3	-28.0486E-3	68.3615E-12	746.372E-3	-19.2064E-3
2.03352E-3	69.6913E-12	731.930E-3	-21.9015E-3	68.4003E-12	749.114E-3	1.18751E-3
2.02851E-3	68.8828E-12	740.338E-3	-13.8937E-3	68.4702E-12	756.661E-3	2.42531E-3
2.02351E-3	68.2452E-12	740.579E-3	-16.0823E-3	68.4552E-12	763.055E-3	-23.7714E-3
2.01851E-3	67.5056E-12	738.476E-3	-24.2828E-3	68.6228E-12	769.713E-3	-26.7186E-3
2.01351E-3	67.0511E-12	748.689E-3	-25.5705E-3	68.5761E-12	765.364E-3	-12.7222E-3
2.00850E-3	66.7137E-12	760.154E-3	-20.9622E-3	68.3855E-12	754.305E-3	-13.9609E-3
2.00350E-3	66.2595E-12	760.446E-3	-19.7058E-3	68.2181E-12	747.039E-3	-20.8762E-3
1.99850E-3	66.0242E-12	746.578E-3	-18.3204E-3	67.7408E-12	744.663E-3	-19.3231E-3
1.99350E-3	65.9780E-12	732.085E-3	-9.85161E-3	67.3596E-12	754.601E-3	-11.1179E-3
1.98849E-3	66.0387E-12	735.049E-3	-8.33760E-3	67.0355E-12	760.295E-3	-857.735E-6
1.98349E-3	65.7893E-12	746.634E-3	-11.7434E-3	66.0824E-12	750.695E-3	-3.13197E-3
1.97849E-3	65.9985E-12	751.971E-3	-8.93720E-3	65.4273E-12	746.674E-3	-17.1164E-3
1.97349E-3	66.2804E-12	744.629E-3	-18.9200E-3	64.8901E-12	752.745E-3	-16.0951E-3
1.96848E-3	66.1482E-12	742.342E-3	-33.2163E-3	64.4658E-12	763.548E-3	-13.5152E-3
1.96348E-3	66.4795E-12	743.154E-3	-31.7186E-3	63.8711E-12	771.883E-3	-25.6212E-3
1.95848E-3	66.5886E-12	741.571E-3	-30.9810E-3	63.9373E-12	758.623E-3	-26.6727E-3
1.95348E-3	66.7701E-12	762.165E-3	-23.3487E-3	63.6787E-12	744.002E-3	-25.8009E-3
1.94847E-3	66.8550E-12	785.830E-3	-5.49842E-3	63.9201E-12	755.507E-3	-37.4713E-3
1.94347E-3	66.5924E-12	783.736E-3	-12.3864E-3	63.9828E-12	770.987E-3	-39.1646E-3
1.93847E-3	66.2380E-12	779.252E-3	-23.6836E-3	64.3989E-12	773.243E-3	-20.2937E-3
1.93347E-3	65.9134E-12	791.156E-3	-17.3782E-3	64.5375E-12	780.649E-3	-9.07454E-3
1.92846E-3	65.2458E-12	800.950E-3	-27.0363E-3	64.9077E-12	789.504E-3	-20.1676E-3
1.92346E-3	64.5092E-12	798.202E-3	-39.3454E-3	64.9436E-12	786.393E-3	-24.3305E-3
1.91846E-3	63.9229E-12	787.485E-3	-23.1907E-3	64.8716E-12	782.247E-3	-11.3571E-3
1.91346E-3	63.4872E-12	777.374E-3	-2.39616E-3	64.6426E-12	779.240E-3	-6.16103E-3
1.90845E-3	62.7411E-12	776.629E-3	-7.26722E-3	64.2474E-12	785.353E-3	-11.1082E-3
1.90345E-3	62.1084E-12	780.288E-3	-15.7485E-3	64.0343E-12	800.925E-3	-10.4498E-3
1.89845E-3	61.8076E-12	781.092E-3	-15.9469E-3	63.6147E-12	807.901E-3	-9.48275E-3
1.89345E-3	61.3399E-12	788.356E-3	-22.6850E-3	62.7579E-12	808.639E-3	-11.4475E-3
1.88844E-3	60.9216E-12	791.728E-3	-33.1012E-3	61.9365E-12	806.876E-3	-15.9438E-3
1.88344E-3	60.7200E-12	775.309E-3	-42.0940E-3	61.4415E-12	786.399E-3	-26.5451E-3
1.87844E-3	60.7642E-12	771.083E-3	-32.6836E-3	61.1338E-12	771.400E-3	-29.1067E-3
1.87344E-3	60.6046E-12	777.296E-3	-20.6378E-3	60.3108E-12	794.393E-3	-22.2215E-3
1.86843E-3	60.8744E-12	775.818E-3	-33.4824E-3	59.9833E-12	816.767E-3	-24.9792E-3
1.86343E-3	61.1315E-12	779.105E-3	-34.0136E-3	60.0196E-12	810.223E-3	-28.3812E-3
1.85843E-3	61.0788E-12	782.633E-3	-18.8716E-3	59.9023E-12	810.888E-3	-21.9467E-3
1.85343E-3	61.2545E-12	786.788E-3	-26.2427E-3	59.9595E-12	824.379E-3	-21.0709E-3
1.84842E-3	60.9010E-12	800.995E-3	-41.0046E-3	59.9280E-12	826.136E-3	-16.8700E-3
1.84342E-3	61.0902E-12	819.042E-3	-37.0622E-3	60.0088E-12	830.149E-3	-7.42919E-3
1.83842E-3	60.9547E-12	830.276E-3	-26.2806E-3	59.8843E-12	835.153E-3	-8.43123E-3
1.83342E-3	60.7544E-12	832.819E-3	-19.1494E-3	59.7811E-12	835.680E-3	-5.77881E-3
1.82841E-3	60.3716E-12	833.462E-3	-3.67901E-3	59.7444E-12	843.432E-3	-2.68302E-3
1.82341E-3	60.1222E-12	825.836E-3	4.65998E-3	59.4305E-12	844.501E-3	-16.9566E-3
1.81841E-3	59.2209E-12	814.590E-3	-9.68474E-3	58.9373E-12	833.995E-3	-26.9382E-3
1.81341E-3	58.7149E-12	820.912E-3	-20.0860E-3	58.3335E-12	837.181E-3	-18.8410E-3
1.80840E-3	58.0119E-12	832.396E-3	-20.3145E-3	58.1435E-12	845.312E-3	-9.91230E-3
1.80340E-3	57.2065E-12	836.359E-3	-16.7287E-3	57.7648E-12	829.568E-3	-10.7018E-3
1.79840E-3	56.6656E-12	835.578E-3	-5.73323E-3	57.1337E-12	812.991E-3	-21.4101E-3
1.79340E-3	56.0492E-12	826.324E-3	-7.29136E-3	56.7917E-12	812.142E-3	-32.6674E-3
1.78839E-3	55.4521E-12	813.568E-3	-24.7109E-3	56.6754E-12	821.215E-3	-21.7057E-3
1.78339E-3	55.0263E-12	803.548E-3	-21.8935E-3	56.4165E-12	832.458E-3	11.1009E-3
1.77839E-3	54.6969E-12	797.070E-3	-7.78346E-3	55.8405E-12	840.188E-3	17.3555E-3
1.77339E-3	54.5823E-12	808.883E-3	-13.8263E-3	55.5207E-12	847.610E-3	-7.12313E-3
1.76838E-3	54.4110E-12	838.503E-3	-17.3098E-3	55.6542E-12	858.304E-3	-21.5594E-3
1.76338E-3	54.3486E-12	855.343E-3	-2.67521E-3	55.1842E-12	871.329E-3	-31.4605E-3
1.75838E-3	54.7643E-12	854.583E-3	5.34581E-3	54.9750E-12	868.566E-3	-34.9420E-3
1.75338E-3	54.9376E-12	855.262E-3	-4.50641E-3	54.5773E-12	860.028E-3	-18.5722E-3
1.74837E-3	54.8010E-12	859.063E-3	-15.4929E-3	54.3817E-12	866.617E-3	-8.44641E-3
1.74337E-3	55.1655E-12	862.799E-3	-24.0364E-3	54.0248E-12	866.568E-3	-10.7558E-3
1.73837E-3	55.1829E-12	870.569E-3	-23.1908E-3	53.7168E-12	863.308E-3	-14.6739E-3
1.73337E-3	55.2386E-12	873.492E-3	-12.2410E-3	53.3065E-12	870.265E-3	-26.4801E-3
1.72836E-3	54.6219E-12	870.911E-3	-12.0232E-3	52.9318E-12	872.005E-3	-30.5885E-3
1.72336E-3	54.3080E-12	869.308E-3	-16.6420E-3	52.4045E-12	873.527E-3	-15.5649E-3
1.71836E-3	53.6502E-12	872.077E-3	-15.9055E-3	52.2199E-12	877.319E-3	-11.1217E-3
1.71336E-3	53.1042E-12	880.083E-3	-12.8904E-3	51.9289E-12	876.019E-3	-30.0801E-3
1.70835E-3	52.3707E-12	886.859E-3	-7.86514E-3	51.5803E-12	878.370E-3	-30.9251E-3
1.70335E-3	51.8228E-12	895.946E-3	-1.16671E-3	51.4444E-12	885.993E-3	-4.04824E-3
1.69835E-3	51.1375E-12	902.542E-3	553.685E-6	51.2994E-12	886.005E-3	750.715E-6
1.69335E-3	50.4534E-12	894.498E-3	-8.04117E-3	51.3573E-12	890.567E-3	-10.9661E-3
1.68834E-3	49.7754E-12	878.713E-3	-28.9055E-3	51.0967E-12	905.278E-3	-12.3480E-3
1.68334E-3	49.4900E-12	877.440E-3	-53.1005E-3	50.9290E-12	899.675E-3	-4.92111E-3
1.67834E-3	49.1302E-12	881.819E-3	-52.5254E-3	50.6402E-12	894.514E-3	1.44978E-3
1.67334E-3	48.6379E-12	878.796E-3	-36.3138E-3	50.4746E-12	919.955E-3	-15.0067E-3
1.66833E-3	48.2766E-12	878.958E-3	-33.8676E-3	50.0580E-12	929.984E-3	-34.7418E-3
1.66333E-3	48.3866E-12	886.454E-3	-37.7978E-3	49.7505E-12	926.402E-3	-32.4390E-3
1.65833E-3	48.5150E-12	893.363E-3	-34.3173E-3	49.1703E-12	939.480E-3	-23.3393E-3
1.65333E-3	48.2781E-12	891.002E-3	-20.5978E-3	48.5995E-12	939.118E-3	-19.6314E-3
1.64832E-3	48.4761E-12	893.362E-3	-15.6342E-3	48.3853E-12	920.222E-3	-20.3813E-3
1.64332E-3	48.7978E-12	911.089E-3	-14.1366E-3	47.6592E-12	904.852E-3	-15.7186E-3
1.63832E-3	48.7683E-12	936.203E-3	-5.37800E-3	47.0297E-12	905.243E-3	-13.3339E-3
1.63332E-3	48.7085E-12	957.018E-3	-8.20089E-3	46.6106E-12	912.159E-3	-17.3331E-3
1.62831E-3	48.5521E-12	958.553E-3	-18.8835E-3	46.1878E-12	921.210E-3	-17.1956E-3
1.62331E-3	48.4826E-12	944.976E-3	-27.7164E-3	45.6587E-12	938.896E-3	-21.9975E-3
1.61831E-3	47.8198E-12	944.800E-3	-21.6385E-3	45.4787E-12	954.630E-3	-24.1150E-3
1.61331E-3	47.3511E-12	964.424E-3	-3.04946E-3	45.4160E-12	962.210E-3	-13.9978E-3
1.60830E-3	47.0214E-12	976.951E-3	735.726E-6	45.4533E-12	970.705E-3	-7.52409E-3
1.60330E-3	46.0857E-12	971.560E-3	-10.2922E-3	45.5804E-12	986.996E-3	-2.46449E-3
1.59830E-3	45.4170E-12	969.852E-3	-23.3336E-3	45.4017E-12	999.707E-3	-323.286E-6
1.59330E-3	44.9555E-12	976.237E-3	-34.6349E-3	45.5781E-12	1.00384E+0	-14.8224E-3
1.58829E-3	44.4627E-12	978.778E-3	-34.1468E-3	45.4698E-12	1.00108E+0	-28.5202E-3
1.58329E-3	43.5555E-12	967.785E-3	-24.5487E-3	45.2891E-12	991.245E-3	-20.6076E-3
1.57829E-3	43.1618E-12	946.746E-3	-12.6589E-3	45.0395E-12	978.053E-3	-5.86941E-3
1.57329E-3	42.6596E-12	942.368E-3	-6.04252E-3	44.6663E-12	973.110E-3	-690.299E-6
1.56828E-3	42.2791E-12	952.069E-3	-8.99253E-3	43.9416E-12	977.058E-3	4.09161E-3
1.56328E-3	42.1417E-12	959.592E-3	-13.8676E-3	43.2366E-12	983.663E-3	2.53352E-3
1.55828E-3	42.0539E-12	970.632E-3	-18.9892E-3	42.5635E-12	980.190E-3	-9.69829E-3
1.55328E-3	41.4508E-12	980.841E-3	-14.2929E-3	42.1463E-12	960.288E-3	-16.2203E-3
1.54827E-3	41.5769E-12	985.431E-3	-1.42376E-3	41.5126E-12	957.531E-3	-19.3733E-3
1.54327E-3	41.5723E-12	992.896E-3	3.75759E-3	40.6757E-12	973.185E-3	-23.6278E-3
1.53827E-3	41.2624E-12	1.00873E+0	567.321E-6	40.3701E-12	985.422E-3	-16.4227E-3
1.53327E-3	41.0812E-12	1.01224E+0	-266.488E-6	40.1709E-12	1.00254E+0	-4.80103E-3
1.52826E-3	41.2074E-12	1.00378E+0	59.1777E-6	39.6389E-12	1.01071E+0	-5.68139E-3
1.52326E-3	40.8240E-12	999.413E-3	-6.99965E-3	39.3360E-12	1.00823E+0	-13.0613E-3
1.51826E-3	40.4198E-12	992.402E-3	-9.11420E-3	39.4167E-12	1.02094E+0	-10.9818E-3
1.51326E-3	40.2569E-12	990.639E-3	-1.24961E-3	39.4242E-12	1.03373E+0	-9.44795E-3
1.50825E-3	39.8616E-12	1.00459E+0	-3.48149E-3	39.1760E-12	1.02627E+0	-9.19895E-3
1.50325E-3	39.5632E-12	1.01922E+0	-13.3883E-3	39.2580E-12	1.02219E+0	-2.45370E-3
1.49825E-3	39.1058E-12	1.02313E+0	-27.4514E-3	39.1125E-12	1.02658E+0	-10.6279E-3
1.49325E-3	38.7564E-12	1.02892E+0	-35.7504E-3	39.0080E-12	1.02056E+0	-23.2292E-3
1.48824E-3	38.1995E-12	1.03348E+0	-22.4568E-3	38.5920E-12	1.01863E+0	-15.6869E-3
1.48324E-3	37.8494E-12	1.02657E+0	-18.5868E-3	38.2222E-12	1.02809E+0	-9.72077E-3
1.47824E-3	37.3339E-12	1.02033E+0	-26.3969E-3	37.9202E-12	1.03233E+0	-12.5544E-3
1.47324E-3	36.9523E-12	1.01661E+0	-22.9239E-3	37.2713E-12	1.02938E+0	-9.92696E-3
1.46823E-3	36.6155E-12	1.02134E+0	-23.1149E-3	36.6195E-12	1.01290E+0	-18.7488E-3
1.46323E-3	36.2813E-12	1.03774E+0	-25.3691E-3	36.1498E-12	981.403E-3	-31.5750E-3
1.45823E-3	35.8188E-12	1.03615E+0	-7.63342E-3	35.6436E-12	965.073E-3	-25.0259E-3
1.45323E-3	35.5063E-12	1.01001E+0	7.20052E-3	34.8525E-12	975.530E-3	-12.2469E-3
1.44822E-3	35.4004E-12	989.984E-3	-9.71896E-3	34.4833E-12	985.796E-3	-8.77643E-3
1.44322E-3	35.0116E-12	996.480E-3	-23.4391E-3	34.1286E-12	995.306E-3	-12.7266E-3
1.43822E-3	34.8653E-12	1.00776E+0	-17.3307E-3	33.7559E-12	1.00559E+0	-26.6063E-3
1.43322E-3	34.6494E-12	1.01687E+0	-19.8295E-3	33.4398E-12	997.419E-3	-32.8230E-3
1.42821E-3	34.4969E-12	1.02699E+0	-22.0414E-3	33.4033E-12	995.362E-3	-18.4338E-3
1.42321E-3	34.3844E-12	1.01742E+0	-9.84152E-3	33.0076E-12	996.232E-3	-19.0545E-3
1.41821E-3	33.9368E-12	1.00839E+0	-1.41434E-3	32.9048E-12	977.982E-3	-36.3309E-3
1.41321E-3	33.5812E-12	1.01850E+0	-3.30770E-3	32.7822E-12	970.568E-3	-39.6289E-3
1.40820E-3	33.4316E-12	1.02128E+0	-3.09975E-3	32.5957E-12	977.989E-3	-37.1890E-3
1.40320E-3	33.0452E-12	1.01485E+0	-6.79702E-3	32.4893E-12	978.758E-3	-32.0785E-3
1.39820E-3	32.4867E-12	1.01152E+0	-15.2157E-3	32.3121E-12	981.832E-3	-17.7379E-3
1.39320E-3	32.2311E-12	1.00964E+0	-17.6071E-3	31.9657E-12	972.866E-3	-11.5212E-3
1.38819E-3	31.9597E-12	1.00443E+0	-15.9601E-3	31.4659E-12	949.065E-3	-14.6303E-3
1.38319E-3	31.3477E-12	993.208E-3	-24.2690E-3	31.2615E-12	948.634E-3	-8.28404E-3
1.37819E-3	30.9025E-12	984.658E-3	-31.9107E-3	30.9376E-12	955.020E-3	-4.30357E-3
1.37319E-3	30.6021E-12	975.247E-3	-23.5751E-3	30.5219E-12	942.977E-3	-18.7064E-3
1.36818E-3	30.1539E-12	960.176E-3	-20.3248E-3	29.8589E-12	924.725E-3	-36.6896E-3
1.36318E-3	29.6425E-12	948.396E-3	-22.8853E-3	29.6276E-12	907.841E-3	-42.1731E-3
1.35818E-3	29.1784E-12	947.013E-3	-21.0315E-3	29.3126E-12	893.334E-3	-35.9971E-3
1.35318E-3	28.7777E-12	942.516E-3	-20.8123E-3	28.9976E-12	892.161E-3	-25.4641E-3
1.34817E-3	28.5316E-12	926.897E-3	-13.3841E-3	28.6100E-12	903.340E-3	-21.9543E-3
1.34317E-3	28.1789E-12	918.445E-3	-8.77293E-3	28.3506E-12	900.213E-3	-21.7625E-3
1.33817E-3	28.1155E-12	913.697E-3	-14.4344E-3	28.1476E-12	879.506E-3	-16.6093E-3
1.33317E-3	27.7992E-12	903.407E-3	-19.5826E-3	27.9989E-12	868.257E-3	-12.0839E-3
1.32816E-3	27.6738E-12	900.607E-3	-19.8435E-3	27.5742E-12	866.419E-3	-18.9563E-3
1.32316E-3	27.3483E-12	901.292E-3	-25.7880E-3	27.3620E-12	857.969E-3	-27.1920E-3
1.31816E-3	27.3909E-12	886.966E-3	-35.7623E-3	27.1131E-12	855.242E-3	-23.0085E-3
1.31316E-3	27.1926E-12	872.165E-3	-29.5353E-3	26.7311E-12	856.663E-3	-22.6134E-3
1.30815E-3	26.8861E-12	872.285E-3	-21.8847E-3	26.4283E-12	834.064E-3	-26.9718E-3
1.30315E-3	26.4731E-12	868.215E-3	-19.1337E-3	26.2316E-12	798.273E-3	-27.1193E-3
1.29815E-3	26.3533E-12	851.423E-3	-13.8984E-3	25.9543E-12	784.552E-3	-30.7653E-3
1.29315E-3	25.9765E-12	835.473E-3	-16.7402E-3	25.6205E-12	776.346E-3	-40.4855E-3
1.28814E-3	25.4469E-12	824.714E-3	-16.1967E-3	25.4062E-12	758.381E-3	-31.9296E-3
1.28314E-3	25.0948E-12	813.019E-3	-13.5759E-3	25.2287E-12	760.258E-3	-14.5032E-3
1.27814E-3	24.5628E-12	793.897E-3	-23.1661E-3	24.9591E-12	767.715E-3	-10.9389E-3
1.27314E-3	24.1279E-12	766.672E-3	-22.2567E-3	24.6658E-12	752.951E-3	-2.89157E-3
1.26813E-3	23.7157E-12	742.947E-3	-18.5192E-3	24.4346E-12	730.842E-3	3.81219E-3
1.26313E-3	23.4035E-12	731.971E-3	-29.2865E-3	24.5360E-12	714.518E-3	-11.2287E-3
1.25813E-3	22.9271E-12	733.978E-3	-29.5282E-3	24.1262E-12	702.312E-3	-25.3649E-3
1.25313E-3	22.6459E-12	730.083E-3	-20.9533E-3	23.8175E-12	694.077E-3	-23.2896E-3
1.24812E-3	22.5988E-12	706.037E-3	-20.6915E-3	23.7654E-12	682.432E-3	-14.3929E-3
1.24312E-3	22.3688E-12	682.017E-3	-17.1844E-3	23.5824E-12	659.526E-3	-7.51573E-3
1.23812E-3	22.3223E-12	666.148E-3	-13.2306E-3	23.2403E-12	638.140E-3	-17.2064E-3
1.23312E-3	22.4744E-12	647.996E-3	-20.6001E-3	22.8510E-12	618.343E-3	-29.1267E-3
1.22811E-3	22.4922E-12	634.922E-3	-23.0337E-3	22.5405E-12	603.230E-3	-19.3963E-3
1.22311E-3	22.3464E-12	631.015E-3	-19.8214E-3	22.2468E-12	595.516E-3	-7.62614E-3
1.21811E-3	22.3712E-12	632.300E-3	-20.4557E-3	22.0083E-12	574.062E-3	-14.1735E-3
1.21311E-3	22.2755E-12	629.987E-3	-20.6772E-3	21.5341E-12	545.782E-3	-19.5524E-3
1.20810E-3	22.1921E-12	619.428E-3	-23.0307E-3	21.2952E-12	538.554E-3	-12.4796E-3
1.20310E-3	22.0029E-12	614.811E-3	-25.9569E-3	21.0593E-12	538.780E-3	-4.81828E-3
1.19810E-3	21.8473E-12	613.439E-3	-23.3849E-3	20.8327E-12	524.456E-3	-5.97264E-3
1.19310E-3	21.4679E-12	598.847E-3	-13.9158E-3	20.6352E-12	512.514E-3	-15.4995E-3
1.18809E-3	21.2248E-12	582.590E-3	-10.8907E-3	20.4326E-12	496.708E-3	-25.4916E-3
1.18309E-3	21.0261E-12	569.636E-3	-10.7675E-3	20.3008E-12	477.978E-3	-20.5300E-3
1.17809E-3	20.7144E-12	544.069E-3	-8.93426E-3	20.2628E-12	483.442E-3	-7.29174E-3
1.17309E-3	20.4726E-12	519.808E-3	-18.3450E-3	20.2856E-12	484.842E-3	-7.55347E-3
1.16808E-3	20.2142E-12	513.676E-3	-27.0878E-3	20.2180E-12	456.926E-3	-16.0170E-3
1.16308E-3	19.9173E-12	508.372E-3	-27.7758E-3	20.0682E-12	430.264E-3	-22.0633E-3
1.15808E-3	19.8165E-12	486.190E-3	-28.5002E-3	19.9926E-12	426.506E-3	-19.4422E-3
1.15308E-3	19.6034E-12	465.012E-3	-21.5465E-3	19.8337E-12	427.508E-3	-6.35054E-3
1.14807E-3	19.5071E-12	452.242E-3	-6.88850E-3	19.7017E-12	420.132E-3	-1.69518E-3
1.14307E-3	19.3446E-12	436.065E-3	-6.03886E-3	19.5577E-12	400.896E-3	-14.7680E-3
1.13807E-3	19.4066E-12	433.653E-3	-18.9475E-3	19.2424E-12	371.727E-3	-22.5609E-3
1.13307E-3	19.4128E-12	435.599E-3	-26.6746E-3	18.9847E-12	363.830E-3	-11.4013E-3
1.12806E-3	19.2315E-12	415.133E-3	-26.6614E-3	18.8642E-12	378.175E-3	625.724E-6
1.12306E-3	19.2781E-12	395.508E-3	-21.9659E-3	18.5980E-12	369.722E-3	-2.72835E-3
1.11806E-3	19.1755E-12	390.673E-3	-6.94277E-3	18.2632E-12	341.676E-3	-10.1272E-3
1.11306E-3	19.1472E-12	383.896E-3	7.69033E-3	18.1830E-12	325.628E-3	-8.22887E-3
1.10805E-3	18.9755E-12	367.971E-3	-1.78228E-3	18.0209E-12	314.342E-3	-7.06411E-3
1.10305E-3	18.8676E-12	360.123E-3	-24.7577E-3	17.9729E-12	303.128E-3	-2.27471E-3
1.09805E-3	18.7470E-12	361.852E-3	-33.0439E-3	17.8876E-12	302.097E-3	824.123E-6
1.09305E-3	18.5780E-12	348.354E-3	-26.3805E-3	17.7744E-12	304.876E-3	-4.85543E-3
1.08804E-3	18.4637E-12	331.325E-3	-19.8568E-3	17.8894E-12	301.968E-3	-1.60615E-3
1.08304E-3	18.2481E-12	322.434E-3	-17.9772E-3	18.0654E-12	288.494E-3	-8.48914E-3
1.07804E-3	18.0292E-12	312.283E-3	-10.5492E-3	17.9971E-12	272.667E-3	-23.5108E-3
1.07304E-3	17.9299E-12	304.403E-3	-1.37247E-3	17.9428E-12	263.333E-3	-14.6750E-3
1.06803E-3	17.7812E-12	301.400E-3	-8.06172E-3	18.0894E-12	258.439E-3	-12.7264E-3
1.06303E-3	17.5262E-12	293.612E-3	-15.8007E-3	18.0680E-12	257.630E-3	-27.0327E-3
1.05803E-3	17.5341E-12	270.154E-3	-7.01814E-3	17.7581E-12	256.922E-3	-20.2057E-3
1.05303E-3	17.3860E-12	255.123E-3	-2.70759E-3	17.7749E-12	255.739E-3	-7.47802E-3
1.04802E-3	17.2083E-12	257.854E-3	-18.1507E-3	17.7196E-12	241.527E-3	-5.82982E-3
1.04302E-3	17.3836E-12	258.665E-3	-27.9690E-3	17.5246E-12	217.805E-3	-8.99181E-3
1.03802E-3	17.2988E-12	261.042E-3	-19.7020E-3	17.2579E-12	214.001E-3	-26.2909E-3
1.03302E-3	17.1174E-12	259.149E-3	-8.57833E-3	17.0161E-12	211.964E-3	-39.3160E-3
1.02801E-3	16.9107E-12	244.149E-3	134.391E-6	16.7193E-12	188.288E-3	-36.9722E-3
1.02301E-3	16.9447E-12	225.262E-3	-1.05313E-3	16.3781E-12	164.463E-3	-35.8804E-3
1.01801E-3	16.8296E-12	212.502E-3	-12.0879E-3	16.3494E-12	160.760E-3	-28.1452E-3
1.01301E-3	16.7223E-12	210.789E-3	-9.48006E-3	16.2645E-12	170.157E-3	-9.12067E-3
1.00800E-3	16.6623E-12	211.733E-3	889.518E-6	16.2041E-12	180.805E-3	-1.47261E-3
1.00300E-3	16.6492E-12	206.251E-3	-4.74808E-3	16.0039E-12	181.086E-3	-11.4102E-3
997.999E-6	16.5819E-12	204.396E-3	-8.11879E-3	16.0364E-12	173.612E-3	-22.8240E-3
992.997E-6	16.3910E-12	196.880E-3	-6.37697E-3	16.1678E-12	174.976E-3	-28.3441E-3
987.994E-6	16.3669E-12	179.128E-3	-16.4839E-3	16.2489E-12	168.570E-3	-24.1046E-3
982.991E-6	16.2382E-12	179.381E-3	-29.4679E-3	16.1954E-12	156.697E-3	-10.5903E-3
977.989E-6	15.9831E-12	186.193E-3	-36.9496E-3	16.2132E-12	165.598E-3	113.238E-6
972.986E-6	15.9470E-12	183.352E-3	-34.0131E-3	16.3237E-12	183.172E-3	-3.39509E-3
967.984E-6	15.8216E-12	183.989E-3	-22.0772E-3	16.3518E-12	178.869E-3	-19.8745E-3
962.981E-6	15.6244E-12	186.542E-3	-11.4336E-3	16.2435E-12	163.325E-3	-30.0503E-3
957.979E-6	15.5029E-12	189.173E-3	1.44557E-3	16.2592E-12	163.503E-3	-28.0846E-3
952.976E-6	15.4643E-12	196.428E-3	11.7529E-3	16.0885E-12	160.625E-3	-26.0853E-3
947.974E-6	15.3649E-12	199.657E-3	2.37582E-3	15.9951E-12	161.304E-3	-19.2105E-3
942.971E-6	15.1666E-12	188.019E-3	-18.2842E-3	15.8404E-12	182.129E-3	-12.3404E-3
937.969E-6	15.2202E-12	169.249E-3	-22.4267E-3	15.6885E-12	189.827E-3	-8.98945E-3
932.966E-6	15.2526E-12	165.011E-3	-4.26195E-3	15.4801E-12	185.597E-3	-5.14572E-3
927.964E-6	15.1084E-12	169.546E-3	7.51848E-3	15.3972E-12	185.806E-3	-11.9222E-3
922.961E-6	15.1452E-12	171.990E-3	-805.333E-6	15.3220E-12	181.408E-3	-15.5752E-3
917.959E-6	15.1631E-12	181.879E-3	-9.30913E-3	15.1569E-12	181.164E-3	-4.09625E-3
912.956E-6	15.0869E-12	183.893E-3	-8.78019E-3	15.1057E-12	189.289E-3	-1.50366E-3
907.954E-6	15.1329E-12	177.953E-3	-9.02507E-3	15.0413E-12	186.903E-3	-11.5733E-3
902.951E-6	15.3118E-12	180.408E-3	-9.87905E-3	15.0443E-12	178.903E-3	-19.5217E-3
897.949E-6	15.3285E-12	183.968E-3	-8.72212E-3	15.0211E-12	193.586E-3	-27.4659E-3
892.946E-6	15.3800E-12	175.180E-3	-18.7199E-3	15.0366E-12	215.711E-3	-26.2217E-3
887.944E-6	15.3672E-12	164.115E-3	-29.7118E-3	14.8532E-12	208.972E-3	-16.1844E-3
882.941E-6	15.4229E-12	167.807E-3	-19.4190E-3	14.8506E-12	196.529E-3	-21.7440E-3
877.939E-6	15.2759E-12	184.402E-3	-8.21899E-3	14.9115E-12	203.027E-3	-44.2462E-3
872.936E-6	15.2152E-12	198.027E-3	-10.1146E-3	14.8887E-12	212.218E-3	-45.1948E-3
867.934E-6	15.0972E-12	192.838E-3	-16.3634E-3	14.7012E-12	216.849E-3	-24.1515E-3
862.931E-6	14.9778E-12	189.359E-3	-23.2424E-3	14.6981E-12	219.947E-3	-16.6712E-3
857.929E-6	14.8890E-12	195.756E-3	-17.4451E-3	14.6733E-12	224.100E-3	-10.5049E-3
852.926E-6	14.6198E-12	207.707E-3	-7.49862E-3	14.7272E-12	228.867E-3	-5.64723E-3
847.924E-6	14.5139E-12	222.342E-3	-10.5351E-3	14.5303E-12	230.003E-3	-20.2664E-3
842.921E-6	14.4343E-12	225.462E-3	-27.5086E-3	14.4016E-12	218.569E-3	-31.1694E-3
837.919E-6	14.3183E-12	213.662E-3	-39.4980E-3	14.4407E-12	210.571E-3	-21.8055E-3
832.916E-6	14.1048E-12	201.807E-3	-24.7831E-3	14.4322E-12	218.188E-3	-9.47731E-3
827.914E-6	14.0651E-12	206.554E-3	-10.1745E-3	14.2837E-12	225.433E-3	-1.38451E-3
822.911E-6	14.0463E-12	216.303E-3	-13.7622E-3	14.1535E-12	231.535E-3	1.69849E-3
817.909E-6	14.0329E-12	225.046E-3	-19.2755E-3	14.0637E-12	245.021E-3	-6.19063E-3
812.906E-6	13.9545E-12	231.573E-3	-23.7843E-3	14.0655E-12	254.813E-3	-5.02338E-3
807.904E-6	13.9886E-12	229.808E-3	-20.1430E-3	13.8263E-12	251.840E-3	794.154E-6
802.901E-6	14.1198E-12	233.574E-3	-17.9661E-3	13.8383E-12	255.104E-3	-15.2070E-3
797.899E-6	14.0370E-12	244.762E-3	-24.4017E-3	13.6853E-12	263.148E-3	-26.0676E-3
792.896E-6	14.1055E-12	250.258E-3	-16.1848E-3	13.5595E-12	271.563E-3	-19.2056E-3
787.894E-6	14.0421E-12	252.980E-3	-7.29034E-3	13.4400E-12	280.348E-3	-19.9465E-3
782.891E-6	13.9816E-12	261.881E-3	-10.7128E-3	13.3439E-12	277.341E-3	-25.3546E-3
777.889E-6	13.6886E-12	283.599E-3	-11.7929E-3	13.1609E-12	276.099E-3	-17.1156E-3
772.886E-6	13.6996E-12	304.236E-3	-20.8651E-3	13.1449E-12	281.473E-3	-13.1710E-3
767.884E-6	13.5330E-12	309.343E-3	-29.0688E-3	12.9813E-12	288.368E-3	-17.2253E-3
762.881E-6	13.2769E-12	302.739E-3	-22.2218E-3	13.0084E-12	302.232E-3	-537.972E-6
757.879E-6	13.0781E-12	293.531E-3	-24.1493E-3	12.9268E-12	315.154E-3	7.44250E-3
752.876E-6	12.8939E-12	297.560E-3	-35.9342E-3	12.8732E-12	317.063E-3	-9.40947E-3
747.874E-6	12.7144E-12	316.525E-3	-29.5248E-3	12.6930E-12	318.058E-3	-6.13520E-3
742.871E-6	12.4889E-12	320.867E-3	-21.0349E-3	12.8091E-12	334.913E-3	8.22105E-3
737.869E-6	12.3126E-12	301.841E-3	-30.6987E-3	12.7655E-12	345.932E-3	-92.5034E-6
732.866E-6	12.1022E-12	294.157E-3	-37.9467E-3	12.5309E-12	343.670E-3	-10.8263E-3
727.864E-6	11.9587E-12	303.437E-3	-29.8880E-3	12.3538E-12	349.540E-3	-13.0549E-3
722.861E-6	11.8500E-12	310.607E-3	-17.1728E-3	12.3728E-12	347.021E-3	-15.0778E-3
717.859E-6	11.7709E-12	307.613E-3	-9.02446E-3	12.3057E-12	337.275E-3	-8.41182E-3
712.856E-6	11.7024E-12	305.719E-3	-4.39760E-3	11.9163E-12	345.421E-3	-8.98186E-3
707.854E-6	11.6666E-12	317.276E-3	-779.262E-6	11.7325E-12	359.170E-3	-22.2136E-3
702.851E-6	11.6349E-12	324.278E-3	256.400E-6	11.6516E-12	365.808E-3	-28.6309E-3
697.849E-6	11.5154E-12	329.740E-3	-11.6936E-3	11.5531E-12	365.605E-3	-32.5587E-3
692.846E-6	11.4384E-12	349.989E-3	-28.0508E-3	11.2088E-12	357.177E-3	-30.4543E-3
687.844E-6	11.4257E-12	361.218E-3	-23.7346E-3	11.0740E-12	351.669E-3	-14.7022E-3
682.841E-6	11.2975E-12	353.892E-3	-5.17567E-3	10.9677E-12	358.349E-3	-6.92560E-3
677.839E-6	11.1681E-12	357.211E-3	-7.19807E-3	10.8490E-12	368.182E-3	-16.5918E-3
672.836E-6	10.9974E-12	370.039E-3	-22.7543E-3	10.6521E-12	376.004E-3	-23.5812E-3
667.834E-6	10.8948E-12	373.764E-3	-15.9886E-3	10.6092E-12	394.408E-3	-20.3169E-3
662.831E-6	10.7036E-12	383.026E-3	-2.67304E-3	10.5737E-12	414.020E-3	-19.7775E-3
657.829E-6	10.5294E-12	397.899E-3	-7.65253E-3	10.5417E-12	414.468E-3	-21.7820E-3
652.826E-6	10.4090E-12	401.092E-3	-11.6267E-3	10.4342E-12	412.035E-3	-23.6556E-3
647.824E-6	10.2305E-12	402.418E-3	-10.7197E-3	10.5034E-12	417.562E-3	-27.2381E-3
642.821E-6	10.0138E-12	406.243E-3	-18.1535E-3	10.3773E-12	418.693E-3	-21.2678E-3
637.819E-6	9.97589E-12	402.484E-3	-22.2006E-3	10.2283E-12	412.160E-3	-4.33339E-3
632.816E-6	9.89412E-12	398.671E-3	-18.1469E-3	10.1049E-12	404.765E-3	-781.773E-6
627.814E-6	9.73303E-12	406.911E-3	-7.44747E-3	9.99429E-12	397.085E-3	-10.9199E-3
622.811E-6	9.54493E-12	409.971E-3	-3.59201E-3	9.75149E-12	401.649E-3	-19.0148E-3
617.809E-6	9.49579E-12	402.076E-3	-10.9201E-3	9.48184E-12	420.340E-3	-19.2070E-3
612.806E-6	9.42413E-12	407.023E-3	-13.3949E-3	9.30198E-12	424.700E-3	-11.0560E-3
607.804E-6	9.37422E-12	416.348E-3	-15.5735E-3	9.16423E-12	418.373E-3	-5.51968E-3
602.801E-6	9.32506E-12	418.926E-3	-14.7358E-3	8.93163E-12	413.925E-3	-12.3975E-3
597.799E-6	9.15720E-12	430.493E-3	-9.90044E-3	8.64607E-12	407.751E-3	-18.9418E-3
592.796E-6	9.15723E-12	444.138E-3	-9.45323E-3	8.46942E-12	418.383E-3	-17.2529E-3
587.794E-6	9.09424E-12	439.566E-3	-17.5602E-3	8.43622E-12	436.241E-3	-16.6306E-3
582.791E-6	8.80441E-12	421.731E-3	-22.4572E-3	8.29697E-12	429.884E-3	-9.46467E-3
577.789E-6	8.64892E-12	419.452E-3	-17.3428E-3	8.18602E-12	420.246E-3	-544.486E-6
572.786E-6	8.59965E-12	428.477E-3	-16.7115E-3	7.97632E-12	426.258E-3	-2.02808E-3
567.784E-6	8.41178E-12	437.379E-3	-15.5519E-3	7.87253E-12	421.146E-3	-7.70996E-3
562.781E-6	8.13075E-12	452.362E-3	-13.1307E-3	7.86573E-12	407.322E-3	-12.5281E-3
557.779E-6	8.00531E-12	456.584E-3	-23.6320E-3	7.78246E-12	415.265E-3	-22.9372E-3
552.776E-6	7.81598E-12	441.624E-3	-29.9207E-3	7.66870E-12	422.821E-3	-28.8629E-3
547.774E-6	7.62861E-12	440.529E-3	-21.5886E-3	7.57985E-12	414.128E-3	-20.5828E-3
542.771E-6	7.44338E-12	452.461E-3	-19.2508E-3	7.48418E-12	408.910E-3	-8.68482E-3
537.769E-6	7.32178E-12	447.921E-3	-21.6828E-3	7.35226E-12	400.890E-3	-4.75690E-3
532.766E-6	7.15579E-12	444.092E-3	-20.6628E-3	7.30027E-12	393.345E-3	-5.47366E-3
527.764E-6	6.96855E-12	448.272E-3	-23.0028E-3	7.13264E-12	402.709E-3	-4.88886E-3
522.761E-6	6.74462E-12	440.950E-3	-24.6843E-3	6.96831E-12	420.607E-3	-6.94401E-3
517.759E-6	6.62173E-12	436.182E-3	-19.2729E-3	6.75131E-12	432.543E-3	-10.6648E-3
512.756E-6	6.51001E-12	441.889E-3	-16.2400E-3	6.64844E-12	435.032E-3	-14.1269E-3
507.754E-6	6.27632E-12	433.793E-3	-20.3991E-3	6.46502E-12	424.012E-3	-16.4882E-3
502.751E-6	6.12800E-12	424.180E-3	-19.3041E-3	6.22405E-12	405.372E-3	-6.25191E-3
497.749E-6	6.07013E-12	420.459E-3	-15.6555E-3	5.99398E-12	406.345E-3	8.96529E-3
492.746E-6	5.94134E-12	413.172E-3	-17.1032E-3	5.97599E-12	419.367E-3	3.79488E-3
487.744E-6	5.72337E-12	409.916E-3	-18.3820E-3	5.88976E-12	422.172E-3	-2.83262E-3
482.741E-6	5.59410E-12	419.557E-3	-19.6620E-3	5.63672E-12	427.614E-3	6.42896E-3
477.739E-6	5.54049E-12	434.268E-3	-18.5538E-3	5.44821E-12	419.444E-3	11.4626E-3
472.736E-6	5.41040E-12	431.728E-3	-14.1182E-3	5.36979E-12	387.383E-3	7.57827E-3
467.734E-6	5.23738E-12	413.009E-3	-14.6303E-3	5.36558E-12	376.342E-3	-4.31233E-3
462.731E-6	5.07824E-12	398.597E-3	-18.9530E-3	5.11946E-12	383.899E-3	-27.9688E-3
457.729E-6	4.99005E-12	401.232E-3	-28.8397E-3	4.95124E-12	378.554E-3	-37.1913E-3
452.726E-6	4.88335E-12	397.324E-3	-36.6345E-3	4.86866E-12	380.690E-3	-24.1211E-3
447.724E-6	4.73396E-12	375.875E-3	-33.7882E-3	4.82790E-12	385.452E-3	-19.8027E-3
442.721E-6	4.64381E-12	367.647E-3	-24.8119E-3	4.67805E-12	374.152E-3	-25.2514E-3
437.719E-6	4.48943E-12	374.862E-3	-8.50724E-3	4.44864E-12	370.533E-3	-22.4462E-3
432.716E-6	4.35817E-12	379.031E-3	-3.71388E-3	4.39911E-12	369.054E-3	-18.5689E-3
427.714E-6	4.19364E-12	376.313E-3	-18.5177E-3	4.32269E-12	352.260E-3	-20.0698E-3
422.711E-6	4.08566E-12	368.372E-3	-24.5780E-3	4.11751E-12	344.093E-3	-11.0791E-3
417.709E-6	3.95733E-12	364.169E-3	-11.9690E-3	4.00816E-12	349.390E-3	-4.33907E-3
412.706E-6	3.81918E-12	359.994E-3	-8.45776E-3	3.90976E-12	340.356E-3	-12.6411E-3
407.704E-6	3.69524E-12	347.618E-3	-16.8730E-3	3.80317E-12	331.532E-3	-21.8228E-3
402.701E-6	3.60706E-12	343.486E-3	-16.9408E-3	3.63537E-12	345.212E-3	-28.1044E-3
397.699E-6	3.47971E-12	352.194E-3	-16.4327E-3	3.54434E-12	344.438E-3	-29.4911E-3
392.696E-6	3.35062E-12	353.135E-3	-24.3480E-3	3.46785E-12	320.403E-3	-25.8551E-3
387.694E-6	3.20259E-12	338.857E-3	-43.1476E-3	3.31155E-12	311.599E-3	-20.9659E-3
382.691E-6	3.21040E-12	322.766E-3	-53.3926E-3	3.17249E-12	304.277E-3	-18.4760E-3
377.689E-6	3.11883E-12	315.110E-3	-35.9695E-3	3.14681E-12	287.167E-3	-16.9915E-3
372.686E-6	2.93640E-12	315.330E-3	-25.4507E-3	3.05561E-12	286.300E-3	-14.2054E-3
367.684E-6	2.86601E-12	320.013E-3	-31.0564E-3	2.81102E-12	284.371E-3	-14.4583E-3
362.681E-6	2.83022E-12	322.440E-3	-33.2037E-3	2.69794E-12	262.991E-3	-15.6173E-3
357.679E-6	2.71045E-12	317.818E-3	-32.5986E-3	2.71330E-12	253.396E-3	-18.6556E-3
352.676E-6	2.65267E-12	299.785E-3	-27.8928E-3	2.64042E-12	263.207E-3	-20.4493E-3
347.674E-6	2.49451E-12	277.580E-3	-21.1478E-3	2.47577E-12	257.417E-3	-19.7485E-3
342.671E-6	2.47421E-12	274.648E-3	-21.5921E-3	2.27843E-12	248.006E-3	-30.0816E-3
337.669E-6	2.43474E-12	282.543E-3	-28.5220E-3	2.25671E-12	252.371E-3	-34.5932E-3
332.666E-6	2.25377E-12	282.522E-3	-40.1273E-3	2.25647E-12	244.176E-3	-13.9685E-3
327.664E-6	2.13317E-12	279.932E-3	-42.5007E-3	2.08071E-12	239.406E-3	-1.43807E-3
322.661E-6	2.07520E-12	274.972E-3	-31.6999E-3	1.99669E-12	240.183E-3	-12.9840E-3
317.659E-6	1.98903E-12	256.024E-3	-28.6685E-3	1.92176E-12	217.764E-3	-19.2134E-3
312.656E-6	1.88237E-12	240.416E-3	-25.5929E-3	1.92363E-12	200.708E-3	-25.1929E-3
307.654E-6	1.77717E-12	236.973E-3	-12.5208E-3	1.77562E-12	199.759E-3	-45.1529E-3
302.651E-6	1.73530E-12	229.370E-3	-3.55823E-3	1.67338E-12	193.898E-3	-47.1716E-3
297.649E-6	1.65871E-12	225.935E-3	-8.37005E-3	1.64707E-12	187.008E-3	-24.0759E-3
292.646E-6	1.60236E-12	218.879E-3	-15.9195E-3	1.57594E-12	189.703E-3	-19.0185E-3
287.644E-6	1.55628E-12	200.855E-3	-16.9509E-3	1.50603E-12	187.671E-3	-19.4184E-3
282.641E-6	1.46977E-12	193.511E-3	-21.9729E-3	1.44942E-12	174.562E-3	-10.2388E-3
277.639E-6	1.42114E-12	191.460E-3	-27.1930E-3	1.37441E-12	173.285E-3	-17.7783E-3
272.636E-6	1.31336E-12	189.023E-3	-26.5961E-3	1.25624E-12	173.338E-3	-25.8563E-3
267.634E-6	1.31124E-12	187.464E-3	-27.2406E-3	1.25589E-12	163.969E-3	-19.0057E-3
262.631E-6	1.28460E-12	186.114E-3	-24.3300E-3	1.21935E-12	161.182E-3	-14.4223E-3
257.629E-6	1.16597E-12	186.352E-3	-23.3847E-3	1.18500E-12	156.045E-3	-25.0717E-3
252.626E-6	1.09955E-12	179.576E-3	-23.4942E-3	1.07320E-12	151.862E-3	-32.5531E-3
247.624E-6	1.11957E-12	157.912E-3	-13.2940E-3	1.02351E-12	149.709E-3	-25.0999E-3
242.621E-6	1.07808E-12	137.485E-3	-7.68188E-3	1.07327E-12	123.473E-3	-18.0111E-3
237.619E-6	982.821E-15	139.759E-3	-15.4453E-3	1.06497E-12	99.8954E-3	-11.0871E-3
232.616E-6	912.125E-15	146.988E-3	-23.6285E-3	931.421E-15	107.179E-3	-12.0771E-3
227.614E-6	893.082E-15	147.891E-3	-26.6861E-3	853.130E-15	115.045E-3	-26.2277E-3
222.611E-6	861.099E-15	144.478E-3	-23.9468E-3	879.052E-15	112.847E-3	-27.5142E-3
217.609E-6	775.397E-15	132.801E-3	-20.2239E-3	866.697E-15	109.379E-3	-23.3028E-3
212.606E-6	661.166E-15	127.818E-3	-18.0368E-3	750.434E-15	93.9940E-3	-21.7163E-3
207.604E-6	677.994E-15	125.261E-3	-12.7027E-3	676.049E-15	79.0882E-3	-9.58779E-3
202.601E-6	674.994E-15	111.462E-3	-7.21679E-3	703.323E-15	89.8886E-3	-597.404E-6
197.599E-6	634.729E-15	104.080E-3	-8.76807E-3	675.125E-15	96.1259E-3	-1.52985E-3
192.596E-6	582.648E-15	105.504E-3	-11.9003E-3	649.612E-15	84.6318E-3	-3.06800E-3
187.594E-6	574.644E-15	104.682E-3	-14.7268E-3	506.407E-15	89.0893E-3	-9.24568E-3
182.591E-6	535.424E-15	106.535E-3	-17.7321E-3	497.208E-15	85.0585E-3	-21.2960E-3
177.589E-6	534.788E-15	114.519E-3	-17.6584E-3	529.923E-15	65.7593E-3	-20.5227E-3
172.586E-6	476.369E-15	118.341E-3	-15.8697E-3	484.826E-15	65.7366E-3	-14.0254E-3
167.584E-6	478.156E-15	112.927E-3	-13.4972E-3	419.126E-15	60.3844E-3	-20.1404E-3
162.581E-6	393.352E-15	109.353E-3	-14.6636E-3	407.556E-15	48.8143E-3	-16.9642E-3
157.579E-6	413.197E-15	100.894E-3	-20.1015E-3	365.511E-15	60.6530E-3	-9.63697E-3
152.576E-6	372.338E-15	87.1683E-3	-26.5262E-3	367.604E-15	68.8506E-3	-16.6334E-3
147.574E-6	312.916E-15	79.8752E-3	-30.5473E-3	354.874E-15	57.3878E-3	-21.5375E-3
142.571E-6	303.003E-15	73.0312E-3	-21.8145E-3	302.654E-15	53.7773E-3	-12.6859E-3
137.569E-6	292.993E-15	72.2237E-3	-6.87317E-3	291.467E-15	55.4241E-3	-12.6323E-3
132.566E-6	304.267E-15	77.6960E-3	-5.49442E-3	245.499E-15	45.3405E-3	-25.5016E-3
127.564E-6	282.599E-15	72.2852E-3	-16.9533E-3	270.741E-15	50.2534E-3	-26.5557E-3
122.561E-6	209.758E-15	62.4922E-3	-25.4395E-3	240.163E-15	67.7632E-3	-18.8903E-3
117.559E-6	217.588E-15	55.1253E-3	-20.4653E-3	182.397E-15	64.9572E-3	-2.40844E-3
112.556E-6	214.275E-15	50.6067E-3	-10.6528E-3	160.503E-15	54.5023E-3	3.15639E-3
107.554E-6	177.741E-15	54.5529E-3	-8.83779E-3	232.420E-15	51.6805E-3	-16.5548E-3
102.551E-6	121.528E-15	51.2284E-3	-13.5162E-3	202.826E-15	49.2772E-3	-24.7172E-3
97.5488E-6	105.432E-15	41.7506E-3	-18.4275E-3	128.451E-15	50.4994E-3	-26.5468E-3
92.5463E-6	113.113E-15	44.1830E-3	-19.2015E-3	42.1296E-15	49.3338E-3	-36.3936E-3
87.5438E-6	159.893E-15	48.2352E-3	-16.5253E-3	81.6455E-15	37.5189E-3	-21.9662E-3
82.5413E-6	94.1490E-15	47.9684E-3	-14.4765E-3	133.595E-15	30.4271E-3	2.98962E-3
77.5388E-6	34.9623E-15	51.9885E-3	-14.5959E-3	55.1301E-15	25.8620E-3	242.405E-6
72.5363E-6	36.5667E-15	58.5438E-3	-19.4297E-3	-13.3775E-15	17.4636E-3	-8.53509E-3
67.5338E-6	50.2211E-15	59.5654E-3	-20.3633E-3	18.0033E-15	22.4980E-3	-1.48312E-3
62.5313E-6	47.6402E-15	44.5026E-3	-13.5584E-3	90.0073E-15	39.6328E-3	-1.94404E-3
57.5288E-6	-37.2597E-15	34.3041E-3	-12.3937E-3	22.6419E-15	42.1249E-3	-17.8722E-3
52.5263E-6	-22.2276E-15	40.0778E-3	-14.3861E-3	-58.7441E-15	34.7449E-3	-26.2629E-3
47.5238E-6	-31.3131E-15	45.1471E-3	-18.3015E-3	-32.5338E-15	35.6140E-3	-26.1770E-3
42.5213E-6	-24.6865E-15	50.2210E-3	-28.0458E-3	3.20660E-15	28.0881E-3	-24.3835E-3
37.5188E-6	-15.7405E-15	50.7933E-3	-28.7963E-3	-74.0203E-15	18.3735E-3	-15.7532E-3
32.5163E-6	-25.2968E-15	45.1077E-3	-23.5479E-3	-80.1325E-15	34.5733E-3	-13.5319E-3
27.5138E-6	-121.584E-15	38.9742E-3	-25.8582E-3	-88.4246E-15	54.0184E-3	-20.0388E-3
22.5113E-6	-149.965E-15	31.8338E-3	-21.2196E-3	-99.7771E-15	56.1495E-3	-13.4857E-3
17.5088E-6	-118.227E-15	22.3698E-3	-11.9471E-3	-76.7756E-15	60.3889E-3	-3.52063E-3
12.5063E-6	-84.3178E-15	14.0551E-3	-18.9468E-3	-113.240E-15	60.1387E-3	-7.52754E-3
7.50375E-6	-178.914E-15	20.8674E-3	-31.2541E-3	-128.315E-15	52.4234E-3	-3.19486E-3
2.50125E-6	-150.349E-15	38.1128E-3	-32.7673E-3	-179.175E-15	54.2326E-3	5.51488E-3
-2.50125E-6	-154.970E-15	48.5412E-3	-16.9973E-3	-191.033E-15	51.7719E-3	-1.28157E-3
-7.50375E-6	-187.650E-15	46.0423E-3	-2.02576E-3	-151.326E-15	41.3150E-3	-8.41660E-3
-12.5063E-6	-215.456E-15	33.7754E-3	-10.8369E-3	-142.083E-15	38.9936E-3	-12.9989E-3
-17.5088E-6	-230.968E-15	25.5070E-3	-21.5115E-3	-259.951E-15	39.4784E-3	-21.4022E-3
-22.5113E-6	-222.301E-15	31.0548E-3	-20.0006E-3	-274.024E-15	46.7885E-3	-24.8772E-3
-27.5138E-6	-256.699E-15	36.5666E-3	-18.6962E-3	-216.625E-15	65.3156E-3	-17.0167E-3
-32.5163E-6	-292.378E-15	39.6664E-3	-20.9416E-3	-206.362E-15	68.6065E-3	-8.75883E-3
-37.5188E-6	-351.565E-15	52.6169E-3	-18.4748E-3	-319.155E-15	59.1902E-3	-10.9910E-3
-42.5213E-6	-294.907E-15	61.3276E-3	-6.81628E-3	-397.498E-15	61.1194E-3	-7.84880E-3
-47.5238E-6	-322.058E-15	51.1003E-3	-6.96740E-3	-321.840E-15	69.0989E-3	-7.55916E-3
-52.5263E-6	-332.339E-15	43.8750E-3	-17.7452E-3	-303.975E-15	70.0330E-3	-19.5001E-3
-57.5288E-6	-394.725E-15	47.7619E-3	-12.2974E-3	-359.211E-15	76.3647E-3	-18.3869E-3
-62.5313E-6	-392.118E-15	52.8497E-3	-5.27366E-3	-415.181E-15	85.7539E-3	-11.2742E-3
-67.5338E-6	-449.796E-15	68.7325E-3	-13.5556E-3	-393.940E-15	78.9969E-3	-9.54436E-3
-72.5363E-6	-423.080E-15	80.2330E-3	-14.1437E-3	-391.255E-15	76.7766E-3	-5.79860E-3
-77.5388E-6	-470.723E-15	63.6532E-3	-10.1254E-3	-461.437E-15	78.5745E-3	-7.39468E-3
-82.5413E-6	-509.201E-15	44.0209E-3	-12.7447E-3	-489.373E-15	62.9077E-3	-14.2623E-3
-87.5438E-6	-530.825E-15	48.2822E-3	-8.00557E-3	-529.351E-15	63.7665E-3	-16.2582E-3
-92.5463E-6	-532.604E-15	53.2529E-3	-10.7276E-3	-570.550E-15	95.0808E-3	-23.6741E-3
-97.5488E-6	-541.741E-15	57.0709E-3	-27.9049E-3	-540.852E-15	98.8472E-3	-34.1716E-3
-102.551E-6	-555.500E-15	79.1614E-3	-29.4107E-3	-559.590E-15	76.4805E-3	-31.5226E-3
-107.554E-6	-630.827E-15	92.8939E-3	-9.91991E-3	-612.603E-15	70.9663E-3	-28.7610E-3
-112.556E-6	-674.231E-15	76.9317E-3	-2.49642E-3	-693.667E-15	69.5048E-3	-32.7197E-3
-117.559E-6	-614.914E-15	58.8318E-3	-9.56718E-3	-693.039E-15	75.5955E-3	-22.5527E-3
-122.561E-6	-691.278E-15	65.1586E-3	-11.9206E-3	-680.082E-15	97.8129E-3	-15.4588E-3
-127.564E-6	-766.987E-15	81.9778E-3	-12.7869E-3	-714.541E-15	106.803E-3	-26.0014E-3
-132.566E-6	-802.178E-15	93.0629E-3	-11.4988E-3	-814.952E-15	108.139E-3	-21.8730E-3
-137.569E-6	-785.420E-15	105.593E-3	-15.6345E-3	-858.488E-15	121.777E-3	-20.4742E-3
-142.571E-6	-854.634E-15	118.916E-3	-20.4705E-3	-815.632E-15	126.929E-3	-38.3953E-3
-147.574E-6	-874.697E-15	119.405E-3	-8.95585E-3	-852.733E-15	120.639E-3	-28.9279E-3
-152.576E-6	-919.165E-15	106.450E-3	-1.95342E-3	-942.420E-15	121.628E-3	-10.3219E-3
-157.579E-6	-980.689E-15	100.555E-3	-8.54522E-3	-1.00208E-12	127.955E-3	-21.4428E-3
-162.581E-6	-979.756E-15	115.246E-3	-11.5467E-3	-998.267E-15	136.991E-3	-30.2703E-3
-167.584E-6	-1.06816E-12	130.076E-3	-9.24383E-3	-1.01923E-12	152.970E-3	-29.8787E-3
-172.586E-6	-1.14909E-12	134.250E-3	-11.8362E-3	-1.11900E-12	166.457E-3	-29.9364E-3
-177.589E-6	-1.18741E-12	149.478E-3	-21.4752E-3	-1.25070E-12	167.657E-3	-18.2565E-3
-182.591E-6	-1.21015E-12	161.758E-3	-21.7003E-3	-1.24603E-12	173.034E-3	-5.77634E-3
-187.594E-6	-1.26960E-12	153.410E-3	-21.8820E-3	-1.25407E-12	180.721E-3	-8.05030E-3
-192.596E-6	-1.35121E-12	152.544E-3	-28.0429E-3	-1.33738E-12	181.153E-3	-9.81235E-3
-197.599E-6	-1.41252E-12	168.882E-3	-23.3987E-3	-1.45765E-12	194.923E-3	-13.7961E-3
-202.601E-6	-1.42239E-12	187.664E-3	-19.0440E-3	-1.50651E-12	216.296E-3	-26.0160E-3
-207.604E-6	-1.47422E-12	193.843E-3	-21.8712E-3	-1.55077E-12	219.311E-3	-23.4214E-3
-212.606E-6	-1.57271E-12	184.581E-3	-17.4123E-3	-1.62346E-12	220.702E-3	-11.6158E-3
-217.609E-6	-1.65928E-12	182.630E-3	-13.5922E-3	-1.70691E-12	237.400E-3	-9.44355E-3
-222.611E-6	-1.73176E-12	191.991E-3	-17.4547E-3	-1.79768E-12	245.107E-3	-10.7024E-3
-227.614E-6	-1.81585E-12	204.655E-3	-13.6789E-3	-1.83369E-12	245.197E-3	-8.13147E-3
-232.616E-6	-1.88892E-12	209.866E-3	-6.73349E-3	-1.91680E-12	255.491E-3	-15.4717E-3
-237.619E-6	-1.96938E-12	210.429E-3	-6.83206E-3	-1.99918E-12	270.134E-3	-34.1371E-3
-242.621E-6	-2.09512E-12	220.852E-3	-6.59455E-3	-2.03009E-12	288.207E-3	-31.6245E-3
-247.624E-6	-2.19795E-12	230.382E-3	-19.2356E-3	-2.13336E-12	297.961E-3	-17.2623E-3
-252.626E-6	-2.25136E-12	241.184E-3	-33.1035E-3	-2.22226E-12	301.767E-3	-19.5809E-3
-257.629E-6	-2.38287E-12	253.591E-3	-19.2344E-3	-2.26851E-12	322.770E-3	-24.0529E-3
-262.631E-6	-2.50745E-12	270.189E-3	-8.43944E-3	-2.42203E-12	344.765E-3	-20.0627E-3
-267.634E-6	-2.62957E-12	294.036E-3	-21.7306E-3	-2.54090E-12	347.260E-3	-18.8426E-3
-272.636E-6	-2.75584E-12	306.441E-3	-24.1739E-3	-2.67488E-12	349.095E-3	-19.9954E-3
-277.639E-6	-2.81345E-12	308.181E-3	-11.5310E-3	-2.70832E-12	364.831E-3	-13.0394E-3
-282.641E-6	-2.95321E-12	321.707E-3	-13.7063E-3	-2.84694E-12	372.361E-3	-10.6920E-3
-287.644E-6	-3.12423E-12	346.944E-3	-28.1671E-3	-3.02496E-12	370.911E-3	-18.2526E-3
-292.646E-6	-3.22810E-12	348.158E-3	-28.2817E-3	-3.18871E-12	389.422E-3	-20.3904E-3
-297.649E-6	-3.30607E-12	341.865E-3	-12.6812E-3	-3.27084E-12	411.650E-3	-16.1643E-3
-302.651E-6	-3.41328E-12	363.585E-3	-3.53920E-3	-3.40000E-12	419.858E-3	-20.6929E-3
-307.654E-6	-3.57373E-12	386.078E-3	-7.90190E-3	-3.56960E-12	435.190E-3	-35.6496E-3
-312.656E-6	-3.70212E-12	402.642E-3	-18.4993E-3	-3.79751E-12	463.512E-3	-34.0459E-3
-317.659E-6	-3.80849E-12	415.446E-3	-32.2704E-3	-3.92596E-12	482.359E-3	-16.5879E-3
-322.661E-6	-3.97797E-12	415.360E-3	-43.6392E-3	-4.01848E-12	493.039E-3	-16.1374E-3
-327.664E-6	-4.15208E-12	428.189E-3	-40.4635E-3	-4.22980E-12	509.944E-3	-33.0041E-3
-332.666E-6	-4.39277E-12	461.586E-3	-22.3886E-3	-4.41087E-12	531.629E-3	-40.1964E-3
-337.669E-6	-4.48126E-12	484.324E-3	-15.8847E-3	-4.55972E-12	554.850E-3	-30.8679E-3
-342.671E-6	-4.64615E-12	484.547E-3	-28.4323E-3	-4.74693E-12	567.007E-3	-24.2108E-3
-347.674E-6	-4.88921E-12	490.666E-3	-36.2570E-3	-4.86356E-12	575.157E-3	-17.5765E-3
-352.676E-6	-5.10585E-12	510.379E-3	-37.1618E-3	-5.02031E-12	592.157E-3	-11.2200E-3
-357.679E-6	-5.23149E-12	529.303E-3	-36.3607E-3	-5.23185E-12	601.592E-3	-19.5679E-3
-362.681E-6	-5.48633E-12	555.788E-3	-32.0903E-3	-5.41352E-12	607.187E-3	-23.8014E-3
-367.684E-6	-5.67486E-12	574.469E-3	-24.4960E-3	-5.64224E-12	627.500E-3	-17.8382E-3
-372.686E-6	-5.88662E-12	581.284E-3	-21.3599E-3	-5.78842E-12	642.202E-3	-27.1186E-3
-377.689E-6	-6.05216E-12	598.771E-3	-23.9513E-3	-6.00574E-12	650.232E-3	-29.1716E-3
-382.691E-6	-6.24786E-12	619.533E-3	-23.9158E-3	-6.29785E-12	669.204E-3	-15.0004E-3
-387.694E-6	-6.43190E-12	634.201E-3	-21.4941E-3	-6.50926E-12	685.468E-3	-17.6518E-3
-392.696E-6	-6.63353E-12	643.139E-3	-21.5545E-3	-6.64221E-12	696.323E-3	-17.1810E-3
-397.699E-6	-6.81244E-12	649.048E-3	-26.9882E-3	-6.86408E-12	711.276E-3	-913.923E-6
-402.701E-6	-7.07057E-12	664.389E-3	-30.0847E-3	-7.13805E-12	725.211E-3	6.27714E-3
-407.704E-6	-7.27063E-12	690.646E-3	-20.9963E-3	-7.43578E-12	736.551E-3	4.04376E-3
-412.706E-6	-7.41578E-12	703.202E-3	-9.88551E-3	-7.63874E-12	759.958E-3	110.569E-6
-417.709E-6	-7.62441E-12	701.187E-3	-14.9672E-3	-7.87208E-12	789.877E-3	-12.7739E-3
-422.711E-6	-8.00322E-12	704.892E-3	-11.6811E-3	-8.17488E-12	796.472E-3	-28.7473E-3
-427.714E-6	-8.24782E-12	717.048E-3	2.89423E-3	-8.48316E-12	790.460E-3	-29.8039E-3
-432.716E-6	-8.46442E-12	738.000E-3	-6.69700E-3	-8.66807E-12	801.680E-3	-32.6762E-3
-437.719E-6	-8.70701E-12	768.473E-3	-19.2567E-3	-8.95001E-12	818.356E-3	-38.6389E-3
-442.721E-6	-9.04609E-12	785.675E-3	-19.5085E-3	-9.07456E-12	830.222E-3	-25.8764E-3
-447.724E-6	-9.31172E-12	786.037E-3	-22.1182E-3	-9.33919E-12	840.160E-3	-15.9238E-3
-452.726E-6	-9.51045E-12	797.275E-3	-19.5712E-3	-9.66224E-12	840.003E-3	-17.6193E-3
-457.729E-6	-9.80064E-12	812.587E-3	-10.8677E-3	-9.90651E-12	844.966E-3	-12.1339E-3
-462.731E-6	-10.1312E-12	810.945E-3	-14.8007E-3	-10.1046E-12	863.227E-3	-10.0192E-3
-467.734E-6	-10.4428E-12	814.256E-3	-27.0407E-3	-10.3241E-12	868.358E-3	-24.7133E-3
-472.736E-6	-10.7845E-12	836.420E-3	-21.2611E-3	-10.6964E-12	867.254E-3	-30.5918E-3
-477.739E-6	-11.0331E-12	855.756E-3	-5.92892E-3	-11.0331E-12	881.946E-3	-25.2815E-3
-482.741E-6	-11.2699E-12	867.795E-3	-2.87061E-3	-11.1867E-12	889.146E-3	-27.2988E-3
-487.744E-6	-11.5906E-12	871.956E-3	-3.20098E-3	-11.4145E-12	887.483E-3	-18.6849E-3
-492.746E-6	-11.8824E-12	870.259E-3	-7.67874E-3	-11.8475E-12	897.015E-3	-5.05263E-3
-497.749E-6	-12.1658E-12	881.248E-3	-24.1426E-3	-12.3344E-12	908.016E-3	-3.89990E-3
-502.751E-6	-12.4544E-12	898.900E-3	-27.8000E-3	-12.4956E-12	920.795E-3	56.3879E-6
-507.754E-6	-12.7557E-12	907.011E-3	-10.1584E-3	-12.6984E-12	936.491E-3	-4.44823E-3
-512.756E-6	-13.0095E-12	911.029E-3	-8.41139E-3	-13.1734E-12	935.070E-3	-19.6747E-3
-517.759E-6	-13.3256E-12	917.082E-3	-29.3432E-3	-13.5311E-12	927.165E-3	-22.3137E-3
-522.761E-6	-13.6214E-12	921.530E-3	-33.4394E-3	-13.7351E-12	948.772E-3	-22.4358E-3
-527.764E-6	-13.9199E-12	924.749E-3	-20.4100E-3	-13.9748E-12	971.105E-3	-19.7356E-3
-532.766E-6	-14.2098E-12	932.806E-3	-17.0549E-3	-14.3557E-12	958.884E-3	-4.17294E-3
-537.769E-6	-14.5711E-12	930.457E-3	-21.9978E-3	-14.6314E-12	944.023E-3	2.08257E-3
-542.771E-6	-14.8816E-12	914.628E-3	-18.1106E-3	-14.8361E-12	929.968E-3	-4.84079E-3
-547.774E-6	-15.2116E-12	917.144E-3	-10.3932E-3	-15.0183E-12	909.090E-3	6.08528E-3
-552.776E-6	-15.3494E-12	935.568E-3	-11.6143E-3	-15.2133E-12	906.392E-3	12.1031E-3
-557.779E-6	-15.6503E-12	943.025E-3	-16.5482E-3	-15.3805E-12	908.189E-3	-22.3374E-3
-562.781E-6	-16.2022E-12	942.227E-3	-21.1850E-3	-15.8122E-12	899.113E-3	-48.1114E-3
-567.784E-6	-16.7416E-12	945.364E-3	-23.9891E-3	-16.2755E-12	902.878E-3	-39.1816E-3
-572.786E-6	-17.1417E-12	949.492E-3	-26.6872E-3	-16.7252E-12	916.870E-3	-26.0335E-3
-577.789E-6	-17.5360E-12	940.704E-3	-31.5601E-3	-16.9195E-12	924.468E-3	-15.9172E-3
-582.791E-6	-17.9122E-12	936.107E-3	-27.6684E-3	-17.3037E-12	933.012E-3	-6.44156E-3
-587.794E-6	-18.3182E-12	944.957E-3	-16.2765E-3	-17.6849E-12	934.252E-3	-5.82487E-3
-592.796E-6	-18.5667E-12	951.638E-3	-8.92231E-3	-18.1932E-12	918.063E-3	-5.82010E-3
-597.799E-6	-18.9724E-12	953.665E-3	-14.4550E-3	-18.4531E-12	914.135E-3	-7.11516E-3
-602.801E-6	-19.1874E-12	942.122E-3	-28.9521E-3	-18.7760E-12	934.449E-3	-25.0619E-3
-607.804E-6	-19.5892E-12	943.208E-3	-31.9692E-3	-19.2390E-12	940.189E-3	-31.9237E-3
-612.806E-6	-19.7206E-12	952.206E-3	-18.2987E-3	-19.7322E-12	926.750E-3	-17.2038E-3
-617.809E-6	-20.0155E-12	935.434E-3	-5.23258E-3	-20.0595E-12	919.741E-3	-15.6339E-3
-622.811E-6	-20.2718E-12	929.050E-3	-5.85120E-3	-20.3239E-12	909.181E-3	-19.5959E-3
-627.814E-6	-20.3443E-12	940.072E-3	-8.42031E-3	-20.6551E-12	899.210E-3	-17.7247E-3
-632.816E-6	-20.4931E-12	929.088E-3	-16.7171E-3	-21.0661E-12	893.377E-3	-26.3356E-3
-637.819E-6	-20.7840E-12	904.920E-3	-24.0739E-3	-21.4298E-12	879.206E-3	-35.7147E-3
-642.821E-6	-20.9795E-12	892.698E-3	-11.3566E-3	-21.5941E-12	875.311E-3	-25.0552E-3
-647.824E-6	-21.1495E-12	883.098E-3	-1.74497E-3	-21.8114E-12	873.357E-3	-10.5014E-3
-652.826E-6	-21.4544E-12	871.530E-3	-11.5594E-3	-22.1369E-12	851.014E-3	-5.67997E-3
-657.829E-6	-21.8144E-12	867.136E-3	-15.4789E-3	-22.4991E-12	826.216E-3	-3.88899E-3
-662.831E-6	-22.0877E-12	854.411E-3	-11.2616E-3	-22.6286E-12	817.344E-3	-13.2434E-3
-667.834E-6	-22.4754E-12	837.032E-3	-20.3054E-3	-22.9120E-12	813.153E-3	-22.1228E-3
-672.836E-6	-22.8518E-12	830.142E-3	-30.5038E-3	-23.2153E-12	804.577E-3	-11.5950E-3
-677.839E-6	-23.2582E-12	824.660E-3	-24.7572E-3	-23.4281E-12	796.782E-3	-5.02965E-3
-682.841E-6	-23.7123E-12	823.083E-3	-14.6974E-3	-23.6118E-12	778.121E-3	-16.9047E-3
-687.844E-6	-23.8568E-12	825.606E-3	-9.75854E-3	-23.9396E-12	758.035E-3	-24.7232E-3
-692.846E-6	-24.2943E-12	821.046E-3	-11.9966E-3	-24.2094E-12	758.421E-3	-23.8370E-3
-697.849E-6	-24.6454E-12	815.881E-3	-17.4149E-3	-24.4136E-12	753.204E-3	-18.6948E-3
-702.851E-6	-24.9120E-12	817.693E-3	-22.7123E-3	-24.5162E-12	732.376E-3	-10.4054E-3
-707.854E-6	-25.0575E-12	810.612E-3	-29.5929E-3	-24.8526E-12	717.599E-3	-7.87952E-3
-712.856E-6	-25.2808E-12	791.238E-3	-29.6696E-3	-25.1589E-12	710.204E-3	-12.4868E-3
-717.859E-6	-25.3388E-12	784.947E-3	-23.3581E-3	-25.1880E-12	702.686E-3	-13.9423E-3
-722.861E-6	-25.2721E-12	773.644E-3	-23.5978E-3	-25.5514E-12	702.486E-3	-12.6542E-3
-727.864E-6	-25.4149E-12	734.447E-3	-30.2644E-3	-25.8023E-12	697.508E-3	-11.6392E-3
-732.866E-6	-25.5225E-12	708.952E-3	-34.2983E-3	-25.9949E-12	673.450E-3	-7.74474E-3
-737.869E-6	-25.5823E-12	708.845E-3	-35.9967E-3	-26.0741E-12	666.238E-3	-2.25192E-3
-742.871E-6	-25.6537E-12	705.760E-3	-34.3816E-3	-26.3696E-12	665.932E-3	-6.62977E-3
-747.874E-6	-26.0632E-12	688.191E-3	-23.7108E-3	-26.6429E-12	634.764E-3	-20.4345E-3
-752.876E-6	-26.2224E-12	655.916E-3	-11.3829E-3	-26.7969E-12	608.834E-3	-22.4922E-3
-757.879E-6	-26.5857E-12	632.183E-3	-10.3164E-3	-27.0067E-12	599.975E-3	-28.4647E-3
-762.881E-6	-27.0707E-12	631.595E-3	-13.0000E-3	-27.1003E-12	581.540E-3	-42.0716E-3
-767.884E-6	-27.5208E-12	626.488E-3	-3.18153E-3	-27.5954E-12	574.735E-3	-31.4606E-3
-772.886E-6	-28.0855E-12	623.365E-3	-1.56007E-3	-27.7218E-12	582.597E-3	-16.4635E-3
-777.889E-6	-28.4122E-12	635.042E-3	-15.8106E-3	-27.7891E-12	573.429E-3	-18.3966E-3
-782.891E-6	-28.7598E-12	626.710E-3	-17.7142E-3	-28.0354E-12	555.701E-3	-19.7866E-3
-787.894E-6	-29.1835E-12	601.991E-3	-15.9658E-3	-28.2156E-12	540.276E-3	-22.4443E-3
-792.896E-6	-29.3462E-12	599.434E-3	-20.6246E-3	-28.2917E-12	527.908E-3	-26.5542E-3
-797.899E-6	-29.4759E-12	604.976E-3	-12.7629E-3	-28.3465E-12	519.209E-3	-17.2699E-3
-802.901E-6	-29.6510E-12	590.692E-3	-10.6067E-3	-28.6281E-12	503.754E-3	-8.17904E-3
-807.904E-6	-29.7609E-12	575.149E-3	-23.5800E-3	-28.8781E-12	477.365E-3	-16.2729E-3
-812.906E-6	-29.7600E-12	572.791E-3	-19.1379E-3	-28.9951E-12	451.768E-3	-25.4678E-3
-817.909E-6	-29.6420E-12	552.613E-3	-8.10950E-3	-29.1915E-12	445.569E-3	-21.1933E-3
-822.911E-6	-29.6400E-12	518.356E-3	-12.2006E-3	-29.3713E-12	454.544E-3	-5.50816E-3
-827.914E-6	-29.7087E-12	502.856E-3	-14.2388E-3	-29.5919E-12	450.331E-3	3.89559E-3
-832.916E-6	-29.7179E-12	487.905E-3	-9.78361E-3	-29.8152E-12	436.712E-3	-11.3303E-3
-837.919E-6	-29.9672E-12	467.158E-3	-17.6845E-3	-29.9688E-12	428.037E-3	-35.4029E-3
-842.921E-6	-29.8545E-12	451.937E-3	-25.5237E-3	-30.1431E-12	414.462E-3	-36.3496E-3
-847.924E-6	-30.0517E-12	429.869E-3	-27.8385E-3	-30.2368E-12	410.479E-3	-22.2628E-3
-852.926E-6	-30.4019E-12	409.451E-3	-37.3276E-3	-30.3587E-12	413.448E-3	-19.6985E-3
-857.929E-6	-30.9812E-12	408.730E-3	-29.3177E-3	-30.6166E-12	397.962E-3	-25.9018E-3
-862.931E-6	-31.2007E-12	425.826E-3	-5.18202E-3	-30.8080E-12	381.951E-3	-31.3607E-3
-867.934E-6	-31.4220E-12	441.798E-3	-1.77341E-3	-30.8489E-12	377.351E-3	-23.4878E-3
-872.936E-6	-31.8048E-12	438.047E-3	-12.2043E-3	-30.9376E-12	368.936E-3	-7.19244E-3
-877.939E-6	-31.9753E-12	416.885E-3	-11.9667E-3	-30.9106E-12	361.693E-3	-9.70714E-3
-882.941E-6	-32.1726E-12	398.715E-3	-9.86407E-3	-30.9193E-12	357.188E-3	-26.6551E-3
-887.944E-6	-32.3733E-12	404.546E-3	-13.1226E-3	-30.9751E-12	341.535E-3	-32.0809E-3
-892.946E-6	-32.4437E-12	407.754E-3	-8.17862E-3	-30.9547E-12	321.973E-3	-24.5712E-3
-897.949E-6	-32.3920E-12	399.061E-3	1.14628E-3	-31.0095E-12	317.065E-3	-21.6349E-3
-902.951E-6	-32.4333E-12	398.549E-3	443.142E-6	-31.2119E-12	319.857E-3	-16.9090E-3
-907.954E-6	-32.3083E-12	386.812E-3	-6.17517E-3	-31.3374E-12	318.044E-3	-7.40414E-3
-912.956E-6	-32.4360E-12	365.693E-3	-10.2954E-3	-31.6430E-12	312.694E-3	-7.90532E-3
-917.959E-6	-32.3791E-12	361.925E-3	-9.94297E-3	-31.7017E-12	309.650E-3	-8.64287E-3
-922.961E-6	-32.1998E-12	352.045E-3	-13.6929E-3	-32.0777E-12	308.266E-3	-1.03362E-3
-927.964E-6	-32.2699E-12	316.760E-3	-25.2298E-3	-32.4608E-12	303.521E-3	-1.76640E-3
-932.966E-6	-32.2101E-12	290.814E-3	-33.7174E-3	-32.8199E-12	302.503E-3	-13.5798E-3
-937.969E-6	-32.0848E-12	278.607E-3	-27.8960E-3	-32.9584E-12	304.149E-3	-27.7072E-3
-942.971E-6	-32.0298E-12	275.957E-3	-17.0180E-3	-33.2636E-12	294.641E-3	-36.7490E-3
-947.974E-6	-32.2966E-12	292.237E-3	-18.4132E-3	-33.6998E-12	281.965E-3	-24.7369E-3
-952.976E-6	-32.3885E-12	296.824E-3	-15.2222E-3	-33.5869E-12	282.768E-3	-977.199E-6
-957.979E-6	-32.3629E-12	272.096E-3	-2.36994E-3	-33.5182E-12	287.332E-3	6.27055E-3
-962.981E-6	-32.3924E-12	261.520E-3	684.422E-6	-33.6704E-12	276.184E-3	-8.42853E-3
-967.984E-6	-32.7996E-12	277.038E-3	-4.42342E-3	-33.3987E-12	251.052E-3	-17.4999E-3
-972.986E-6	-32.8845E-12	282.550E-3	-15.8275E-3	-33.0979E-12	239.266E-3	-18.0366E-3
-977.989E-6	-32.9873E-12	277.931E-3	-28.1314E-3	-33.0681E-12	250.187E-3	-23.5428E-3
-982.991E-6	-32.9258E-12	275.023E-3	-29.9165E-3	-32.8709E-12	261.568E-3	-26.3182E-3
-987.994E-6	-33.2098E-12	262.808E-3	-24.5955E-3	-32.7955E-12	260.229E-3	-36.4501E-3
-992.997E-6	-33.3622E-12	250.988E-3	-21.1566E-3	-32.7483E-12	256.048E-3	-41.8070E-3
-997.999E-6	-33.4597E-12	250.866E-3	-17.0800E-3	-32.7201E-12	252.115E-3	-29.7916E-3
-1.00300E-3	-33.5974E-12	250.975E-3	-13.6878E-3	-32.7390E-12	248.115E-3	-26.4199E-3
-1.00800E-3	-33.7985E-12	262.807E-3	-19.9520E-3	-32.9559E-12	247.488E-3	-30.9807E-3
-1.01301E-3	-33.8232E-12	268.223E-3	-21.0067E-3	-33.0714E-12	251.396E-3	-31.2548E-3
-1.01801E-3	-33.8994E-12	253.201E-3	-12.9374E-3	-33.3947E-12	256.965E-3	-30.5441E-3
-1.02301E-3	-34.2183E-12	244.757E-3	-18.8981E-3	-33.8285E-12	263.675E-3	-33.5807E-3
-1.02801E-3	-34.1702E-12	243.214E-3	-22.0786E-3	-33.8462E-12	283.128E-3	-36.0575E-3
-1.03302E-3	-34.1989E-12	238.149E-3	-9.99644E-3	-34.2125E-12	296.004E-3	-25.8147E-3
-1.03802E-3	-34.4615E-12	246.924E-3	-9.05694E-3	-34.6651E-12	283.225E-3	-9.83824E-3
-1.04302E-3	-34.5301E-12	265.945E-3	-6.35305E-3	-34.8416E-12	281.891E-3	-5.98950E-3
-1.04802E-3	-34.4059E-12	263.985E-3	3.21991E-3	-34.8988E-12	301.417E-3	-20.0094E-3
-1.05303E-3	-34.4238E-12	265.988E-3	-9.74532E-3	-35.1431E-12	298.239E-3	-28.4599E-3
-1.05803E-3	-34.6673E-12	279.038E-3	-23.5474E-3	-35.2051E-12	284.137E-3	-15.5536E-3
-1.06303E-3	-34.7356E-12	269.569E-3	-22.2576E-3	-35.0446E-12	290.402E-3	-11.1533E-3
-1.06803E-3	-34.6655E-12	265.311E-3	-32.0836E-3	-35.0018E-12	290.081E-3	-19.6599E-3
-1.07304E-3	-34.8516E-12	287.907E-3	-43.2182E-3	-34.9524E-12	281.425E-3	-21.2079E-3
-1.07804E-3	-34.8778E-12	293.548E-3	-34.4964E-3	-34.8760E-12	291.661E-3	-20.7387E-3
-1.08304E-3	-35.0281E-12	274.242E-3	-23.9166E-3	-34.8559E-12	305.753E-3	-20.5864E-3
-1.08804E-3	-35.1940E-12	275.591E-3	-18.0203E-3	-34.9523E-12	305.993E-3	-13.9318E-3
-1.09305E-3	-35.2720E-12	293.445E-3	-9.65838E-3	-34.8981E-12	308.036E-3	-2.29644E-3
-1.09805E-3	-35.6081E-12	301.738E-3	-9.75058E-3	-35.0467E-12	322.655E-3	-4.96632E-3
-1.10305E-3	-35.9160E-12	314.875E-3	-3.59319E-3	-35.3284E-12	341.232E-3	-10.6735E-3
-1.10805E-3	-36.1743E-12	332.513E-3	14.0745E-3	-35.2862E-12	355.022E-3	-1.26025E-3
-1.11306E-3	-36.5008E-12	337.971E-3	10.9921E-3	-35.7359E-12	361.927E-3	-1.88166E-3
-1.11806E-3	-36.6320E-12	330.883E-3	-6.23172E-3	-35.8813E-12	362.636E-3	-12.2011E-3
-1.12306E-3	-36.6580E-12	322.794E-3	-4.56163E-3	-36.1277E-12	369.166E-3	-12.6762E-3
-1.12806E-3	-37.0093E-12	327.970E-3	-1.49385E-3	-36.3487E-12	381.143E-3	-15.0128E-3
-1.13307E-3	-37.2083E-12	337.974E-3	-5.98635E-3	-36.7563E-12	394.881E-3	-25.6141E-3
-1.13807E-3	-37.0122E-12	344.926E-3	6.22599E-3	-36.8046E-12	412.173E-3	-26.8959E-3
-1.14307E-3	-37.0121E-12	357.756E-3	16.7965E-3	-36.9482E-12	422.217E-3	-20.7414E-3
-1.14807E-3	-37.3125E-12	370.077E-3	-331.142E-6	-37.0695E-12	426.248E-3	-14.2013E-3
-1.15308E-3	-37.1256E-12	378.486E-3	-18.2272E-3	-37.0889E-12	427.042E-3	-11.0774E-3
-1.15808E-3	-37.0772E-12	393.867E-3	-24.7900E-3	-37.1668E-12	428.350E-3	-19.7246E-3
-1.16308E-3	-37.1607E-12	418.055E-3	-25.4554E-3	-37.3238E-12	442.756E-3	-24.7544E-3
-1.16808E-3	-37.1576E-12	432.944E-3	-13.3406E-3	-37.3480E-12	466.608E-3	-17.8115E-3
-1.17309E-3	-37.2881E-12	439.126E-3	-10.7930E-3	-37.2666E-12	481.683E-3	-8.78701E-3
-1.17809E-3	-37.2933E-12	450.901E-3	-18.8476E-3	-37.5475E-12	490.883E-3	-3.50734E-3
-1.18309E-3	-37.5928E-12	461.250E-3	-13.3089E-3	-37.6710E-12	501.946E-3	-3.31068E-3
-1.18809E-3	-37.8358E-12	470.251E-3	-9.13672E-3	-37.9396E-12	505.399E-3	1.24758E-3
-1.19310E-3	-38.1377E-12	480.571E-3	-16.5858E-3	-38.2517E-12	513.940E-3	150.434E-6
-1.19810E-3	-38.2309E-12	491.037E-3	-15.9776E-3	-38.5481E-12	539.498E-3	-15.6359E-3
-1.20310E-3	-38.6667E-12	493.785E-3	-12.6492E-3	-38.6813E-12	563.139E-3	-26.7041E-3
-1.20810E-3	-39.1488E-12	497.701E-3	-16.6157E-3	-38.7930E-12	577.357E-3	-26.5523E-3
-1.21311E-3	-39.4893E-12	516.536E-3	-14.9449E-3	-39.1484E-12	587.424E-3	-19.5703E-3
-1.21811E-3	-39.6878E-12	530.337E-3	-7.75548E-3	-39.3465E-12	593.927E-3	-13.4915E-3
-1.22311E-3	-40.1046E-12	540.701E-3	-15.5555E-3	-39.5695E-12	605.892E-3	-16.3015E-3
-1.22811E-3	-40.0323E-12	563.123E-3	-23.5682E-3	-39.6103E-12	636.027E-3	-20.6723E-3
-1.23312E-3	-40.2118E-12	584.521E-3	-8.44292E-3	-39.9389E-12	660.229E-3	-23.6203E-3
-1.23812E-3	-40.4035E-12	604.175E-3	-839.721E-6	-40.1109E-12	670.948E-3	-25.5906E-3
-1.24312E-3	-40.4087E-12	632.812E-3	-10.2584E-3	-40.3834E-12	685.202E-3	-21.2487E-3
-1.24812E-3	-40.2101E-12	641.407E-3	-15.2236E-3	-40.5175E-12	695.857E-3	-20.7479E-3
-1.25313E-3	-40.0427E-12	629.499E-3	-25.0939E-3	-40.9870E-12	705.853E-3	-22.1934E-3
-1.25813E-3	-40.0620E-12	648.606E-3	-37.1664E-3	-41.1561E-12	728.627E-3	-9.93779E-3
-1.26313E-3	-40.3380E-12	676.594E-3	-40.2107E-3	-41.4140E-12	761.845E-3	7.60974E-3
-1.26813E-3	-40.1366E-12	676.757E-3	-38.0728E-3	-41.8800E-12	782.818E-3	14.6179E-3
-1.27314E-3	-40.2691E-12	674.906E-3	-21.0266E-3	-42.1948E-12	784.759E-3	1.78331E-3
-1.27814E-3	-40.6992E-12	686.342E-3	-4.22535E-3	-42.2068E-12	787.750E-3	-17.0688E-3
-1.28314E-3	-41.1342E-12	704.346E-3	-14.7611E-3	-42.2905E-12	797.303E-3	-25.6697E-3
-1.28814E-3	-41.4790E-12	721.736E-3	-26.2852E-3	-42.6777E-12	802.880E-3	-33.3445E-3
-1.29315E-3	-42.0146E-12	726.094E-3	-25.3621E-3	-42.6428E-12	811.861E-3	-33.6674E-3
-1.29815E-3	-42.5874E-12	734.830E-3	-26.8159E-3	-42.4817E-12	826.834E-3	-15.2600E-3
-1.30315E-3	-42.9921E-12	770.351E-3	-18.5064E-3	-42.4811E-12	825.320E-3	1.07215E-3
-1.30815E-3	-43.4790E-12	793.375E-3	-7.00500E-3	-42.6980E-12	824.075E-3	359.890E-6
-1.31316E-3	-44.1559E-12	796.370E-3	-19.9374E-3	-42.5573E-12	839.087E-3	-1.64376E-3
-1.31816E-3	-44.5884E-12	818.058E-3	-33.6139E-3	-42.4723E-12	850.888E-3	-499.704E-6
-1.32316E-3	-44.7805E-12	844.648E-3	-25.3336E-3	-42.6128E-12	858.635E-3	-12.5604E-3
-1.32816E-3	-45.1868E-12	856.923E-3	-28.1955E-3	-42.8510E-12	864.907E-3	-23.7421E-3
-1.33317E-3	-45.3195E-12	867.566E-3	-38.0328E-3	-43.0660E-12	877.247E-3	-21.1012E-3
-1.33817E-3	-45.5307E-12	883.660E-3	-19.0612E-3	-43.3066E-12	900.873E-3	-19.3021E-3
-1.34317E-3	-45.6150E-12	905.151E-3	1.79093E-3	-43.8756E-12	922.365E-3	-19.1511E-3
-1.34817E-3	-45.8580E-12	926.455E-3	-8.16746E-3	-44.3552E-12	928.046E-3	-22.3727E-3
-1.35318E-3	-45.8922E-12	928.941E-3	-14.2700E-3	-45.1198E-12	931.667E-3	-22.8253E-3
-1.35818E-3	-46.1493E-12	912.108E-3	-8.02254E-3	-45.7421E-12	968.646E-3	-9.59253E-3
-1.36318E-3	-46.1550E-12	914.074E-3	-14.2428E-3	-46.7367E-12	1.01113E+0	2.07081E-3
-1.36818E-3	-46.4757E-12	931.729E-3	-8.00177E-3	-47.3636E-12	1.02831E+0	1.99841E-3
-1.37319E-3	-46.7655E-12	929.218E-3	3.37615E-3	-47.8844E-12	1.03834E+0	1.11839E-3
-1.37819E-3	-47.2666E-12	927.305E-3	1.09852E-3	-48.2830E-12	1.03243E+0	2.74371E-3
-1.38319E-3	-47.4727E-12	940.917E-3	-1.46965E-3	-48.9777E-12	1.02234E+0	-2.34259E-3
-1.38819E-3	-48.0763E-12	952.929E-3	-16.1903E-3	-48.9869E-12	1.01667E+0	-22.3153E-3
-1.39320E-3	-48.4390E-12	972.241E-3	-28.5838E-3	-48.9700E-12	1.00102E+0	-37.5862E-3
-1.39820E-3	-48.8280E-12	1.00136E+0	-22.8527E-3	-49.2177E-12	1.00007E+0	-31.1892E-3
-1.40320E-3	-49.3184E-12	1.01559E+0	-18.0597E-3	-49.2453E-12	1.01516E+0	-24.9485E-3
-1.40820E-3	-49.7320E-12	1.01347E+0	-31.8078E-3	-49.1520E-12	1.02029E+0	-29.0939E-3
-1.41321E-3	-50.1394E-12	1.02253E+0	-45.0572E-3	-48.9612E-12	1.02204E+0	-27.0330E-3
-1.41821E-3	-50.6115E-12	1.03128E+0	-20.2291E-3	-49.0317E-12	1.01690E+0	-13.5325E-3
-1.42321E-3	-51.0251E-12	1.02273E+0	-7.08610E-3	-49.2274E-12	1.00924E+0	-6.58480E-3
-1.42821E-3	-51.2611E-12	1.02848E+0	-26.0547E-3	-49.4388E-12	1.01459E+0	-9.51696E-3
-1.43322E-3	-51.5913E-12	1.04347E+0	-25.3691E-3	-49.4523E-12	1.02504E+0	-14.0366E-3
-1.43822E-3	-51.8932E-12	1.05197E+0	-22.7990E-3	-49.9202E-12	1.03954E+0	-23.7326E-3
-1.44322E-3	-52.2719E-12	1.06564E+0	-27.6585E-3	-50.7049E-12	1.06410E+0	-30.5337E-3
-1.44822E-3	-52.5813E-12	1.06669E+0	-18.5675E-3	-51.5596E-12	1.08955E+0	-25.2503E-3
-1.45323E-3	-52.6238E-12	1.06632E+0	-22.1042E-3	-52.2263E-12	1.09946E+0	-18.1669E-3
-1.45823E-3	-53.3998E-12	1.08304E+0	-28.7019E-3	-52.9093E-12	1.09740E+0	-16.9980E-3
-1.46323E-3	-53.5425E-12	1.09503E+0	-19.1539E-3	-53.6453E-12	1.09583E+0	-12.5653E-3
-1.46823E-3	-53.6829E-12	1.09587E+0	-24.0338E-3	-54.4877E-12	1.10403E+0	1.61970E-3
-1.47324E-3	-54.0903E-12	1.09293E+0	-28.1677E-3	-54.9962E-12	1.11358E+0	10.8230E-3
-1.47824E-3	-54.5733E-12	1.08802E+0	-14.0011E-3	-55.6216E-12	1.11159E+0	-1.21371E-3
-1.48324E-3	-54.7536E-12	1.07509E+0	-14.0025E-3	-56.0517E-12	1.10171E+0	-11.1349E-3
-1.48824E-3	-54.9236E-12	1.07134E+0	-19.2335E-3	-56.0906E-12	1.08856E+0	-7.67589E-3
-1.49325E-3	-55.6259E-12	1.08372E+0	-14.5761E-3	-56.3916E-12	1.07879E+0	-6.11633E-3
-1.49825E-3	-55.7054E-12	1.08800E+0	-15.0966E-3	-56.4107E-12	1.07771E+0	-6.88444E-3
-1.50325E-3	-55.3138E-12	1.08791E+0	-14.2416E-3	-56.5990E-12	1.08434E+0	-9.82099E-3
-1.50825E-3	-55.8427E-12	1.08820E+0	-5.69940E-3	-56.8386E-12	1.08760E+0	-5.60777E-3
-1.51326E-3	-56.7873E-12	1.08263E+0	-12.6376E-3	-56.9295E-12	1.07893E+0	3.18858E-3
-1.51826E-3	-56.4748E-12	1.08761E+0	-32.9345E-3	-57.0654E-12	1.07322E+0	-1.06783E-3
-1.52326E-3	-56.5481E-12	1.09157E+0	-23.6310E-3	-57.4260E-12	1.07686E+0	-13.8618E-3
-1.52826E-3	-57.3689E-12	1.06515E+0	-931.082E-6	-57.6701E-12	1.07891E+0	-21.9406E-3
-1.53327E-3	-57.6268E-12	1.04312E+0	-9.20497E-3	-57.7264E-12	1.08913E+0	-20.3408E-3
-1.53827E-3	-57.9521E-12	1.05148E+0	-25.7525E-3	-58.4464E-12	1.10173E+0	-19.6283E-3
-1.54327E-3	-58.3982E-12	1.05963E+0	-36.4324E-3	-59.1192E-12	1.09591E+0	-28.3903E-3
-1.54827E-3	-59.2455E-12	1.06646E+0	-43.2168E-3	-59.6955E-12	1.08501E+0	-30.8798E-3
-1.55328E-3	-59.2297E-12	1.07984E+0	-33.9919E-3	-59.8492E-12	1.07904E+0	-10.0220E-3
-1.55828E-3	-59.9098E-12	1.07981E+0	-30.5778E-3	-60.5611E-12	1.06646E+0	13.9430E-3
-1.56328E-3	-60.5406E-12	1.06611E+0	-43.3011E-3	-61.1617E-12	1.05546E+0	3.23012E-3
-1.56828E-3	-60.8689E-12	1.05223E+0	-32.4746E-3	-61.2685E-12	1.05759E+0	-23.7187E-3
-1.57329E-3	-61.0580E-12	1.04032E+0	-12.0293E-3	-61.3197E-12	1.05636E+0	-32.9515E-3
-1.57829E-3	-61.3673E-12	1.04230E+0	-19.3485E-3	-61.9140E-12	1.04295E+0	-28.2118E-3
-1.58329E-3	-61.8063E-12	1.06197E+0	-24.9241E-3	-62.1134E-12	1.03151E+0	-24.3425E-3
-1.58829E-3	-62.1279E-12	1.06725E+0	-16.5336E-3	-62.3440E-12	1.03151E+0	-29.0895E-3
-1.59330E-3	-62.6070E-12	1.05626E+0	-7.93154E-3	-62.1573E-12	1.03364E+0	-31.9107E-3
-1.59830E-3	-62.5397E-12	1.04952E+0	-891.236E-6	-62.7411E-12	1.02697E+0	-25.6984E-3
-1.60330E-3	-62.8836E-12	1.04069E+0	-562.962E-6	-62.9022E-12	1.01561E+0	-22.2609E-3
-1.60830E-3	-63.4671E-12	1.03694E+0	-6.51060E-3	-63.0661E-12	1.01384E+0	-29.2506E-3
-1.61331E-3	-63.9096E-12	1.03897E+0	-270.752E-6	-63.2209E-12	1.01554E+0	-34.1086E-3
-1.61831E-3	-64.1929E-12	1.03098E+0	15.6797E-3	-63.9822E-12	1.01653E+0	-19.2977E-3
-1.62331E-3	-64.7905E-12	1.01943E+0	10.2037E-3	-63.9834E-12	1.02687E+0	-5.10411E-3
-1.62831E-3	-65.5334E-12	1.03180E+0	1.05287E-3	-64.3815E-12	1.01864E+0	-6.31759E-3
-1.63332E-3	-66.1774E-12	1.04233E+0	-1.04632E-3	-65.1219E-12	990.123E-3	-10.8871E-3
-1.63832E-3	-66.8471E-12	1.02260E+0	-13.3051E-3	-65.7651E-12	978.139E-3	-14.2567E-3
-1.64332E-3	-67.3121E-12	1.02105E+0	-15.1466E-3	-65.9257E-12	986.057E-3	-10.9094E-3
-1.64832E-3	-67.8436E-12	1.03103E+0	-12.2864E-3	-66.0683E-12	989.964E-3	-13.8132E-3
-1.65333E-3	-68.5062E-12	1.01813E+0	-29.6736E-3	-66.6864E-12	982.513E-3	-23.2737E-3
-1.65833E-3	-68.4991E-12	1.01910E+0	-39.8434E-3	-67.2075E-12	974.486E-3	-34.4169E-3
-1.66333E-3	-68.9907E-12	1.03466E+0	-22.8767E-3	-67.1166E-12	965.851E-3	-47.2623E-3
-1.66833E-3	-69.1960E-12	1.03164E+0	-12.7589E-3	-67.6734E-12	962.587E-3	-36.2371E-3
-1.67334E-3	-68.8944E-12	1.03258E+0	-13.2340E-3	-68.1249E-12	970.841E-3	-14.8675E-3
-1.67834E-3	-68.7206E-12	1.02621E+0	-4.70423E-3	-68.1684E-12	965.930E-3	-14.2284E-3
-1.68334E-3	-69.0450E-12	992.190E-3	-6.30065E-3	-68.6183E-12	950.250E-3	-21.3481E-3
-1.68834E-3	-68.7140E-12	977.626E-3	-19.5085E-3	-69.3714E-12	947.438E-3	-20.2362E-3
-1.69335E-3	-68.6190E-12	979.261E-3	-20.4195E-3	-69.5536E-12	949.142E-3	-17.9197E-3
-1.69835E-3	-68.6888E-12	966.402E-3	-21.6431E-3	-70.0502E-12	952.464E-3	-8.55515E-3
-1.70335E-3	-68.8397E-12	961.676E-3	-31.9640E-3	-70.4478E-12	954.043E-3	-3.64635E-3
-1.70835E-3	-69.0377E-12	963.941E-3	-23.2395E-3	-70.8094E-12	946.532E-3	-11.8579E-3
-1.71336E-3	-69.9254E-12	947.305E-3	-11.0256E-3	-71.2155E-12	935.271E-3	-13.3378E-3
-1.71836E-3	-70.4079E-12	930.051E-3	-21.8276E-3	-71.5717E-12	923.835E-3	-18.8778E-3
-1.72336E-3	-71.0309E-12	932.745E-3	-21.6031E-3	-71.4854E-12	918.370E-3	-24.9706E-3
-1.72836E-3	-72.1410E-12	927.603E-3	-15.1680E-3	-71.7961E-12	928.197E-3	-31.9405E-3
-1.73337E-3	-73.0287E-12	922.475E-3	-25.4961E-3	-71.9017E-12	935.121E-3	-47.5239E-3
-1.73837E-3	-73.2873E-12	937.876E-3	-20.0548E-3	-71.9463E-12	916.384E-3	-41.7959E-3
-1.74337E-3	-74.1962E-12	950.780E-3	-5.65524E-3	-71.7021E-12	905.030E-3	-13.9773E-3
-1.74837E-3	-74.7887E-12	957.687E-3	-16.0315E-3	-71.9778E-12	915.436E-3	5.91661E-3
-1.75338E-3	-74.6541E-12	962.973E-3	-27.9280E-3	-71.7638E-12	910.011E-3	13.6424E-3
-1.75838E-3	-74.6710E-12	954.073E-3	-22.6686E-3	-72.2828E-12	893.395E-3	5.65943E-3
-1.76338E-3	-75.3105E-12	946.094E-3	-23.9436E-3	-72.6186E-12	894.762E-3	-16.4154E-3
-1.76838E-3	-74.9436E-12	948.342E-3	-28.7895E-3	-73.0132E-12	892.789E-3	-21.1863E-3
-1.77339E-3	-74.3638E-12	933.261E-3	-19.7996E-3	-73.6618E-12	876.084E-3	-8.75741E-3
-1.77839E-3	-74.2354E-12	918.313E-3	-9.73948E-3	-74.3062E-12	876.046E-3	-6.06104E-3
-1.78339E-3	-74.2668E-12	920.995E-3	-16.3065E-3	-75.1925E-12	893.094E-3	-12.7232E-3
-1.78839E-3	-73.8929E-12	910.426E-3	-26.2959E-3	-75.4869E-12	896.700E-3	-10.1056E-3
-1.79340E-3	-73.8192E-12	879.163E-3	-27.0609E-3	-76.6894E-12	894.811E-3	101.205E-6
-1.79840E-3	-73.9528E-12	862.083E-3	-20.9239E-3	-77.2903E-12	893.518E-3	-752.642E-6
-1.80340E-3	-74.4933E-12	858.159E-3	-14.3103E-3	-77.5082E-12	874.038E-3	-7.64920E-3
-1.80840E-3	-74.7757E-12	859.798E-3	-15.3658E-3	-77.8536E-12	847.969E-3	-11.4570E-3
-1.81341E-3	-74.9552E-12	880.683E-3	-10.1599E-3	-78.7347E-12	846.535E-3	-9.15154E-3
-1.81841E-3	-75.7973E-12	876.972E-3	48.2177E-6	-78.5111E-12	865.632E-3	-3.58159E-3
-1.82341E-3	-76.5636E-12	851.258E-3	-5.47580E-3	-78.2412E-12	875.408E-3	-2.49281E-3
-1.82841E-3	-76.8708E-12	858.885E-3	-7.10277E-3	-78.0702E-12	868.302E-3	2.13981E-3
-1.83342E-3	-77.5852E-12	860.373E-3	3.90039E-3	-78.0847E-12	851.170E-3	6.37487E-3
-1.83842E-3	-78.5405E-12	843.058E-3	9.78735E-3	-77.3201E-12	839.189E-3	-1.99158E-3
-1.84342E-3	-78.9399E-12	852.533E-3	9.64962E-3	-77.1727E-12	837.959E-3	-10.9051E-3
-1.84842E-3	-79.3329E-12	855.959E-3	-2.66979E-3	-77.2051E-12	839.661E-3	-16.6935E-3
-1.85343E-3	-79.5478E-12	846.927E-3	-17.8380E-3	-77.4205E-12	837.019E-3	-15.8752E-3
-1.85843E-3	-79.5344E-12	858.894E-3	-23.5989E-3	-77.5747E-12	829.273E-3	-5.65826E-3
-1.86343E-3	-80.0325E-12	856.870E-3	-28.8544E-3	-77.6988E-12	829.380E-3	-1.56076E-3
-1.86843E-3	-80.2354E-12	834.545E-3	-41.7176E-3	-78.6544E-12	840.576E-3	-10.2549E-3
-1.87344E-3	-79.8578E-12	837.504E-3	-49.0826E-3	-79.3407E-12	852.923E-3	-25.9465E-3
-1.87844E-3	-79.6560E-12	842.658E-3	-27.2892E-3	-80.1206E-12	862.375E-3	-29.5313E-3
-1.88344E-3	-80.1280E-12	830.623E-3	1.23641E-3	-81.2373E-12	865.149E-3	-19.3514E-3
-1.88844E-3	-79.9611E-12	829.941E-3	-243.068E-6	-82.1797E-12	857.370E-3	-17.2687E-3
-1.89345E-3	-80.4613E-12	831.051E-3	-14.9816E-3	-82.3802E-12	846.551E-3	-20.0721E-3
-1.89845E-3	-80.6407E-12	817.258E-3	-25.8062E-3	-82.9868E-12	842.522E-3	-7.20433E-3
-1.90345E-3	-81.0166E-12	811.260E-3	-25.0109E-3	-83.1703E-12	838.721E-3	10.3084E-3
-1.90845E-3	-81.0732E-12	822.154E-3	-1.68461E-3	-83.2356E-12	832.151E-3	16.0252E-3
-1.91346E-3	-81.6393E-12	826.905E-3	12.5408E-3	-83.4355E-12	830.549E-3	18.1770E-3
-1.91846E-3	-82.4861E-12	830.719E-3	8.62395E-3	-82.5378E-12	836.025E-3	19.8477E-3
-1.92346E-3	-82.7050E-12	833.638E-3	-496.721E-6	-82.2679E-12	820.024E-3	17.4307E-3
-1.92846E-3	-83.2399E-12	822.294E-3	-24.3222E-3	-81.9257E-12	786.860E-3	17.7140E-3
-1.93347E-3	-83.9888E-12	823.471E-3	-34.9843E-3	-81.7695E-12	775.915E-3	14.0068E-3
-1.93847E-3	-84.5690E-12	833.772E-3	-19.8827E-3	-81.4178E-12	779.395E-3	-1.28441E-3
-1.94347E-3	-84.7824E-12	826.455E-3	-12.8960E-3	-81.6676E-12	783.152E-3	-8.15406E-3
-1.94847E-3	-85.7013E-12	816.683E-3	-14.8605E-3	-81.8008E-12	786.895E-3	-14.1284E-3
-1.95348E-3	-85.5458E-12	821.049E-3	-6.03634E-3	-82.0236E-12	795.327E-3	-27.5984E-3
-1.95848E-3	-85.5053E-12	822.633E-3	5.37649E-3	-82.8353E-12	802.343E-3	-26.2857E-3
-1.96348E-3	-86.0794E-12	822.933E-3	2.50528E-3	-84.1113E-12	814.135E-3	-24.2647E-3
-1.96848E-3	-86.0370E-12	826.425E-3	-2.92188E-3	-85.1562E-12	829.637E-3	-35.9326E-3
-1.97349E-3	-86.0515E-12	811.908E-3	-75.5797E-6	-86.0318E-12	831.285E-3	-32.5526E-3
-1.97849E-3	-86.4150E-12	797.899E-3	-4.33844E-3	-87.0484E-12	834.011E-3	-16.5712E-3
-1.98349E-3	-86.5662E-12	806.670E-3	-13.8180E-3	-87.8780E-12	836.112E-3	-17.0605E-3
-1.98849E-3	-86.4424E-12	806.948E-3	-14.9686E-3	-88.3743E-12	821.105E-3	-32.5588E-3
-1.99350E-3	-87.1306E-12	797.668E-3	-17.8431E-3	-88.7335E-12	800.231E-3	-41.6883E-3
-1.99850E-3	-86.8882E-12	809.756E-3	-15.1114E-3	-88.7398E-12	789.883E-3	-48.3365E-3
-2.00350E-3	-87.1041E-12	817.227E-3	-7.51447E-3	-89.1081E-12	779.700E-3	-51.0411E-3
-2.00850E-3	-86.7971E-12	801.622E-3	-20.1016E-3	-88.5915E-12	770.391E-3	-37.9558E-3
-2.01351E-3	-86.9026E-12	785.083E-3	-24.9118E-3	-88.4307E-12	776.735E-3	-27.6072E-3
-2.01851E-3	-87.1384E-12	768.102E-3	-7.31049E-3	-87.8425E-12	776.656E-3	-25.1759E-3
-2.02351E-3	-87.6025E-12	771.393E-3	-12.7073E-3	-87.1051E-12	769.923E-3	-27.9735E-3
-2.02851E-3	-87.4475E-12	802.797E-3	-34.4989E-3	-87.0639E-12	777.344E-3	-30.4083E-3
-2.03352E-3	-88.0415E-12	807.248E-3	-31.3297E-3	-86.7550E-12	780.829E-3	-22.9234E-3
-2.03852E-3	-88.4059E-12	783.688E-3	-13.6663E-3	-86.4981E-12	772.240E-3	-21.4588E-3
-2.04352E-3	-88.7162E-12	780.146E-3	3.45455E-3	-86.7869E-12	764.323E-3	-24.4452E-3
-2.04852E-3	-88.8598E-12	785.567E-3	16.8634E-3	-87.3940E-12	763.773E-3	-24.9167E-3
-2.05353E-3	-89.5044E-12	779.464E-3	-142.151E-6	-87.8612E-12	767.944E-3	-23.1415E-3
-2.05853E-3	-90.1018E-12	771.129E-3	-29.8578E-3	-88.3042E-12	774.488E-3	-13.2208E-3
-2.06353E-3	-90.6710E-12	760.308E-3	-45.3661E-3	-89.2337E-12	783.027E-3	-3.61787E-3
-2.06853E-3	-91.0803E-12	756.197E-3	-55.5841E-3	-90.2068E-12	789.384E-3	-5.05719E-3
-2.07354E-3	-91.5544E-12	772.689E-3	-47.5639E-3	-90.9133E-12	792.197E-3	-5.28081E-3
-2.07854E-3	-92.2535E-12	779.283E-3	-23.5647E-3	-91.8455E-12	788.127E-3	228.690E-6
-2.08354E-3	-92.1427E-12	762.503E-3	-22.6565E-3	-92.6560E-12	777.249E-3	3.55735E-3
-2.08854E-3	-92.4019E-12	767.241E-3	-35.9894E-3	-93.2943E-12	770.995E-3	1.59094E-3
-2.09355E-3	-92.3320E-12	773.177E-3	-28.0660E-3	-93.6861E-12	774.221E-3	-5.64179E-3
-2.09855E-3	-92.0007E-12	766.101E-3	-22.6779E-3	-94.0782E-12	786.661E-3	-6.11276E-3
-2.10355E-3	-92.0536E-12	788.592E-3	-33.4665E-3	-94.3868E-12	798.758E-3	-9.76181E-3
-2.10855E-3	-92.0807E-12	808.413E-3	-31.6808E-3	-94.5399E-12	785.708E-3	-17.7099E-3
-2.11356E-3	-92.2826E-12	781.271E-3	-21.3561E-3	-94.2237E-12	761.038E-3	-14.1670E-3
-2.11856E-3	-92.0123E-12	752.104E-3	-17.2998E-3	-93.9593E-12	770.767E-3	-12.4519E-3
-2.12356E-3	-92.1945E-12	763.290E-3	-10.1602E-3	-93.9591E-12	787.326E-3	-24.4151E-3
-2.12856E-3	-92.1104E-12	769.347E-3	-8.75882E-3	-94.1580E-12	770.478E-3	-20.2291E-3
-2.13357E-3	-92.1840E-12	759.019E-3	-14.7294E-3	-93.6779E-12	752.350E-3	7.81961E-3
-2.13857E-3	-92.1933E-12	763.377E-3	-6.55461E-3	-93.9215E-12	753.863E-3	7.52212E-3
-2.14357E-3	-92.4363E-12	759.732E-3	2.13400E-3	-93.9804E-12	749.046E-3	-19.2238E-3
-2.14857E-3	-92.8006E-12	748.364E-3	-9.70231E-3	-93.7805E-12	735.757E-3	-18.3262E-3
-2.15358E-3	-93.6097E-12	746.108E-3	-20.2454E-3	-93.7128E-12	738.485E-3	3.37762E-3
-2.15858E-3	-94.1260E-12	748.682E-3	-15.5112E-3	-94.1616E-12	743.025E-3	1.16247E-3
-2.16358E-3	-94.9580E-12	760.325E-3	-8.30008E-3	-94.3187E-12	739.067E-3	-10.4490E-3
-2.16858E-3	-96.1749E-12	768.746E-3	-3.29399E-3	-94.2775E-12	740.990E-3	-18.2405E-3
-2.17359E-3	-96.8339E-12	754.064E-3	-2.10679E-3	-94.0543E-12	739.579E-3	-27.6564E-3
-2.17859E-3	-97.7010E-12	735.696E-3	-4.33772E-3	-94.4825E-12	730.895E-3	-14.6733E-3
-2.18359E-3	-98.2441E-12	739.454E-3	-13.1749E-3	-94.5461E-12	737.022E-3	-3.16500E-3
-2.18859E-3	-98.6187E-12	737.200E-3	-21.6328E-3	-94.6465E-12	754.983E-3	-10.1646E-3
-2.19360E-3	-98.7148E-12	728.902E-3	-13.7245E-3	-95.0560E-12	765.065E-3	-20.5128E-3
-2.19860E-3	-98.8605E-12	743.769E-3	-1.62270E-3	-96.1418E-12	771.336E-3	-30.1197E-3
-2.20360E-3	-98.9123E-12	755.132E-3	-582.302E-6	-96.3618E-12	771.175E-3	-29.8142E-3
-2.20860E-3	-98.8334E-12	751.119E-3	-11.9612E-3	-97.6575E-12	761.462E-3	-25.5539E-3
-2.21361E-3	-98.4063E-12	754.487E-3	-23.7176E-3	-98.7515E-12	765.479E-3	-21.3114E-3
-2.21861E-3	-98.2689E-12	749.130E-3	-19.9058E-3	-99.6388E-12	769.749E-3	-21.4140E-3
-2.22361E-3	-98.4338E-12	736.614E-3	-12.5165E-3	-99.9385E-12	759.109E-3	-17.9625E-3
-2.22861E-3	-97.9540E-12	739.926E-3	-15.2108E-3	-100.745E-12	761.884E-3	-15.4019E-3
-2.23362E-3	-97.8940E-12	743.411E-3	-14.1926E-3	-100.882E-12	771.724E-3	-21.3064E-3
-2.23862E-3	-98.2796E-12	737.284E-3	-5.17924E-3	-101.114E-12	770.347E-3	-7.43861E-3
-2.24362E-3	-98.5359E-12	734.786E-3	1.04050E-3	-100.927E-12	753.766E-3	-5.66200E-3
-2.24862E-3	-99.1327E-12	732.364E-3	24.5620E-6	-100.690E-12	744.155E-3	-30.2820E-3
-2.25363E-3	-99.9901E-12	723.063E-3	-5.59413E-3	-100.060E-12	751.832E-3	-31.7593E-3
-2.25863E-3	-100.551E-12	727.699E-3	-7.65070E-3	-99.7482E-12	741.177E-3	-9.99663E-3
-2.26363E-3	-101.163E-12	740.552E-3	-318.621E-6	-99.2334E-12	723.072E-3	9.99569E-3
-2.26863E-3	-102.185E-12	733.259E-3	-682.713E-6	-98.7736E-12	723.519E-3	9.61731E-3
-2.27364E-3	-102.463E-12	735.206E-3	-13.3070E-3	-98.6686E-12	721.565E-3	2.59779E-3
-2.27864E-3	-103.025E-12	753.000E-3	-15.8726E-3	-98.5517E-12	706.177E-3	-761.632E-6
-2.28364E-3	-103.195E-12	747.626E-3	-26.5762E-3	-98.5994E-12	699.681E-3	-9.04022E-3
-2.28864E-3	-103.554E-12	748.878E-3	-42.6221E-3	-99.2538E-12	700.871E-3	-7.76617E-3
-2.29365E-3	-103.330E-12	762.662E-3	-33.3043E-3	-100.038E-12	692.314E-3	-6.44384E-3
-2.29865E-3	-103.490E-12	753.935E-3	-25.6882E-3	-100.616E-12	693.670E-3	-5.17750E-3
-2.30365E-3	-102.752E-12	756.532E-3	-27.6053E-3	-101.963E-12	709.357E-3	9.49404E-3
-2.30865E-3	-102.540E-12	772.447E-3	-21.7151E-3	-103.124E-12	722.279E-3	10.8504E-3
-2.31366E-3	-102.036E-12	751.172E-3	-26.0163E-3	-103.932E-12	735.030E-3	-5.46436E-3
-2.31866E-3	-101.938E-12	720.777E-3	-34.4766E-3	-104.612E-12	744.961E-3	-15.9890E-3
-2.32366E-3	-101.197E-12	720.193E-3	-24.5609E-3	-105.497E-12	734.858E-3	-18.8092E-3
-2.32866E-3	-101.648E-12	714.990E-3	-15.8115E-3	-105.634E-12	723.678E-3	-17.7220E-3
-2.33367E-3	-101.553E-12	704.871E-3	-23.7804E-3	-105.774E-12	737.544E-3	-17.6289E-3
-2.33867E-3	-102.180E-12	718.224E-3	-17.3077E-3	-106.001E-12	748.964E-3	-28.4666E-3
-2.34367E-3	-102.390E-12	729.635E-3	-4.34587E-3	-105.795E-12	736.951E-3	-43.2666E-3
-2.34867E-3	-103.279E-12	720.374E-3	-11.9128E-3	-105.159E-12	735.431E-3	-33.1216E-3
-2.35368E-3	-104.018E-12	706.477E-3	-16.4014E-3	-104.776E-12	740.656E-3	-6.08815E-3
-2.35868E-3	-104.596E-12	703.720E-3	-16.4605E-3	-104.271E-12	714.402E-3	4.84692E-3
-2.36368E-3	-105.499E-12	718.254E-3	-27.3710E-3	-104.034E-12	693.718E-3	1.83993E-3
-2.36868E-3	-106.320E-12	739.525E-3	-30.8696E-3	-103.809E-12	714.558E-3	2.70363E-3
-2.37369E-3	-106.724E-12	741.232E-3	-19.3663E-3	-103.450E-12	735.568E-3	1.17815E-3
-2.37869E-3	-106.868E-12	720.195E-3	-18.8959E-3	-103.649E-12	735.273E-3	-11.9725E-3
-2.38369E-3	-107.677E-12	708.443E-3	-33.3822E-3	-104.685E-12	734.005E-3	-12.0523E-3
-2.38869E-3	-107.642E-12	709.562E-3	-26.0131E-3	-104.915E-12	735.194E-3	-5.16584E-3
-2.39370E-3	-107.236E-12	713.726E-3	-6.76032E-3	-106.124E-12	741.060E-3	-13.4021E-3
-2.39870E-3	-106.854E-12	739.854E-3	-6.25326E-3	-107.519E-12	746.600E-3	-26.4318E-3
-2.40370E-3	-106.818E-12	760.865E-3	-12.6119E-3	-108.895E-12	739.599E-3	-47.5879E-3
-2.40870E-3	-106.204E-12	744.002E-3	-22.0307E-3	-109.458E-12	747.577E-3	-54.4132E-3
-2.41371E-3	-105.750E-12	728.942E-3	-23.5303E-3	-110.539E-12	769.211E-3	-24.5498E-3
-2.41871E-3	-106.144E-12	724.775E-3	-7.20058E-3	-111.120E-12	766.338E-3	-5.01967E-3
-2.42371E-3	-105.820E-12	700.518E-3	-3.63782E-3	-111.494E-12	753.264E-3	-10.5531E-3
-2.42871E-3	-106.163E-12	687.799E-3	-19.6506E-3	-111.055E-12	768.484E-3	-24.3501E-3
-2.43372E-3	-106.876E-12	701.673E-3	-26.0663E-3	-111.219E-12	771.459E-3	-33.2083E-3
-2.43872E-3	-107.747E-12	707.642E-3	-18.7208E-3	-110.726E-12	728.221E-3	-21.2165E-3
-2.44372E-3	-107.895E-12	698.013E-3	-8.82591E-3	-110.089E-12	697.261E-3	-16.2200E-3
-2.44872E-3	-108.978E-12	681.562E-3	-1.79815E-3	-109.386E-12	688.597E-3	-22.2426E-3
-2.45373E-3	-109.609E-12	682.259E-3	-4.97390E-3	-108.666E-12	698.498E-3	-18.6728E-3
-2.45873E-3	-110.542E-12	699.716E-3	-2.31012E-3	-108.034E-12	733.618E-3	-16.0696E-3
-2.46373E-3	-110.746E-12	716.228E-3	14.5186E-3	-107.523E-12	736.415E-3	-18.5221E-3
-2.46873E-3	-111.027E-12	719.969E-3	19.6547E-3	-107.698E-12	700.839E-3	-19.0494E-3
-2.47374E-3	-111.627E-12	724.088E-3	-4.92829E-3	-107.496E-12	677.935E-3	-1.73825E-3
-2.47874E-3	-111.956E-12	747.710E-3	-33.3320E-3	-107.833E-12	683.709E-3	15.7720E-3
-2.48374E-3	-111.996E-12	747.573E-3	-41.9875E-3	-108.319E-12	710.849E-3	1.13738E-3
-2.48874E-3	-112.612E-12	714.530E-3	-46.3054E-3	-109.118E-12	734.758E-3	-9.44345E-3
-2.49375E-3	-112.360E-12	718.684E-3	-52.7089E-3	-109.556E-12	732.439E-3	-2.70560E-3
-2.49875E-3	-112.499E-12	746.907E-3	-61.8859E-3	-110.712E-12	718.965E-3	-12.2446E-3
-2.50375E-3	-112.751E-12	750.198E-3	-59.4728E-3	-111.387E-12	731.417E-3	-20.4809E-3
-2.50875E-3	-113.482E-12	736.054E-3	-26.1662E-3	-112.121E-12	757.115E-3	-11.1306E-3
-2.51376E-3	-114.005E-12	722.207E-3	4.70815E-3	-112.624E-12	747.067E-3	-5.12563E-3
-2.51876E-3	-114.700E-12	722.804E-3	-1.51140E-3	-112.890E-12	722.888E-3	-7.80089E-3
-2.52376E-3	-115.093E-12	730.827E-3	-19.7439E-3	-113.369E-12	732.096E-3	-9.59488E-3
-2.52876E-3	-115.355E-12	730.000E-3	-31.6375E-3	-113.479E-12	732.065E-3	-3.25764E-3
-2.53377E-3	-115.678E-12	720.069E-3	-30.0044E-3	-114.037E-12	711.564E-3	2.03202E-3
-2.53877E-3	-115.322E-12	716.891E-3	2.01509E-3	-114.007E-12	716.342E-3	-10.1312E-3
-2.54377E-3	-115.228E-12	713.614E-3	35.5294E-3	-113.989E-12	723.883E-3	-38.0057E-3
-2.54877E-3	-115.134E-12	718.878E-3	30.8389E-3	-113.913E-12	705.615E-3	-54.5327E-3
-2.55378E-3	-115.132E-12	736.165E-3	5.67755E-3	-113.902E-12	689.123E-3	-49.9317E-3
-2.55878E-3	-114.468E-12	732.973E-3	-2.54112E-3	-114.219E-12	678.597E-3	-36.7369E-3
-2.56378E-3	-114.777E-12	727.472E-3	-4.26078E-3	-114.519E-12	666.040E-3	-18.0515E-3
-2.56878E-3	-114.510E-12	723.846E-3	-6.61857E-3	-114.431E-12	668.699E-3	211.164E-6
-2.57379E-3	-114.116E-12	689.043E-3	-9.83498E-3	-114.206E-12	683.227E-3	6.15344E-3
-2.57879E-3	-114.063E-12	661.137E-3	-21.4677E-3	-114.939E-12	699.433E-3	5.94626E-3
-2.58379E-3	-114.928E-12	688.035E-3	-27.9261E-3	-115.103E-12	714.935E-3	2.73899E-3
-2.58879E-3	-115.114E-12	728.191E-3	-30.7643E-3	-115.027E-12	721.159E-3	-9.95163E-3
-2.59380E-3	-115.708E-12	732.294E-3	-32.2171E-3	-115.395E-12	713.078E-3	-20.3282E-3
-2.59880E-3	-116.871E-12	725.151E-3	-25.6816E-3	-115.669E-12	695.281E-3	-26.4245E-3
-2.60380E-3	-117.954E-12	732.610E-3	-17.1232E-3	-115.881E-12	679.931E-3	-33.2524E-3
-2.60880E-3	-118.404E-12	746.145E-3	-17.7823E-3	-115.970E-12	679.133E-3	-32.4171E-3
-2.61381E-3	-119.570E-12	752.478E-3	-30.2533E-3	-116.878E-12	685.238E-3	-24.8428E-3
-2.61881E-3	-119.630E-12	747.885E-3	-34.2972E-3	-116.911E-12	691.478E-3	-18.7361E-3
-2.62381E-3	-119.665E-12	738.718E-3	-26.1483E-3	-117.004E-12	709.312E-3	-9.49546E-3
-2.62881E-3	-119.706E-12	736.303E-3	-23.0354E-3	-117.485E-12	728.304E-3	-6.74814E-3
-2.63382E-3	-119.790E-12	733.401E-3	-16.0024E-3	-118.340E-12	731.906E-3	-19.8424E-3
-2.63882E-3	-119.146E-12	723.466E-3	-9.75086E-3	-118.627E-12	735.352E-3	-15.4920E-3
-2.64382E-3	-118.545E-12	732.199E-3	-10.5807E-3	-119.068E-12	722.640E-3	6.21139E-3
-2.64882E-3	-117.646E-12	745.721E-3	-7.39367E-3	-119.641E-12	695.796E-3	8.73821E-3
-2.65383E-3	-117.479E-12	741.796E-3	-15.0180E-3	-120.225E-12	697.281E-3	-12.0688E-3
-2.65883E-3	-116.872E-12	740.282E-3	-26.4027E-3	-120.529E-12	719.467E-3	-25.6348E-3
-2.66383E-3	-116.953E-12	741.466E-3	-14.5477E-3	-120.851E-12	729.954E-3	-15.8674E-3
-2.66883E-3	-116.640E-12	725.285E-3	12.0616E-3	-121.335E-12	726.352E-3	-12.2705E-3
-2.67384E-3	-117.509E-12	708.370E-3	14.8194E-3	-121.240E-12	726.656E-3	-19.4436E-3
-2.67884E-3	-117.756E-12	703.944E-3	-561.629E-6	-121.110E-12	719.017E-3	-24.3792E-3
-2.68384E-3	-118.652E-12	688.570E-3	-7.34235E-3	-120.914E-12	701.533E-3	-25.7242E-3
-2.68884E-3	-119.690E-12	684.457E-3	-12.6492E-3	-121.039E-12	705.083E-3	-22.4458E-3
-2.69385E-3	-120.652E-12	701.348E-3	-8.39089E-3	-120.798E-12	710.047E-3	-16.0102E-3
-2.69885E-3	-121.578E-12	695.193E-3	-7.44017E-3	-121.059E-12	703.472E-3	-2.95742E-3
-2.70385E-3	-122.473E-12	694.135E-3	-30.2648E-3	-120.721E-12	701.125E-3	5.09430E-3
-2.70885E-3	-123.277E-12	718.465E-3	-33.2785E-3	-121.026E-12	701.588E-3	-2.03279E-3
-2.71386E-3	-123.234E-12	722.693E-3	-17.0175E-3	-120.857E-12	711.716E-3	-9.99175E-3
-2.71886E-3	-123.223E-12	702.466E-3	-31.3032E-3	-121.144E-12	722.771E-3	-10.7353E-3
-2.72386E-3	-123.002E-12	688.800E-3	-42.0528E-3	-121.535E-12	713.526E-3	-10.2496E-3
-2.72886E-3	-122.864E-12	687.557E-3	-15.3256E-3	-122.259E-12	700.894E-3	-11.4260E-3
-2.73387E-3	-122.430E-12	688.633E-3	-7.62086E-3	-122.851E-12	703.740E-3	-10.6792E-3
-2.73887E-3	-121.573E-12	698.462E-3	-33.1479E-3	-123.366E-12	700.448E-3	-5.64514E-3
-2.74387E-3	-120.942E-12	713.642E-3	-40.1068E-3	-124.426E-12	690.894E-3	7.98942E-3
-2.74887E-3	-121.261E-12	710.595E-3	-29.5027E-3	-124.165E-12	699.042E-3	14.2722E-3
-2.75388E-3	-121.297E-12	692.142E-3	-28.5643E-3	-124.522E-12	706.474E-3	-11.6820E-3
-2.75888E-3	-121.674E-12	678.147E-3	-43.8824E-3	-124.269E-12	689.858E-3	-28.4959E-3
-2.76388E-3	-122.585E-12	676.766E-3	-44.4511E-3	-124.779E-12	668.829E-3	-16.5945E-3
-2.76888E-3	-123.132E-12	688.132E-3	-18.0716E-3	-124.078E-12	664.851E-3	-15.2824E-3
-2.77389E-3	-124.037E-12	696.174E-3	-10.8037E-3	-123.808E-12	670.394E-3	-20.5735E-3
-2.77889E-3	-125.328E-12	696.367E-3	-26.7674E-3	-124.319E-12	675.385E-3	-16.3150E-3
-2.78389E-3	-126.503E-12	699.357E-3	-28.7162E-3	-123.707E-12	688.365E-3	-21.5342E-3
-2.78889E-3	-127.429E-12	708.188E-3	-6.75034E-3	-123.481E-12	692.709E-3	-30.5897E-3
-2.79390E-3	-128.214E-12	710.066E-3	2.63403E-3	-123.710E-12	680.510E-3	-22.6956E-3
-2.79890E-3	-128.949E-12	703.433E-3	-9.53419E-3	-123.653E-12	673.454E-3	-8.27223E-3
-2.80390E-3	-129.444E-12	697.517E-3	-10.3319E-3	-123.188E-12	670.393E-3	278.302E-6
-2.80890E-3	-129.146E-12	690.213E-3	-5.80582E-3	-123.906E-12	670.622E-3	1.98932E-3
-2.81391E-3	-128.867E-12	694.861E-3	-8.18740E-3	-124.776E-12	677.658E-3	-5.32989E-3
-2.81891E-3	-128.434E-12	714.696E-3	-10.4209E-3	-125.407E-12	681.213E-3	-11.3274E-3
-2.82391E-3	-127.704E-12	723.825E-3	-23.0660E-3	-126.344E-12	687.277E-3	4.76229E-3
-2.82891E-3	-126.713E-12	709.936E-3	-44.3694E-3	-127.781E-12	694.800E-3	10.2191E-3
-2.83392E-3	-126.264E-12	691.869E-3	-47.3123E-3	-129.031E-12	689.336E-3	-9.94226E-3
-2.83892E-3	-125.872E-12	691.376E-3	-40.2003E-3	-129.511E-12	682.517E-3	-11.5926E-3
-2.84392E-3	-125.456E-12	687.121E-3	-43.7140E-3	-130.593E-12	690.823E-3	4.68025E-3
-2.84892E-3	-125.714E-12	675.991E-3	-29.6841E-3	-130.817E-12	701.479E-3	2.39908E-3
-2.85393E-3	-126.315E-12	677.659E-3	-7.79647E-3	-131.349E-12	695.825E-3	-12.2468E-3
-2.85893E-3	-126.703E-12	680.813E-3	-15.8004E-3	-130.535E-12	689.529E-3	-26.2875E-3
-2.86393E-3	-127.106E-12	682.590E-3	-36.1975E-3	-131.015E-12	695.516E-3	-47.3118E-3
-2.86893E-3	-128.785E-12	681.896E-3	-33.3665E-3	-130.258E-12	690.888E-3	-52.2010E-3
-2.87394E-3	-130.097E-12	686.824E-3	-19.2217E-3	-130.003E-12	672.932E-3	-35.2222E-3
-2.87894E-3	-131.035E-12	689.458E-3	-6.93669E-3	-129.235E-12	669.305E-3	-29.0988E-3
-2.88394E-3	-131.282E-12	686.150E-3	980.486E-6	-128.944E-12	667.298E-3	-36.0725E-3
-2.88894E-3	-132.758E-12	691.672E-3	-5.65188E-3	-128.197E-12	662.310E-3	-30.6070E-3
-2.89395E-3	-132.957E-12	695.984E-3	-20.0166E-3	-127.891E-12	668.713E-3	-31.0890E-3
-2.89895E-3	-132.723E-12	700.791E-3	-29.3585E-3	-127.665E-12	666.535E-3	-40.1452E-3
-2.90395E-3	-132.712E-12	704.122E-3	-18.5128E-3	-128.214E-12	674.299E-3	-33.4057E-3
-2.90895E-3	-132.836E-12	701.519E-3	-7.27161E-3	-128.551E-12	706.474E-3	-33.1264E-3
-2.91396E-3	-131.931E-12	701.733E-3	-11.6175E-3	-128.854E-12	710.897E-3	-37.1654E-3
-2.91896E-3	-131.984E-12	699.358E-3	-17.6991E-3	-130.020E-12	684.116E-3	-28.5132E-3
-2.92396E-3	-131.308E-12	698.304E-3	-21.8167E-3	-131.331E-12	683.293E-3	-33.4616E-3
-2.92896E-3	-131.284E-12	695.241E-3	-19.4399E-3	-132.288E-12	699.727E-3	-50.0904E-3
-2.93397E-3	-130.934E-12	691.173E-3	-26.3665E-3	-132.824E-12	707.623E-3	-30.5778E-3
-2.93897E-3	-130.803E-12	702.118E-3	-30.6696E-3	-134.185E-12	724.889E-3	-4.73410E-3
-2.94397E-3	-131.075E-12	706.421E-3	-17.3041E-3	-134.230E-12	723.648E-3	-15.9792E-3
-2.94897E-3	-131.462E-12	698.897E-3	-15.5692E-3	-134.832E-12	696.654E-3	-31.2868E-3
-2.95398E-3	-131.963E-12	683.524E-3	-19.9429E-3	-134.125E-12	690.956E-3	-35.1656E-3
-2.95898E-3	-132.855E-12	667.729E-3	-18.5648E-3	-134.858E-12	700.004E-3	-33.6132E-3
-2.96398E-3	-133.591E-12	682.101E-3	-25.5430E-3	-134.641E-12	686.643E-3	-21.3360E-3
-2.96898E-3	-133.692E-12	706.749E-3	-31.2466E-3	-134.106E-12	674.615E-3	-15.0939E-3
-2.97399E-3	-134.264E-12	708.894E-3	-17.3373E-3	-133.651E-12	677.961E-3	-17.5541E-3
-2.97899E-3	-134.996E-12	689.322E-3	-21.6852E-6	-133.704E-12	672.112E-3	-8.84296E-3
-2.98399E-3	-134.932E-12	690.424E-3	-83.3650E-6	-133.144E-12	681.477E-3	-5.43983E-3
-2.98899E-3	-135.078E-12	705.600E-3	-18.8692E-3	-133.529E-12	705.045E-3	-5.62893E-3
-2.99400E-3	-134.710E-12	687.252E-3	-27.4240E-3	-133.208E-12	701.997E-3	-5.76077E-3
-2.99900E-3	-135.182E-12	677.112E-3	-17.3982E-3	-133.623E-12	683.687E-3	-12.8552E-3
-3.00400E-3	-135.432E-12	692.408E-3	-12.0358E-3	-133.315E-12	679.452E-3	-5.04646E-3
-3.00900E-3	-135.791E-12	690.154E-3	-9.08755E-3	-134.431E-12	684.975E-3	16.3897E-3
-3.01401E-3	-136.354E-12	680.170E-3	-12.6868E-3	-134.901E-12	695.616E-3	22.7752E-3
-3.01901E-3	-136.581E-12	680.346E-3	-19.6757E-3	-135.421E-12	707.509E-3	6.19563E-3
-3.02401E-3	-137.267E-12	668.021E-3	-16.9626E-3	-135.788E-12	698.374E-3	6.80831E-3
-3.02901E-3	-137.743E-12	664.582E-3	-11.3013E-3	-137.405E-12	702.191E-3	25.0329E-3
-3.03402E-3	-138.223E-12	684.952E-3	-214.190E-6	-137.290E-12	729.917E-3	7.20938E-3
-3.03902E-3	-138.536E-12	688.518E-3	-1.70996E-3	-137.898E-12	729.173E-3	-27.9125E-3
-3.04402E-3	-138.913E-12	682.954E-3	-11.3558E-3	-138.439E-12	707.183E-3	-44.0024E-3
-3.04902E-3	-138.911E-12	703.037E-3	-5.71742E-3	-138.790E-12	693.084E-3	-47.9556E-3
-3.05403E-3	-138.929E-12	718.852E-3	10.9362E-3	-138.580E-12	688.721E-3	-20.1057E-3
-3.05903E-3	-138.962E-12	710.698E-3	19.3018E-3	-138.881E-12	686.914E-3	7.53905E-3
-3.06403E-3	-138.619E-12	702.906E-3	2.03392E-3	-138.470E-12	683.363E-3	-18.0152E-3
-3.06903E-3	-137.760E-12	701.118E-3	-13.5041E-3	-138.026E-12	686.178E-3	-43.8752E-3
-3.07404E-3	-137.867E-12	697.492E-3	-13.4472E-3	-138.142E-12	692.297E-3	-29.1637E-3
-3.07904E-3	-137.208E-12	677.219E-3	-19.7451E-3	-138.366E-12	688.909E-3	-19.1840E-3
-3.08404E-3	-137.174E-12	662.038E-3	-28.5027E-3	-137.903E-12	675.766E-3	-23.9812E-3
-3.08904E-3	-137.884E-12	678.556E-3	-25.5815E-3	-138.552E-12	671.326E-3	-14.0150E-3
-3.09405E-3	-137.758E-12	694.754E-3	-23.7748E-3	-138.538E-12	675.432E-3	6.68647E-3
-3.09905E-3	-137.853E-12	680.222E-3	-35.2017E-3	-138.420E-12	667.403E-3	7.17685E-3
-3.10405E-3	-139.506E-12	658.093E-3	-44.3424E-3	-139.130E-12	653.714E-3	-15.9511E-3
-3.10905E-3	-140.668E-12	671.568E-3	-37.6862E-3	-139.878E-12	666.892E-3	-32.6273E-3
-3.11406E-3	-141.498E-12	694.611E-3	-24.1061E-3	-139.806E-12	684.883E-3	-35.1739E-3
-3.11906E-3	-142.371E-12	697.491E-3	-10.1807E-3	-140.089E-12	671.831E-3	-27.0248E-3
-3.12406E-3	-143.432E-12	699.975E-3	15.6513E-3	-140.592E-12	669.284E-3	-18.4239E-3
-3.12906E-3	-145.178E-12	703.667E-3	35.1947E-3	-141.174E-12	690.174E-3	-26.6118E-3
-3.13407E-3	-145.133E-12	702.407E-3	12.4106E-3	-141.368E-12	702.696E-3	-34.1727E-3
-3.13907E-3	-144.972E-12	700.012E-3	-11.1712E-3	-142.265E-12	708.317E-3	-30.3754E-3
-3.14407E-3	-145.251E-12	697.436E-3	-3.40476E-3	-142.433E-12	720.047E-3	-20.7006E-3
-3.14907E-3	-144.495E-12	689.345E-3	-991.124E-6	-143.221E-12	731.129E-3	699.759E-6
-3.15408E-3	-143.138E-12	683.400E-3	-21.1652E-3	-143.565E-12	744.172E-3	8.62584E-3
-3.15908E-3	-142.709E-12	688.311E-3	-43.1465E-3	-144.348E-12	741.137E-3	-11.2262E-3
-3.16408E-3	-141.511E-12	692.940E-3	-41.9836E-3	-144.611E-12	721.301E-3	-22.1109E-3
-3.16908E-3	-140.203E-12	694.830E-3	-30.4713E-3	-144.763E-12	718.484E-3	-14.1991E-3
-3.17409E-3	-138.864E-12	696.143E-3	-12.2679E-3	-144.935E-12	709.520E-3	-4.35267E-3
-3.17909E-3	-138.860E-12	680.465E-3	10.8674E-3	-145.141E-12	685.191E-3	3.10705E-3
-3.18409E-3	-138.415E-12	666.122E-3	2.90656E-3	-144.607E-12	682.871E-3	3.06866E-3
-3.18909E-3	-138.648E-12	670.372E-3	-8.42695E-3	-144.262E-12	679.494E-3	-7.52903E-3
-3.19410E-3	-139.744E-12	667.416E-3	-4.50544E-3	-144.506E-12	649.439E-3	-4.97478E-3
-3.19910E-3	-141.174E-12	668.209E-3	-19.2806E-3	-144.082E-12	638.709E-3	-1.58196E-3
-3.20410E-3	-142.662E-12	685.046E-3	-33.9638E-3	-143.465E-12	654.194E-3	-21.9048E-3
-3.20910E-3	-144.103E-12	690.851E-3	-28.4829E-3	-143.138E-12	666.521E-3	-32.0257E-3
-3.21411E-3	-145.866E-12	687.923E-3	-19.3381E-3	-142.722E-12	676.501E-3	-27.6963E-3
-3.21911E-3	-147.596E-12	686.032E-3	-10.5862E-3	-142.437E-12	687.481E-3	-32.7557E-3
-3.22411E-3	-148.549E-12	679.471E-3	-5.81280E-3	-142.898E-12	693.360E-3	-34.7403E-3
-3.22911E-3	-149.626E-12	684.535E-3	-6.33505E-3	-143.210E-12	697.450E-3	-28.2114E-3
-3.23412E-3	-150.783E-12	693.215E-3	3.06523E-3	-143.738E-12	686.896E-3	-25.7291E-3
-3.23912E-3	-150.618E-12	682.012E-3	2.82670E-3	-145.247E-12	659.013E-3	-33.0378E-3
-3.24412E-3	-150.153E-12	669.894E-3	-17.7360E-3	-145.257E-12	655.660E-3	-42.8084E-3
-3.24912E-3	-149.715E-12	680.350E-3	-18.2358E-3	-146.876E-12	682.284E-3	-36.5885E-3
-3.25413E-3	-148.171E-12	710.089E-3	4.86351E-3	-148.484E-12	703.344E-3	-15.1711E-3
-3.25913E-3	-146.884E-12	720.097E-3	8.72125E-3	-149.250E-12	714.202E-3	-7.33933E-3
-3.26413E-3	-145.618E-12	698.241E-3	6.28816E-3	-150.135E-12	717.062E-3	-22.6976E-3
-3.26913E-3	-144.373E-12	687.266E-3	14.3359E-3	-150.830E-12	705.288E-3	-33.7025E-3
-3.27414E-3	-143.628E-12	685.491E-3	19.9407E-3	-151.819E-12	700.941E-3	-33.8036E-3
-3.27914E-3	-143.706E-12	665.879E-3	18.0405E-3	-151.349E-12	714.043E-3	-42.1320E-3
-3.28414E-3	-144.018E-12	648.619E-3	12.8749E-3	-152.004E-12	707.487E-3	-45.5774E-3
-3.28914E-3	-144.512E-12	658.298E-3	12.1375E-3	-151.172E-12	678.146E-3	-32.1737E-3
-3.29415E-3	-145.636E-12	677.180E-3	6.74976E-3	-150.742E-12	676.606E-3	-22.0278E-3
-3.29915E-3	-146.328E-12	688.573E-3	-3.98172E-3	-149.449E-12	690.387E-3	-17.6608E-3
-3.30415E-3	-147.585E-12	696.134E-3	-10.2187E-3	-149.045E-12	675.907E-3	-2.73254E-3
-3.30915E-3	-149.359E-12	696.839E-3	-24.5678E-3	-147.697E-12	664.867E-3	12.2141E-3
-3.31416E-3	-150.763E-12	692.470E-3	-33.5860E-3	-146.752E-12	672.427E-3	1.48264E-3
-3.31916E-3	-151.626E-12	698.398E-3	-16.3742E-3	-145.979E-12	664.668E-3	-7.01325E-3
-3.32416E-3	-152.562E-12	719.066E-3	-1.56699E-3	-145.547E-12	655.997E-3	-5.54362E-3
-3.32916E-3	-154.233E-12	725.381E-3	8.26992E-3	-145.302E-12	661.685E-3	-25.8310E-3
-3.33417E-3	-154.261E-12	711.109E-3	14.8661E-3	-146.384E-12	652.132E-3	-46.0079E-3
-3.33917E-3	-154.825E-12	710.702E-3	4.15186E-3	-147.271E-12	657.207E-3	-27.6493E-3
-3.34417E-3	-154.220E-12	718.506E-3	-9.66773E-3	-148.078E-12	690.487E-3	-3.29213E-3
-3.34917E-3	-154.158E-12	705.111E-3	-15.4318E-3	-148.855E-12	701.964E-3	-7.07685E-3
-3.35418E-3	-153.819E-12	688.286E-3	-15.1894E-3	-150.716E-12	693.111E-3	-13.5959E-3
-3.35918E-3	-153.473E-12	687.038E-3	-14.0755E-3	-151.835E-12	688.866E-3	-11.8038E-3
-3.36418E-3	-152.742E-12	699.693E-3	-8.96047E-3	-153.095E-12	696.255E-3	5.38976E-3
-3.36918E-3	-152.316E-12	696.989E-3	7.49001E-3	-154.106E-12	706.435E-3	4.36537E-3
-3.37419E-3	-152.218E-12	686.177E-3	13.3107E-3	-155.461E-12	700.326E-3	-28.1571E-3
-3.37919E-3	-152.684E-12	693.878E-3	1.80606E-3	-155.614E-12	687.193E-3	-34.2984E-3
-3.38419E-3	-152.655E-12	706.970E-3	-2.32485E-3	-155.885E-12	687.020E-3	-15.1685E-3
-3.38919E-3	-152.651E-12	698.348E-3	-9.77916E-3	-155.601E-12	683.624E-3	-22.9947E-3
-3.39420E-3	-152.917E-12	664.259E-3	-14.2841E-3	-155.516E-12	672.320E-3	-46.2559E-3
-3.39920E-3	-153.613E-12	658.011E-3	-4.65719E-3	-154.512E-12	671.523E-3	-32.6350E-3
-3.40420E-3	-153.653E-12	692.494E-3	-9.78173E-3	-154.481E-12	682.471E-3	-15.0319E-3
-3.40920E-3	-153.858E-12	717.418E-3	-32.7470E-3	-153.685E-12	700.275E-3	-32.8692E-3
-3.41421E-3	-154.293E-12	713.805E-3	-51.7523E-3	-153.268E-12	700.805E-3	-35.8573E-3
-3.41921E-3	-154.499E-12	707.119E-3	-43.9356E-3	-152.452E-12	690.745E-3	1.95939E-3
-3.42421E-3	-154.473E-12	712.288E-3	-24.3501E-3	-153.276E-12	690.283E-3	17.3631E-3
-3.42921E-3	-154.595E-12	727.848E-3	-10.1009E-3	-153.398E-12	683.532E-3	-24.5549E-3
-3.43422E-3	-155.073E-12	720.997E-3	3.65649E-3	-153.419E-12	677.943E-3	-59.9021E-3
-3.43922E-3	-155.391E-12	683.730E-3	-4.09394E-3	-153.894E-12	678.666E-3	-40.0696E-3
-3.44422E-3	-155.359E-12	677.406E-3	-7.17357E-3	-155.288E-12	678.967E-3	-13.2245E-3
-3.44922E-3	-155.691E-12	699.749E-3	8.27811E-3	-155.944E-12	692.985E-3	-12.7706E-3
-3.45423E-3	-156.295E-12	699.578E-3	-6.67677E-3	-156.618E-12	689.835E-3	-9.82179E-3
-3.45923E-3	-156.482E-12	701.330E-3	-32.9628E-3	-157.998E-12	663.321E-3	-17.9523E-3
-3.46423E-3	-156.380E-12	708.403E-3	-33.8721E-3	-159.151E-12	651.829E-3	-44.4328E-3
-3.46923E-3	-156.845E-12	681.257E-3	-11.1400E-3	-159.233E-12	654.312E-3	-42.9367E-3
-3.47424E-3	-157.085E-12	659.504E-3	-2.90701E-3	-159.516E-12	666.726E-3	-21.3868E-3
-3.47924E-3	-157.194E-12	666.382E-3	-27.2216E-3	-159.890E-12	688.562E-3	-17.1204E-3
-3.48424E-3	-156.784E-12	665.584E-3	-33.3476E-3	-160.031E-12	699.668E-3	-20.5410E-3
-3.48924E-3	-157.590E-12	673.677E-3	-20.8338E-3	-159.903E-12	686.235E-3	-24.0515E-3
-3.49425E-3	-157.151E-12	693.204E-3	-10.0157E-3	-159.582E-12	681.486E-3	-33.4171E-3
-3.49925E-3	-156.448E-12	683.160E-3	-8.22112E-3	-158.946E-12	682.308E-3	-35.8055E-3
-3.50425E-3	-156.589E-12	668.596E-3	-23.0872E-3	-159.063E-12	659.451E-3	-23.1546E-3
-3.50925E-3	-156.570E-12	681.405E-3	-23.3276E-3	-158.623E-12	650.879E-3	-15.1802E-3
-3.51426E-3	-156.200E-12	681.192E-3	-19.6061E-3	-157.471E-12	670.613E-3	-19.7128E-3
-3.51926E-3	-155.354E-12	659.142E-3	-28.1668E-3	-157.294E-12	679.312E-3	-15.6696E-3
-3.52426E-3	-155.568E-12	654.449E-3	-22.1336E-3	-157.207E-12	678.406E-3	-18.3591E-3
-3.52926E-3	-156.105E-12	659.146E-3	-4.76167E-3	-156.372E-12	676.488E-3	-32.1042E-3
-3.53427E-3	-156.987E-12	684.338E-3	-3.31505E-3	-156.990E-12	664.439E-3	-25.9497E-3
-3.53927E-3	-157.538E-12	715.165E-3	-7.86101E-3	-157.495E-12	659.009E-3	-17.6460E-3
-3.54427E-3	-158.829E-12	703.882E-3	-13.0144E-3	-157.854E-12	664.167E-3	-14.9032E-3
-3.54927E-3	-160.285E-12	680.799E-3	-34.2404E-3	-158.588E-12	660.119E-3	8.17451E-3
-3.55428E-3	-161.102E-12	671.210E-3	-35.0484E-3	-159.210E-12	652.125E-3	22.5971E-3
-3.55928E-3	-162.261E-12	667.653E-3	-15.3834E-3	-160.327E-12	655.088E-3	10.2626E-3
-3.56428E-3	-163.571E-12	678.578E-3	-18.2176E-3	-160.932E-12	658.011E-3	9.48905E-3
-3.56928E-3	-164.009E-12	703.046E-3	-34.3570E-3	-161.212E-12	661.161E-3	13.2962E-3
-3.57429E-3	-164.126E-12	713.550E-3	-29.1948E-3	-161.751E-12	662.891E-3	15.0206E-3
-3.57929E-3	-164.665E-12	693.209E-3	-13.7970E-3	-162.664E-12	666.613E-3	22.9449E-3
-3.58429E-3	-164.593E-12	670.946E-3	-8.04397E-3	-162.820E-12	669.380E-3	6.58832E-3
-3.58929E-3	-163.225E-12	665.335E-3	-15.7978E-3	-162.719E-12	674.390E-3	-16.8458E-3
-3.59430E-3	-162.675E-12	669.273E-3	-17.6904E-3	-163.763E-12	689.295E-3	-27.2193E-3
-3.59930E-3	-162.209E-12	675.958E-3	-9.25990E-3	-163.966E-12	688.289E-3	-27.6028E-3
-3.60430E-3	-161.263E-12	674.982E-3	-13.8247E-3	-163.646E-12	682.038E-3	-18.7769E-3
-3.60930E-3	-160.525E-12	669.104E-3	-21.6334E-3	-163.454E-12	685.772E-3	-26.6894E-3
-3.61431E-3	-160.603E-12	668.490E-3	-21.6549E-3	-163.547E-12	680.754E-3	-47.6320E-3
-3.61931E-3	-160.314E-12	676.472E-3	-23.7053E-3	-162.707E-12	669.862E-3	-59.3216E-3
-3.62431E-3	-160.912E-12	678.935E-3	-35.8451E-3	-162.591E-12	661.091E-3	-46.0764E-3
-3.62931E-3	-161.668E-12	673.215E-3	-48.5549E-3	-162.030E-12	667.612E-3	-38.6416E-3
-3.63432E-3	-162.875E-12	684.472E-3	-43.2324E-3	-161.691E-12	685.925E-3	-44.2973E-3
-3.63932E-3	-164.426E-12	688.736E-3	-8.06791E-3	-161.460E-12	689.026E-3	-19.8541E-3
-3.64432E-3	-166.251E-12	681.750E-3	19.0645E-3	-161.340E-12	671.246E-3	7.13372E-3
-3.64932E-3	-167.496E-12	685.475E-3	11.4983E-3	-161.712E-12	665.813E-3	1.76323E-3
-3.65433E-3	-169.207E-12	679.094E-3	-13.0396E-3	-161.926E-12	688.833E-3	-15.3166E-3
-3.65933E-3	-169.605E-12	693.627E-3	-36.1191E-3	-162.051E-12	702.171E-3	-21.4745E-3
-3.66433E-3	-170.145E-12	716.767E-3	-22.1987E-3	-162.395E-12	701.219E-3	-27.1479E-3
-3.66933E-3	-170.816E-12	691.475E-3	9.09016E-3	-163.364E-12	701.266E-3	-28.2536E-3
-3.67434E-3	-170.180E-12	674.121E-3	13.8907E-3	-164.208E-12	693.281E-3	-6.39282E-3
-3.67934E-3	-169.273E-12	699.738E-3	4.66258E-3	-165.924E-12	675.754E-3	11.8197E-3
-3.68434E-3	-168.240E-12	707.159E-3	-5.34528E-3	-167.398E-12	659.678E-3	-2.93792E-6
-3.68934E-3	-167.679E-12	692.726E-3	-12.6269E-3	-168.617E-12	664.868E-3	-10.4286E-3
-3.69435E-3	-166.450E-12	695.641E-3	-1.63374E-3	-169.438E-12	703.717E-3	4.43339E-3
-3.69935E-3	-165.292E-12	680.774E-3	7.71354E-3	-171.466E-12	730.108E-3	7.44623E-3
-3.70435E-3	-164.436E-12	661.091E-3	2.45325E-3	-171.203E-12	710.434E-3	-5.65159E-3
-3.70935E-3	-164.271E-12	670.299E-3	-1.86946E-3	-170.958E-12	684.133E-3	-9.54912E-3
-3.71436E-3	-164.032E-12	668.574E-3	-8.58909E-3	-170.855E-12	676.602E-3	-10.7127E-3
-3.71936E-3	-163.977E-12	677.682E-3	-12.1259E-3	-170.692E-12	680.788E-3	-10.6037E-3
-3.72436E-3	-165.411E-12	708.143E-3	-12.8668E-3	-169.968E-12	669.501E-3	-17.7599E-3
-3.72936E-3	-166.554E-12	703.236E-3	-19.3469E-3	-170.115E-12	645.953E-3	-33.4959E-3
-3.73437E-3	-167.731E-12	684.083E-3	-21.7629E-3	-168.836E-12	640.028E-3	-49.2895E-3
-3.73937E-3	-168.569E-12	683.879E-3	-14.2934E-3	-168.721E-12	655.379E-3	-62.9829E-3
-3.74437E-3	-170.587E-12	686.563E-3	-12.7829E-3	-168.138E-12	678.211E-3	-57.1887E-3
-3.74937E-3	-171.223E-12	701.310E-3	-15.3793E-3	-167.405E-12	680.872E-3	-26.1209E-3
-3.75438E-3	-171.546E-12	717.167E-3	-26.0940E-3	-166.887E-12	665.272E-3	-11.8906E-3
-3.75938E-3	-171.868E-12	696.849E-3	-43.4321E-3	-167.317E-12	662.039E-3	-16.3683E-3
-3.76438E-3	-172.294E-12	674.885E-3	-38.6320E-3	-167.023E-12	686.532E-3	-4.87534E-3
-3.76938E-3	-170.919E-12	675.262E-3	-39.3743E-3	-167.440E-12	710.751E-3	3.38909E-3
-3.77439E-3	-170.117E-12	676.046E-3	-58.7512E-3	-168.494E-12	710.844E-3	-2.28847E-3
-3.77939E-3	-169.788E-12	670.471E-3	-56.8881E-3	-169.482E-12	696.787E-3	-3.91446E-3
-3.78439E-3	-168.727E-12	671.229E-3	-26.8123E-3	-170.216E-12	682.649E-3	2.33839E-3
-3.78939E-3	-167.634E-12	673.554E-3	7.34614E-3	-171.646E-12	686.557E-3	12.0280E-3
-3.79440E-3	-167.401E-12	650.177E-3	22.3569E-3	-173.286E-12	705.880E-3	2.86449E-3
-3.79940E-3	-167.380E-12	631.938E-3	6.07131E-3	-173.919E-12	706.926E-3	-567.052E-6
-3.80440E-3	-167.293E-12	632.924E-3	-25.3379E-3	-173.958E-12	689.067E-3	-986.982E-6
-3.80940E-3	-168.152E-12	637.131E-3	-49.4920E-3	-175.249E-12	680.865E-3	-26.4315E-3
-3.81441E-3	-169.320E-12	654.469E-3	-69.4589E-3	-174.965E-12	686.755E-3	-18.4286E-3
-3.81941E-3	-170.451E-12	671.262E-3	-63.1919E-3	-174.988E-12	697.746E-3	9.29974E-3
-3.82441E-3	-171.671E-12	682.409E-3	-37.6994E-3	-174.427E-12	696.553E-3	-4.77874E-3
-3.82941E-3	-173.029E-12	685.665E-3	-20.4924E-3	-174.618E-12	682.194E-3	-16.8406E-3
-3.83442E-3	-174.245E-12	673.050E-3	-9.84454E-3	-174.012E-12	683.058E-3	-2.62963E-3
-3.83942E-3	-175.071E-12	665.974E-3	-15.9614E-3	-172.271E-12	702.350E-3	-1.64649E-3
-3.84442E-3	-175.269E-12	675.192E-3	-28.3859E-3	-172.240E-12	714.078E-3	-15.3024E-3
-3.84942E-3	-176.040E-12	680.601E-3	-36.9892E-3	-172.115E-12	694.688E-3	-29.5868E-3
-3.85443E-3	-176.141E-12	672.398E-3	-50.0232E-3	-171.799E-12	672.853E-3	-28.0117E-3
-3.85943E-3	-176.168E-12	680.392E-3	-56.5403E-3	-171.405E-12	676.710E-3	-18.6538E-3
-3.86443E-3	-175.435E-12	683.918E-3	-39.7144E-3	-171.714E-12	675.303E-3	-3.98794E-3
-3.86943E-3	-174.661E-12	669.522E-3	-11.2976E-3	-172.190E-12	659.558E-3	11.9513E-3
-3.87444E-3	-174.489E-12	675.811E-3	-2.43223E-3	-172.960E-12	653.202E-3	2.94883E-3
-3.87944E-3	-173.642E-12	694.727E-3	-204.765E-6	-173.995E-12	662.752E-3	-4.90894E-3
-3.88444E-3	-174.104E-12	709.062E-3	8.33151E-3	-174.861E-12	670.452E-3	-5.16184E-3
-3.88944E-3	-174.459E-12	707.931E-3	1.31904E-3	-175.630E-12	684.207E-3	-13.0042E-3
-3.89445E-3	-174.241E-12	681.627E-3	-13.0216E-3	-176.376E-12	709.204E-3	-16.1552E-3
-3.89945E-3	-174.495E-12	653.203E-3	-22.9261E-3	-177.489E-12	719.641E-3	-15.3615E-3
-3.90445E-3	-175.989E-12	655.362E-3	-20.8063E-3	-177.756E-12	704.114E-3	-7.82374E-3
-3.90945E-3	-176.486E-12	674.233E-3	-8.54205E-3	-178.218E-12	676.704E-3	3.53718E-3
-3.91446E-3	-176.926E-12	659.422E-3	-20.7181E-3	-178.017E-12	677.944E-3	4.04786E-3
-3.91946E-3	-178.271E-12	630.629E-3	-35.0995E-3	-177.781E-12	677.553E-3	-5.15206E-3
-3.92446E-3	-178.444E-12	642.151E-3	-26.1695E-3	-177.542E-12	652.620E-3	-3.58414E-3
-3.92946E-3	-178.788E-12	657.332E-3	-20.7253E-3	-177.147E-12	647.202E-3	-4.46672E-3
-3.93447E-3	-179.375E-12	668.201E-3	-11.6295E-3	-175.910E-12	644.846E-3	-11.1662E-3
-3.93947E-3	-179.216E-12	702.923E-3	-2.02535E-3	-175.848E-12	645.764E-3	4.64295E-3
-3.94447E-3	-179.265E-12	711.257E-3	-3.33331E-3	-175.491E-12	672.836E-3	11.5477E-3
-3.94947E-3	-179.015E-12	690.680E-3	-4.70263E-3	-175.279E-12	682.863E-3	-23.2985E-3
-3.95448E-3	-179.404E-12	660.055E-3	3.71071E-3	-175.489E-12	660.677E-3	-23.9840E-3
-3.95948E-3	-179.194E-12	630.347E-3	26.4895E-3	-176.249E-12	659.150E-3	9.97130E-3
-3.96448E-3	-179.855E-12	640.662E-3	18.2192E-3	-176.437E-12	669.113E-3	-1.78360E-3
-3.96948E-3	-180.348E-12	661.338E-3	-29.1251E-3	-176.951E-12	652.868E-3	-13.6510E-3
-3.97449E-3	-181.029E-12	666.642E-3	-54.5384E-3	-177.838E-12	649.742E-3	-5.49754E-3
-3.97949E-3	-181.635E-12	670.461E-3	-41.5326E-3	-178.573E-12	666.524E-3	-11.0074E-3
-3.98449E-3	-182.585E-12	683.141E-3	-3.56392E-3	-179.766E-12	674.782E-3	-10.6113E-3
-3.98949E-3	-182.434E-12	700.718E-3	14.3014E-3	-180.760E-12	676.149E-3	1.86375E-3
-3.99450E-3	-183.091E-12	685.297E-3	-16.3546E-3	-182.352E-12	670.934E-3	10.1337E-3
-3.99950E-3	-183.694E-12	665.941E-3	-43.0370E-3	-183.183E-12	668.189E-3	6.89620E-3
-4.00450E-3	-183.103E-12	678.239E-3	-25.7091E-3	-184.133E-12	674.030E-3	6.58393E-3
-4.00950E-3	-182.580E-12	685.298E-3	-2.43350E-3	-184.593E-12	677.437E-3	6.12852E-3
-4.01451E-3	-182.559E-12	687.704E-3	-6.20208E-3	-185.415E-12	658.735E-3	-2.57153E-3
-4.01951E-3	-181.292E-12	685.864E-3	-24.1938E-3	-184.985E-12	642.237E-3	-15.6335E-3
-4.02451E-3	-180.349E-12	680.697E-3	-31.1658E-3	-185.440E-12	655.644E-3	-23.5028E-3
-4.02951E-3	-179.621E-12	691.548E-3	-19.7171E-3	-184.785E-12	664.822E-3	-8.36093E-3
-4.03452E-3	-178.896E-12	689.946E-3	-2.89451E-3	-184.243E-12	651.523E-3	15.5890E-3
-4.03952E-3	-178.253E-12	651.123E-3	4.74716E-3	-183.404E-12	639.872E-3	13.0171E-3
-4.04452E-3	-178.222E-12	628.293E-3	-1.47790E-3	-183.638E-12	645.095E-3	-4.18958E-3
-4.04952E-3	-178.365E-12	649.555E-3	455.409E-6	-183.417E-12	662.694E-3	-6.52448E-3
-4.05453E-3	-179.582E-12	661.716E-3	1.41641E-3	-182.356E-12	667.830E-3	-17.0550E-3
-4.05953E-3	-180.415E-12	654.545E-3	-20.4121E-3	-182.085E-12	658.520E-3	-39.7809E-3
-4.06453E-3	-181.169E-12	648.902E-3	-31.7309E-3	-182.872E-12	666.348E-3	-47.8294E-3
-4.06953E-3	-183.691E-12	658.142E-3	-13.6484E-3	-181.993E-12	656.704E-3	-44.0619E-3
-4.07454E-3	-185.656E-12	672.724E-3	2.91732E-3	-181.922E-12	640.551E-3	-30.1377E-3
-4.07954E-3	-186.692E-12	670.982E-3	1.56681E-3	-182.384E-12	666.783E-3	-18.8029E-3
-4.08454E-3	-187.558E-12	675.620E-3	-11.0397E-3	-183.080E-12	688.747E-3	-28.7094E-3
-4.08954E-3	-189.294E-12	679.353E-3	-17.2325E-3	-183.140E-12	678.543E-3	-34.8057E-3
-4.09455E-3	-189.496E-12	666.905E-3	-11.7851E-3	-183.840E-12	659.378E-3	-27.5233E-3
-4.09955E-3	-188.610E-12	652.985E-3	-1.61198E-3	-184.613E-12	644.367E-3	-39.5876E-3
-4.10455E-3	-188.639E-12	653.929E-3	-4.08585E-3	-185.794E-12	648.973E-3	-43.6039E-3
-4.10955E-3	-187.533E-12	679.262E-3	-19.8063E-3	-185.955E-12	683.083E-3	-22.1042E-3
-4.11456E-3	-185.556E-12	692.121E-3	-18.7397E-3	-186.850E-12	703.409E-3	-13.6473E-3
-4.11956E-3	-184.233E-12	663.441E-3	-8.77182E-3	-187.626E-12	690.517E-3	-22.8868E-3
-4.12456E-3	-182.725E-12	641.088E-3	-5.52693E-3	-188.233E-12	684.269E-3	-33.7279E-3
-4.12956E-3	-182.015E-12	638.446E-3	-9.12257E-3	-187.959E-12	681.291E-3	-29.8371E-3
-4.13457E-3	-180.932E-12	631.029E-3	-22.2867E-3	-188.275E-12	661.684E-3	-6.11234E-3
-4.13957E-3	-181.307E-12	641.829E-3	-18.3237E-3	-188.085E-12	655.892E-3	10.9541E-3
-4.14457E-3	-182.234E-12	650.103E-3	-24.9435E-3	-187.115E-12	672.859E-3	15.4558E-3
-4.14957E-3	-183.461E-12	634.474E-3	-60.4294E-3	-186.364E-12	685.593E-3	16.5595E-3
-4.15458E-3	-184.635E-12	620.207E-3	-64.3958E-3	-186.107E-12	688.765E-3	23.3814E-3
-4.15958E-3	-186.741E-12	631.039E-3	-40.6026E-3	-185.089E-12	684.992E-3	39.7841E-3
-4.16458E-3	-188.445E-12	647.303E-3	-15.4230E-3	-184.897E-12	677.920E-3	41.2516E-3
-4.16958E-3	-189.927E-12	659.830E-3	-4.07188E-3	-184.563E-12	667.793E-3	9.08545E-3
-4.17459E-3	-192.021E-12	681.558E-3	-16.7770E-3	-184.561E-12	648.909E-3	-26.2425E-3
-4.17959E-3	-193.423E-12	699.378E-3	-30.7464E-3	-184.680E-12	636.802E-3	-28.7701E-3
-4.18459E-3	-194.193E-12	697.176E-3	-46.7228E-3	-185.519E-12	641.193E-3	-14.3347E-3
-4.18959E-3	-193.773E-12	683.951E-3	-54.7063E-3	-185.949E-12	659.189E-3	-20.5874E-3
-4.19460E-3	-193.613E-12	691.683E-3	-39.7461E-3	-186.704E-12	651.707E-3	-50.3515E-3
-4.19960E-3	-193.031E-12	716.991E-3	-31.7803E-3	-187.394E-12	602.963E-3	-65.6636E-3
-4.20460E-3	-191.603E-12	719.823E-3	-52.0753E-3	-188.492E-12	591.036E-3	-63.0373E-3
-4.20960E-3	-189.267E-12	695.809E-3	-60.1455E-3	-189.420E-12	629.971E-3	-66.6710E-3
-4.21461E-3	-188.804E-12	672.985E-3	-17.9847E-3	-190.678E-12	653.202E-3	-65.1403E-3
-4.21961E-3	-187.651E-12	650.699E-3	30.0716E-3	-191.153E-12	652.570E-3	-49.9687E-3
-4.22461E-3	-186.227E-12	643.878E-3	26.8435E-3	-191.577E-12	645.553E-3	-41.5191E-3
-4.22961E-3	-186.827E-12	664.119E-3	5.28306E-3	-192.842E-12	639.153E-3	-36.7103E-3
-4.23462E-3	-187.178E-12	673.027E-3	2.17670E-3	-192.950E-12	658.769E-3	-33.2293E-3
-4.23962E-3	-187.567E-12	677.672E-3	-15.5818E-3	-192.660E-12	681.433E-3	-45.4331E-3
-4.24462E-3	-188.769E-12	679.827E-3	-34.9062E-3	-192.619E-12	665.044E-3	-43.5391E-3
-4.24962E-3	-191.188E-12	663.950E-3	-37.8600E-3	-192.633E-12	662.694E-3	-3.39616E-3
-4.25463E-3	-192.111E-12	649.990E-3	-49.2980E-3	-191.925E-12	699.133E-3	26.9259E-3
-4.25963E-3	-193.866E-12	664.420E-3	-46.0599E-3	-191.594E-12	714.909E-3	16.1407E-3
-4.26463E-3	-196.055E-12	691.546E-3	-8.74690E-3	-191.575E-12	701.143E-3	-3.07230E-3
-4.26963E-3	-196.955E-12	690.042E-3	18.7866E-3	-191.128E-12	678.294E-3	2.18271E-3
-4.27464E-3	-197.694E-12	670.703E-3	-1.76116E-3	-191.941E-12	670.893E-3	2.62732E-3
-4.27964E-3	-197.908E-12	659.457E-3	-31.6929E-3	-192.322E-12	680.077E-3	-26.2404E-3
-4.28464E-3	-198.353E-12	662.220E-3	-46.6797E-3	-192.299E-12	674.617E-3	-42.3834E-3
-4.28964E-3	-197.654E-12	668.362E-3	-68.3223E-3	-192.445E-12	665.573E-3	-29.6906E-3
-4.29465E-3	-197.203E-12	673.704E-3	-61.4873E-3	-193.675E-12	655.295E-3	-5.09834E-3
-4.29965E-3	-195.652E-12	677.305E-3	-40.9380E-3	-194.880E-12	650.923E-3	19.7128E-3
-4.30465E-3	-194.324E-12	679.212E-3	-37.5658E-3	-196.009E-12	664.110E-3	27.5700E-3
-4.30965E-3	-193.794E-12	675.296E-3	-28.9490E-3	-196.508E-12	672.431E-3	26.4711E-3
-4.31466E-3	-192.822E-12	650.758E-3	-24.7233E-3	-198.335E-12	674.040E-3	13.0370E-3
-4.31966E-3	-192.848E-12	641.002E-3	-22.9335E-3	-199.523E-12	685.400E-3	-35.3267E-3
-4.32466E-3	-192.779E-12	657.096E-3	-14.8465E-3	-199.584E-12	689.960E-3	-71.2383E-3
-4.32966E-3	-192.860E-12	652.044E-3	-16.2763E-3	-200.064E-12	695.917E-3	-62.6203E-3
-4.33467E-3	-192.985E-12	641.552E-3	-32.7463E-3	-200.886E-12	698.291E-3	-40.9712E-3
-4.33967E-3	-193.904E-12	651.424E-3	-34.9648E-3	-200.043E-12	692.603E-3	-32.8931E-3
-4.34467E-3	-194.469E-12	664.293E-3	-4.09344E-3	-198.832E-12	702.463E-3	-19.8989E-3
-4.34967E-3	-195.106E-12	659.501E-3	15.8475E-3	-197.991E-12	698.453E-3	4.73149E-3
-4.35468E-3	-195.446E-12	652.577E-3	7.90174E-3	-196.764E-12	676.825E-3	-2.83082E-3
-4.35968E-3	-196.160E-12	655.435E-3	7.01040E-3	-195.743E-12	680.551E-3	-22.9540E-3
-4.36468E-3	-196.140E-12	664.782E-3	7.88416E-3	-194.566E-12	696.377E-3	-20.5684E-3
-4.36968E-3	-196.868E-12	684.102E-3	-3.53708E-3	-193.724E-12	675.637E-3	-6.36637E-3
-4.37469E-3	-197.044E-12	681.223E-3	-10.6737E-3	-193.629E-12	656.250E-3	7.87881E-3
-4.37969E-3	-197.401E-12	649.046E-3	-4.95289E-3	-193.579E-12	678.067E-3	15.8419E-3
-4.38469E-3	-197.279E-12	632.329E-3	-12.3183E-3	-193.728E-12	672.217E-3	11.8861E-3
-4.38969E-3	-198.007E-12	644.364E-3	-37.5521E-3	-193.965E-12	638.460E-3	4.23366E-3
-4.39470E-3	-198.566E-12	649.869E-3	-49.1801E-3	-194.743E-12	646.294E-3	-5.84206E-3
-4.39970E-3	-198.420E-12	637.525E-3	-56.2573E-3	-195.953E-12	671.428E-3	-33.3047E-3
-4.40470E-3	-199.352E-12	625.489E-3	-46.3092E-3	-197.295E-12	681.173E-3	-60.9548E-3
-4.40970E-3	-199.937E-12	613.677E-3	-17.8183E-3	-199.370E-12	676.062E-3	-73.9675E-3
-4.41471E-3	-200.809E-12	626.307E-3	-4.74606E-3	-201.003E-12	663.617E-3	-68.2053E-3
-4.41971E-3	-201.358E-12	671.064E-3	8.18127E-3	-202.285E-12	661.572E-3	-50.5844E-3
-4.42471E-3	-201.739E-12	687.946E-3	6.98465E-3	-203.498E-12	666.051E-3	-50.9467E-3
-4.42971E-3	-201.710E-12	666.479E-3	-10.4290E-3	-204.856E-12	671.283E-3	-60.2725E-3
-4.43472E-3	-201.482E-12	640.907E-3	-595.258E-6	-204.633E-12	683.751E-3	-42.2450E-3
-4.43972E-3	-200.646E-12	625.674E-3	5.45646E-3	-203.761E-12	692.617E-3	-9.54735E-3
-4.44472E-3	-199.638E-12	635.072E-3	-16.5034E-3	-203.894E-12	675.685E-3	690.029E-6
-4.44972E-3	-199.461E-12	659.629E-3	-24.5814E-3	-203.131E-12	656.408E-3	-9.87151E-3
-4.45473E-3	-198.390E-12	669.940E-3	-21.3892E-3	-201.089E-12	667.825E-3	-24.1715E-3
-4.45973E-3	-197.828E-12	665.201E-3	-23.5322E-3	-199.738E-12	671.536E-3	-34.3778E-3
-4.46473E-3	-197.493E-12	671.902E-3	-16.7443E-3	-199.119E-12	644.393E-3	-21.6160E-3
-4.46973E-3	-197.332E-12	682.069E-3	2.89328E-3	-197.205E-12	643.935E-3	-1.18652E-3
-4.47474E-3	-197.593E-12	671.010E-3	20.8855E-3	-195.933E-12	682.146E-3	-6.82268E-3
-4.47974E-3	-198.622E-12	658.868E-3	19.0395E-3	-195.582E-12	691.780E-3	-15.4352E-3
-4.48474E-3	-199.864E-12	662.147E-3	12.2738E-3	-195.761E-12	670.954E-3	-5.87613E-3
-4.48974E-3	-200.199E-12	660.148E-3	-679.286E-6	-195.233E-12	656.475E-3	-18.5686E-3
-4.49475E-3	-202.307E-12	659.250E-3	-23.9716E-3	-196.001E-12	624.699E-3	-36.6765E-3
-4.49975E-3	-204.095E-12	669.448E-3	-20.7142E-3	-198.397E-12	615.844E-3	-20.2906E-3
-4.50475E-3	-206.001E-12	680.460E-3	8.59503E-3	-199.749E-12	653.727E-3	-11.6269E-3
-4.50975E-3	-207.029E-12	692.171E-3	17.0623E-3	-200.870E-12	679.896E-3	-27.1182E-3
-4.51476E-3	-209.165E-12	680.434E-3	-2.29111E-3	-203.271E-12	675.631E-3	-35.6424E-3
-4.51976E-3	-208.517E-12	649.210E-3	-14.9597E-3	-205.088E-12	653.908E-3	-25.3104E-3
-4.52476E-3	-208.785E-12	654.608E-3	-16.2119E-3	-205.689E-12	639.784E-3	-23.7427E-3
-4.52976E-3	-208.678E-12	675.478E-3	-26.2834E-3	-207.971E-12	636.360E-3	-43.1672E-3
-4.53477E-3	-207.550E-12	673.644E-3	-36.5086E-3	-208.081E-12	647.335E-3	-48.9992E-3
-4.53977E-3	-206.487E-12	668.573E-3	-29.0063E-3	-208.956E-12	672.854E-3	-42.4409E-3
-4.54477E-3	-204.926E-12	658.360E-3	-19.5613E-3	-208.814E-12	682.588E-3	-50.7602E-3
-4.54977E-3	-203.980E-12	631.261E-3	-38.3349E-3	-208.889E-12	674.985E-3	-66.5140E-3
-4.55478E-3	-202.228E-12	630.610E-3	-67.1612E-3	-207.646E-12	673.430E-3	-52.0421E-3
-4.55978E-3	-202.547E-12	670.381E-3	-63.0526E-3	-207.052E-12	674.600E-3	-18.2695E-3
-4.56478E-3	-201.689E-12	688.645E-3	-35.1330E-3	-205.726E-12	659.322E-3	-12.4868E-3
-4.56978E-3	-202.039E-12	674.524E-3	-13.8777E-3	-205.053E-12	639.380E-3	-18.3440E-3
-4.57479E-3	-202.198E-12	659.890E-3	-2.45468E-3	-204.538E-12	639.870E-3	-22.1997E-3
-4.57979E-3	-203.872E-12	656.639E-3	517.167E-6	-202.917E-12	640.425E-3	-26.4118E-3
-4.58479E-3	-205.023E-12	678.140E-3	-6.11355E-3	-203.088E-12	640.925E-3	-12.3557E-3
-4.58979E-3	-206.164E-12	687.759E-3	-6.35028E-3	-202.955E-12	656.631E-3	-1.14282E-3
-4.59480E-3	-208.086E-12	661.330E-3	5.84388E-3	-203.179E-12	654.373E-3	-17.2326E-3
-4.59980E-3	-210.195E-12	641.712E-3	10.5688E-3	-202.736E-12	645.302E-3	-23.2176E-3
-4.60480E-3	-210.626E-12	646.511E-3	8.21156E-3	-203.995E-12	669.348E-3	-7.22743E-3
-4.60980E-3	-212.047E-12	663.681E-3	3.90395E-3	-205.232E-12	695.197E-3	-8.19816E-3
-4.61481E-3	-212.485E-12	679.423E-3	249.476E-6	-207.054E-12	680.289E-3	-12.3542E-3
-4.61981E-3	-211.481E-12	674.691E-3	-991.350E-6	-208.412E-12	664.065E-3	2.82228E-3
-4.62481E-3	-210.583E-12	659.451E-3	-22.1975E-3	-210.011E-12	674.934E-3	7.61366E-3
-4.62981E-3	-209.718E-12	661.817E-3	-54.9836E-3	-211.557E-12	679.705E-3	-16.1765E-3
-4.63482E-3	-208.400E-12	665.001E-3	-54.2335E-3	-211.853E-12	665.905E-3	-38.3940E-3
-4.63982E-3	-206.965E-12	651.853E-3	-14.1282E-3	-213.329E-12	658.118E-3	-47.3867E-3
-4.64482E-3	-205.841E-12	647.927E-3	8.46525E-3	-213.425E-12	673.218E-3	-59.9381E-3
-4.64982E-3	-205.739E-12	656.796E-3	11.9181E-3	-213.686E-12	691.764E-3	-70.6294E-3
-4.65483E-3	-204.953E-12	650.056E-3	16.7815E-3	-213.547E-12	685.290E-3	-58.8505E-3
-4.65983E-3	-205.446E-12	633.278E-3	6.82117E-3	-212.924E-12	648.135E-3	-38.8602E-3
-4.66483E-3	-204.763E-12	636.905E-3	-3.68629E-3	-212.970E-12	623.649E-3	-37.6367E-3
-4.66983E-3	-207.397E-12	639.717E-3	-5.47635E-3	-211.682E-12	664.808E-3	-46.7373E-3
-4.67484E-3	-207.491E-12	638.165E-3	-8.61625E-3	-210.758E-12	696.117E-3	-52.3224E-3
-4.67984E-3	-209.391E-12	650.418E-3	-14.9368E-3	-210.255E-12	671.506E-3	-47.3059E-3
-4.68484E-3	-210.479E-12	664.068E-3	-20.9706E-3	-210.600E-12	663.706E-3	-28.8342E-3
-4.68984E-3	-213.490E-12	668.106E-3	-26.1338E-3	-209.239E-12	668.499E-3	-1.09889E-3
-4.69485E-3	-213.769E-12	664.662E-3	-42.0317E-3	-208.818E-12	657.774E-3	14.4688E-3
-4.69985E-3	-216.374E-12	658.311E-3	-45.0516E-3	-209.245E-12	646.803E-3	12.7361E-3
-4.70485E-3	-217.000E-12	655.073E-3	-32.3295E-3	-209.729E-12	649.835E-3	-6.93247E-3
-4.70985E-3	-217.437E-12	662.141E-3	-43.2976E-3	-209.975E-12	668.860E-3	-33.6799E-3
-4.71486E-3	-216.297E-12	662.171E-3	-38.5460E-3	-210.897E-12	691.352E-3	-22.5270E-3
-4.71986E-3	-216.977E-12	647.488E-3	-7.62906E-3	-211.497E-12	677.951E-3	-6.49181E-3
-4.72486E-3	-215.248E-12	655.726E-3	-3.03920E-3	-211.816E-12	638.695E-3	-13.9295E-3
-4.72986E-3	-213.888E-12	664.441E-3	-7.33666E-3	-213.200E-12	646.049E-3	-14.0533E-3
-4.73487E-3	-213.290E-12	634.969E-3	-11.0217E-3	-213.769E-12	666.130E-3	-25.7844E-3
-4.73987E-3	-212.282E-12	639.410E-3	-23.8550E-3	-215.651E-12	646.575E-3	-30.7001E-3
-4.74487E-3	-211.410E-12	672.406E-3	-26.7248E-3	-216.299E-12	654.203E-3	-11.6209E-3
-4.74988E-3	-211.141E-12	666.434E-3	-20.7081E-3	-216.902E-12	700.280E-3	-5.65499E-3
-4.75488E-3	-210.956E-12	660.893E-3	-34.1024E-3	-217.689E-12	704.435E-3	1.19749E-3
-4.75988E-3	-211.442E-12	655.398E-3	-52.6022E-3	-218.957E-12	661.242E-3	17.8380E-3
-4.76488E-3	-211.273E-12	633.961E-3	-47.3691E-3	-218.469E-12	632.391E-3	-1.52772E-3
-4.76988E-3	-212.057E-12	649.831E-3	-35.2784E-3	-218.101E-12	645.020E-3	-26.5635E-3
-4.77489E-3	-213.096E-12	685.654E-3	-26.4696E-3	-217.917E-12	667.890E-3	-7.62143E-3
-4.77989E-3	-214.641E-12	693.626E-3	-20.4750E-3	-216.699E-12	673.510E-3	11.0604E-3
-4.78489E-3	-215.490E-12	687.640E-3	-15.2952E-3	-215.894E-12	664.885E-3	5.77589E-3
-4.78989E-3	-217.240E-12	692.768E-3	-7.13580E-3	-214.417E-12	658.328E-3	-8.61537E-3
-4.79490E-3	-218.254E-12	688.950E-3	-10.7553E-3	-214.245E-12	666.654E-3	-27.6539E-3
-4.79990E-3	-218.837E-12	666.960E-3	-35.1739E-3	-212.541E-12	676.596E-3	-43.1257E-3
-4.80490E-3	-218.502E-12	646.343E-3	-36.3773E-3	-212.230E-12	675.540E-3	-32.2886E-3
-4.80990E-3	-217.956E-12	635.634E-3	-26.6282E-3	-211.381E-12	680.743E-3	-10.4185E-3
-4.81491E-3	-219.001E-12	667.430E-3	-43.8442E-3	-211.518E-12	686.734E-3	-29.0130E-3
-4.81991E-3	-218.258E-12	698.850E-3	-38.6654E-3	-211.385E-12	650.297E-3	-59.8001E-3
-4.82491E-3	-218.193E-12	671.670E-3	-3.01668E-3	-212.584E-12	611.790E-3	-50.5677E-3
-4.82991E-3	-217.954E-12	655.966E-3	-7.41745E-3	-213.333E-12	627.070E-3	-17.0852E-3
-4.83492E-3	-218.480E-12	669.625E-3	-47.1862E-3	-215.261E-12	641.229E-3	-20.7442E-3
-4.83992E-3	-219.120E-12	653.184E-3	-46.0414E-3	-216.895E-12	643.434E-3	-42.9758E-3
-4.84492E-3	-219.031E-12	636.097E-3	-24.5232E-3	-219.452E-12	668.042E-3	-45.9160E-3
-4.84992E-3	-219.732E-12	654.552E-3	-19.6532E-3	-221.956E-12	694.368E-3	-38.2755E-3
-4.85493E-3	-219.723E-12	682.886E-3	-30.5897E-3	-223.765E-12	718.147E-3	-35.3003E-3
-4.85993E-3	-219.632E-12	716.788E-3	-49.6799E-3	-224.775E-12	733.891E-3	-58.2470E-3
-4.86493E-3	-219.510E-12	714.539E-3	-44.7522E-3	-226.162E-12	717.534E-3	-65.6766E-3
-4.86993E-3	-220.360E-12	649.003E-3	-24.4463E-3	-226.792E-12	670.367E-3	-29.6059E-3
-4.87494E-3	-219.418E-12	617.082E-3	-12.9265E-3	-225.750E-12	654.979E-3	6.13514E-3
-4.87994E-3	-220.137E-12	648.721E-3	-3.68405E-3	-225.140E-12	687.795E-3	20.4988E-3
-4.88494E-3	-220.603E-12	643.918E-3	1.47010E-3	-224.786E-12	710.079E-3	7.44796E-3
-4.88995E-3	-219.683E-12	636.995E-3	-9.55756E-3	-222.336E-12	684.644E-3	-16.1796E-3
-4.89495E-3	-219.433E-12	670.856E-3	-26.8224E-3	-220.807E-12	660.120E-3	-11.7232E-3
-4.89995E-3	-219.923E-12	659.904E-3	-34.9140E-3	-219.079E-12	668.706E-3	15.5587E-3
-4.90495E-3	-219.856E-12	636.842E-3	-28.2330E-3	-217.468E-12	657.721E-3	15.2532E-3
-4.90995E-3	-219.650E-12	650.425E-3	-13.1560E-3	-215.835E-12	623.867E-3	1.43770E-3
-4.91496E-3	-220.532E-12	664.417E-3	-19.6527E-3	-215.573E-12	618.219E-3	21.7242E-3
-4.91996E-3	-221.606E-12	702.912E-3	-33.0623E-3	-215.848E-12	652.229E-3	35.2278E-3
-4.92496E-3	-221.623E-12	739.222E-3	-33.1101E-3	-215.784E-12	676.872E-3	4.31717E-3
-4.92996E-3	-222.640E-12	692.414E-3	-19.9379E-3	-217.314E-12	668.788E-3	-27.4066E-3
-4.93497E-3	-223.455E-12	635.753E-3	9.44925E-3	-219.614E-12	655.885E-3	-31.9865E-3
-4.93997E-3	-224.069E-12	649.287E-3	25.5078E-3	-221.334E-12	646.707E-3	-33.5989E-3
-4.94497E-3	-224.941E-12	686.801E-3	6.08539E-3	-222.432E-12	657.818E-3	-26.6206E-3
-4.94997E-3	-224.183E-12	688.747E-3	-31.9418E-3	-224.933E-12	683.835E-3	-20.5243E-3
-4.95498E-3	-224.285E-12	660.911E-3	-64.7949E-3	-226.876E-12	683.615E-3	-48.5373E-3
-4.95998E-3	-223.533E-12	649.314E-3	-49.1434E-3	-227.816E-12	687.514E-3	-78.0984E-3
-4.96498E-3	-222.387E-12	656.040E-3	-3.20897E-3	-228.352E-12	704.854E-3	-64.3054E-3
-4.96998E-3	-222.221E-12	688.162E-3	532.384E-6	-228.725E-12	685.661E-3	-28.4887E-3
-4.97499E-3	-222.100E-12	731.378E-3	5.67301E-3	-227.965E-12	648.134E-3	2.38945E-3
-4.97999E-3	-220.909E-12	726.993E-3	15.8289E-3	-227.856E-12	651.855E-3	10.9856E-3
-4.98499E-3	-220.954E-12	693.076E-3	-24.2549E-3	-226.443E-12	684.690E-3	4.31359E-3
-4.98999E-3	-220.729E-12	673.289E-3	-48.4845E-3	-225.933E-12	700.152E-3	10.2223E-3
-4.99500E-3	-220.950E-12	676.601E-3	-33.5685E-3	-224.457E-12	691.418E-3	1.88417E-3
-5.00000E-3	-221.959E-12	680.637E-3	-36.3815E-3	-223.311E-12	679.215E-3	-30.1801E-3
