Experiment	bias spectroscopy	
Date	19.01.2016 20:07:29	
User		
X (m)	50.2795E-9	
Y (m)	256.903E-9	
Z (m)	-132.509E-9	
Z offset (m)	0E+0	
Settling time (s)	200E-6	
Integration time (s)	5E-3	
Z-Ctrl hold	TRUE	
Final Z (m)	N/A	
Filter type	None	
Order		
Cutoff frq		
Comment01	MnPc/Pb(111)	
Comment02	dz =00pm	
Comment03	7 Sweeps	
Comment04	MagField =0.T	
Comment05	Divider 1:10	
Comment06	Setpoint:5mV,200 pA	
Comment07	Lockin: 50uVrms,5ms,5mV	
Comment08	Gain:9; 912Hz modulation	
Comment09	T=1.06K	
Bias>Bias (V)	5E-3	
Bias>Calibration (V/V)	81.475E-3	
Bias>Offset (V)	1.046E-3	
Bias Spectroscopy>Sweep Start (V)	5E-3	
Bias Spectroscopy>Sweep End (V)	-5E-3	
Bias Spectroscopy>Num Pixel	2000	
Bias Spectroscopy>Z Avg time (s)	500E-3	
Bias Spectroscopy>Z offset (m)	0E+0	
Bias Spectroscopy>1st Settling time (s)	500E-3	
Bias Spectroscopy>Settling time (s)	200E-6	
Bias Spectroscopy>Integration time (s)	5E-3	
Bias Spectroscopy>End Settling time (s)	500E-3	
Bias Spectroscopy>Z control time (s)	500E-3	
Bias Spectroscopy>Max Slew rate (V/s)	Inf	
Bias Spectroscopy>backward sweep	TRUE	
Bias Spectroscopy>Z-controller hold	TRUE	
Bias Spectroscopy>Number of sweeps	7	
Bias Spectroscopy>Channels	Current (A);X% LockIn (V);Y% LockIn (V)	
Bias Spectroscopy>Reset Bias	TRUE	
Bias Spectroscopy>Record final Z	FALSE	
Bias Spectroscopy>Lock-In run	FALSE	
Bias Spectroscopy>Sweep mode	Linear	
Bias Spectroscopy>MultiLine Settings : Segment Start (V), Segment End (V), Settling (s), Integration (s), Steps (xn)	100E-3,3.3E-3,100E-6,10E-3,2500;3.3E-3,-3.3E-3,100E-6,10E-3,10;-3.3E-3,-100E-3,100E-6,10E-3,2500	
Current>Current (A)	200.152E-12	
Current>Calibration (A/V)	999.99900E-12	
Current>Offset (A)	-455.429E-15	
Current>Gain	LN 10^9	
Z-Controller>Z (m)	-132.509E-9	
Z-Controller>Controller name	log Current	
Z-Controller>Controller status	ON	
Z-Controller>Setpoint	200E-12	
Z-Controller>Setpoint unit	A	
Z-Controller>P gain	2.96994E-12	
Z-Controller>I gain	67.0321E-9	
Z-Controller>Time const (s)	44.3062E-6	
Z-Controller>TipLift (m)	0E+0	
Z-Controller>Switch off delay (s)	50E-3	
Current (A)	199.896E-12	
Z (m)	-132.509E-9	

[DATA]
Bias calc (V)	Current (A)	X% LockIn (V)	Y% LockIn (V)	Current [bwd] (A)	X% LockIn [bwd] (V)	Y% LockIn [bwd] (V)
5.00000E-3	207.845E-12	559.066E-3	-22.3669E-3	204.773E-12	488.366E-3	-12.8015E-3
4.99500E-3	207.337E-12	562.506E-3	-14.4864E-3	200.938E-12	490.506E-3	5.71967E-3
4.98999E-3	205.755E-12	544.835E-3	-4.23854E-3	197.712E-12	469.575E-3	18.1432E-3
4.98499E-3	204.354E-12	535.383E-3	12.6358E-3	195.196E-12	463.952E-3	20.4222E-3
4.97999E-3	202.548E-12	531.067E-3	29.9821E-3	191.190E-12	478.940E-3	25.6812E-3
4.97499E-3	200.694E-12	527.202E-3	-7.18125E-3	189.977E-12	492.257E-3	24.4213E-3
4.96998E-3	198.855E-12	531.558E-3	-68.2582E-3	188.764E-12	495.936E-3	-2.41894E-3
4.96498E-3	197.593E-12	533.110E-3	-42.3224E-3	188.537E-12	507.458E-3	-36.6337E-3
4.95998E-3	195.952E-12	520.672E-3	13.0214E-3	188.433E-12	530.014E-3	-59.7351E-3
4.95498E-3	195.174E-12	508.842E-3	1.78068E-3	189.799E-12	524.443E-3	-39.7101E-3
4.94997E-3	195.203E-12	486.215E-3	-24.2677E-3	191.452E-12	494.211E-3	12.3693E-3
4.94497E-3	195.446E-12	458.936E-3	-14.2900E-3	192.810E-12	489.121E-3	27.6405E-3
4.93997E-3	195.473E-12	460.617E-3	-26.1750E-6	196.467E-12	498.821E-3	15.6159E-3
4.93497E-3	196.429E-12	500.223E-3	2.42170E-3	197.781E-12	494.005E-3	-5.75821E-3
4.92996E-3	197.405E-12	536.484E-3	-763.541E-6	199.696E-12	497.526E-3	-39.8665E-3
4.92496E-3	198.790E-12	539.793E-3	-5.67285E-3	200.892E-12	501.601E-3	-35.1314E-3
4.91996E-3	200.087E-12	534.231E-3	502.512E-6	204.106E-12	490.526E-3	6.31998E-3
4.91496E-3	200.975E-12	519.456E-3	10.3626E-3	204.980E-12	495.870E-3	8.52111E-3
4.90995E-3	202.453E-12	517.473E-3	-8.63157E-3	204.559E-12	527.963E-3	-16.5216E-3
4.90495E-3	202.538E-12	541.092E-3	-34.1408E-3	204.133E-12	562.988E-3	-26.5744E-3
4.89995E-3	202.808E-12	546.254E-3	-32.6208E-3	203.807E-12	570.113E-3	-19.3865E-3
4.89495E-3	201.872E-12	538.273E-3	-12.7926E-3	202.827E-12	546.621E-3	-9.31640E-3
4.88995E-3	202.267E-12	556.912E-3	12.6763E-3	199.612E-12	510.579E-3	-14.1581E-3
4.88494E-3	200.931E-12	560.502E-3	18.6504E-3	196.647E-12	486.171E-3	-17.2920E-3
4.87994E-3	198.689E-12	535.582E-3	-20.2165E-3	195.176E-12	489.649E-3	4.74919E-3
4.87494E-3	196.804E-12	530.150E-3	-47.7636E-3	193.143E-12	526.042E-3	31.7263E-3
4.86993E-3	195.565E-12	540.142E-3	-43.2490E-3	191.166E-12	538.265E-3	27.5873E-3
4.86493E-3	194.472E-12	544.158E-3	-51.8286E-3	189.488E-12	488.161E-3	7.73038E-3
4.85993E-3	191.966E-12	541.511E-3	-32.2350E-3	188.588E-12	460.345E-3	-3.91140E-3
4.85493E-3	190.505E-12	541.957E-3	-11.3334E-3	188.020E-12	481.333E-3	40.2398E-6
4.84992E-3	189.382E-12	535.565E-3	-24.7790E-3	188.039E-12	500.984E-3	17.6227E-3
4.84492E-3	189.206E-12	537.650E-3	-20.4417E-3	188.562E-12	537.667E-3	18.0338E-3
4.83992E-3	188.357E-12	544.541E-3	-8.01930E-3	190.091E-12	573.544E-3	10.2991E-3
4.83492E-3	188.720E-12	526.923E-3	-25.1845E-3	191.375E-12	558.700E-3	12.4494E-3
4.82991E-3	189.242E-12	517.861E-3	-47.0308E-3	193.265E-12	544.651E-3	3.85669E-3
4.82491E-3	190.268E-12	525.039E-3	-36.8101E-3	195.869E-12	555.061E-3	-1.80633E-3
4.81991E-3	191.970E-12	510.515E-3	-13.2557E-3	198.189E-12	558.332E-3	-3.47202E-3
4.81491E-3	193.243E-12	483.013E-3	508.981E-6	200.434E-12	550.898E-3	-25.5373E-3
4.80990E-3	194.432E-12	453.225E-3	15.5365E-3	203.049E-12	538.084E-3	-64.0393E-3
4.80490E-3	195.549E-12	443.063E-3	16.5256E-3	204.259E-12	529.471E-3	-80.4288E-3
4.79990E-3	196.690E-12	473.198E-3	-18.0912E-3	204.933E-12	532.730E-3	-76.2470E-3
4.79490E-3	197.484E-12	501.107E-3	-36.1568E-3	204.337E-12	534.430E-3	-58.9983E-3
4.78989E-3	197.097E-12	517.273E-3	-26.8958E-3	203.728E-12	521.691E-3	-18.1612E-3
4.78489E-3	196.927E-12	526.755E-3	-15.3921E-3	202.178E-12	509.439E-3	8.37957E-3
4.77989E-3	196.053E-12	545.848E-3	1.13049E-3	199.492E-12	498.798E-3	17.2335E-3
4.77489E-3	194.603E-12	556.431E-3	-8.91988E-3	196.787E-12	490.898E-3	7.31961E-3
4.76988E-3	192.730E-12	535.759E-3	-31.1420E-3	193.925E-12	496.903E-3	-33.8000E-3
4.76488E-3	192.182E-12	513.722E-3	-25.7672E-3	190.849E-12	493.816E-3	-51.4162E-3
4.75988E-3	190.412E-12	486.173E-3	-2.83248E-3	188.474E-12	481.264E-3	-20.5310E-3
4.75488E-3	188.464E-12	470.952E-3	7.37806E-3	185.783E-12	488.543E-3	2.38130E-3
4.74988E-3	186.717E-12	487.227E-3	-3.74971E-3	184.543E-12	493.983E-3	-20.0405E-3
4.74487E-3	186.324E-12	529.747E-3	-23.5438E-3	183.800E-12	487.534E-3	-32.8413E-3
4.73987E-3	185.765E-12	562.322E-3	-23.0848E-3	184.006E-12	486.484E-3	-9.37965E-3
4.73487E-3	185.454E-12	535.339E-3	1.84481E-3	185.679E-12	489.660E-3	5.50392E-3
4.72986E-3	185.365E-12	490.529E-3	10.2176E-3	186.282E-12	477.353E-3	16.0086E-3
4.72486E-3	186.890E-12	468.950E-3	-7.35189E-3	187.618E-12	488.294E-3	28.7106E-3
4.71986E-3	188.067E-12	475.187E-3	-15.9277E-3	190.266E-12	550.190E-3	9.44329E-3
4.71486E-3	189.216E-12	495.197E-3	-8.00623E-3	192.980E-12	560.684E-3	-28.7513E-3
4.70985E-3	191.093E-12	507.286E-3	-5.28700E-3	194.184E-12	528.152E-3	-17.9634E-3
4.70485E-3	192.786E-12	512.423E-3	-11.3831E-3	195.836E-12	532.828E-3	20.4019E-3
4.69985E-3	194.383E-12	492.224E-3	-13.6069E-3	197.345E-12	545.587E-3	20.9281E-3
4.69485E-3	196.090E-12	472.225E-3	-18.6377E-3	197.666E-12	543.361E-3	-8.45193E-3
4.68984E-3	197.140E-12	475.384E-3	-18.5693E-3	197.606E-12	519.465E-3	-29.0461E-3
4.68484E-3	197.710E-12	497.533E-3	3.68802E-3	195.961E-12	494.099E-3	-23.1104E-3
4.67984E-3	197.401E-12	523.525E-3	7.19798E-3	194.178E-12	479.328E-3	-20.4920E-3
4.67484E-3	196.310E-12	512.243E-3	8.04792E-3	191.327E-12	480.883E-3	-42.6532E-3
4.66983E-3	194.766E-12	505.355E-3	21.4577E-3	188.495E-12	491.570E-3	-52.1287E-3
4.66483E-3	193.193E-12	522.665E-3	8.09005E-3	185.687E-12	467.763E-3	-39.7013E-3
4.65983E-3	190.739E-12	520.595E-3	-17.0791E-3	182.818E-12	457.426E-3	-11.2246E-3
4.65483E-3	188.946E-12	497.013E-3	-38.9852E-3	180.459E-12	477.166E-3	32.3848E-3
4.64982E-3	186.305E-12	485.057E-3	-55.7178E-3	179.002E-12	484.247E-3	41.7895E-3
4.64482E-3	184.186E-12	504.228E-3	-33.5300E-3	178.041E-12	490.605E-3	6.33693E-3
4.63982E-3	183.032E-12	512.485E-3	-11.1334E-3	177.553E-12	497.452E-3	-28.5580E-3
4.63482E-3	182.294E-12	503.037E-3	-31.3793E-3	177.970E-12	501.028E-3	-23.9457E-3
4.62981E-3	181.547E-12	495.223E-3	-41.4218E-3	179.662E-12	502.269E-3	-12.3525E-3
4.62481E-3	180.867E-12	479.873E-3	-32.0891E-3	182.050E-12	511.760E-3	-12.0650E-3
4.61981E-3	182.890E-12	480.586E-3	-25.7982E-3	183.806E-12	521.084E-3	17.9025E-3
4.61481E-3	184.128E-12	499.880E-3	-48.2030E-3	186.611E-12	521.059E-3	18.7693E-3
4.60980E-3	184.816E-12	515.042E-3	-59.4242E-3	188.449E-12	516.344E-3	-39.1458E-3
4.60480E-3	186.533E-12	515.120E-3	-38.0811E-3	190.468E-12	513.092E-3	-75.2265E-3
4.59980E-3	188.829E-12	501.272E-3	-24.3082E-3	191.556E-12	527.967E-3	-72.5582E-3
4.59480E-3	189.998E-12	500.945E-3	-12.5417E-3	193.028E-12	538.702E-3	-70.4635E-3
4.58979E-3	191.357E-12	526.181E-3	-16.2198E-3	193.642E-12	546.657E-3	-65.8976E-3
4.58479E-3	191.881E-12	570.355E-3	-12.0365E-3	193.116E-12	558.207E-3	-35.9942E-3
4.57979E-3	192.315E-12	588.790E-3	-10.6292E-3	192.674E-12	552.601E-3	-12.5786E-3
4.57479E-3	192.345E-12	568.314E-3	-38.1452E-3	191.276E-12	546.319E-3	-25.0974E-3
4.56978E-3	191.267E-12	557.181E-3	-67.2118E-3	189.235E-12	538.186E-3	-36.2217E-3
4.56478E-3	190.179E-12	544.669E-3	-50.6650E-3	186.691E-12	515.929E-3	-19.0813E-3
4.55978E-3	188.082E-12	524.184E-3	-20.6504E-3	184.845E-12	488.574E-3	577.462E-6
4.55478E-3	186.246E-12	515.189E-3	-37.5158E-3	183.482E-12	483.256E-3	2.31338E-3
4.54977E-3	184.315E-12	517.771E-3	-31.7913E-3	181.290E-12	506.159E-3	9.24268E-3
4.54477E-3	182.410E-12	514.219E-3	3.85282E-3	179.805E-12	526.768E-3	16.6563E-3
4.53977E-3	180.045E-12	497.396E-3	-2.13532E-3	179.895E-12	540.041E-3	-2.06786E-3
4.53477E-3	179.137E-12	497.699E-3	-25.4693E-3	180.416E-12	543.685E-3	-23.6768E-3
4.52976E-3	178.319E-12	510.111E-3	-26.9556E-3	180.381E-12	526.988E-3	-27.9778E-3
4.52476E-3	178.230E-12	512.622E-3	-28.4303E-3	181.591E-12	522.659E-3	-24.6869E-3
4.51976E-3	178.301E-12	513.211E-3	-30.4771E-3	182.449E-12	537.337E-3	-30.4632E-3
4.51476E-3	178.623E-12	514.337E-3	-39.1178E-3	184.200E-12	538.909E-3	-12.7455E-3
4.50975E-3	179.640E-12	517.792E-3	-46.7718E-3	185.752E-12	529.917E-3	18.3611E-3
4.50475E-3	181.501E-12	523.636E-3	-16.5035E-3	186.555E-12	522.930E-3	7.67738E-3
4.49975E-3	182.329E-12	521.459E-3	5.38709E-3	187.131E-12	530.852E-3	-2.21933E-3
4.49475E-3	183.482E-12	512.255E-3	-25.2815E-3	188.267E-12	542.372E-3	15.6284E-3
4.48974E-3	184.794E-12	504.518E-3	-45.9701E-3	188.275E-12	542.786E-3	16.3564E-3
4.48474E-3	185.969E-12	504.587E-3	-53.3623E-3	189.043E-12	528.083E-3	-12.2243E-3
4.47974E-3	186.361E-12	512.654E-3	-52.5675E-3	188.782E-12	514.707E-3	-22.0816E-3
4.47474E-3	187.179E-12	533.311E-3	-24.1481E-3	188.044E-12	529.903E-3	-6.88056E-3
4.46973E-3	186.525E-12	553.614E-3	-1.73929E-3	187.029E-12	539.921E-3	-8.91533E-3
4.46473E-3	186.668E-12	569.732E-3	8.10278E-3	185.648E-12	530.511E-3	-7.98637E-3
4.45973E-3	185.470E-12	543.019E-3	-280.361E-6	184.457E-12	515.226E-3	-2.43604E-3
4.45473E-3	184.515E-12	471.337E-3	-17.4117E-3	182.359E-12	494.550E-3	-28.8637E-3
4.44972E-3	182.818E-12	457.351E-3	-33.0293E-3	180.554E-12	489.266E-3	-53.5484E-3
4.44472E-3	180.584E-12	515.795E-3	-31.9907E-3	178.805E-12	489.890E-3	-61.2223E-3
4.43972E-3	179.515E-12	569.252E-3	-20.0441E-3	178.036E-12	486.167E-3	-61.5064E-3
4.43472E-3	178.268E-12	567.601E-3	-17.4084E-3	176.644E-12	496.811E-3	-36.8605E-3
4.42971E-3	176.895E-12	537.243E-3	-13.5240E-3	176.396E-12	501.266E-3	-10.3604E-3
4.42471E-3	175.836E-12	517.674E-3	-13.8267E-3	175.894E-12	482.206E-3	-9.95757E-3
4.41971E-3	175.915E-12	493.420E-3	-11.4659E-3	176.069E-12	480.956E-3	-28.0769E-3
4.41471E-3	175.535E-12	475.936E-3	-10.7395E-3	176.542E-12	494.824E-3	-52.6738E-3
4.40970E-3	176.477E-12	480.472E-3	-16.5662E-3	177.703E-12	492.893E-3	-55.4740E-3
4.40470E-3	176.418E-12	489.495E-3	-3.58051E-3	178.667E-12	504.217E-3	-24.9545E-3
4.39970E-3	177.427E-12	491.236E-3	7.55417E-3	179.550E-12	523.504E-3	2.94618E-3
4.39470E-3	179.169E-12	479.597E-3	-3.11209E-3	180.992E-12	522.932E-3	4.04948E-3
4.38969E-3	180.104E-12	477.974E-3	344.387E-6	181.763E-12	516.310E-3	-1.39420E-3
4.38469E-3	181.960E-12	484.088E-3	20.6741E-3	181.952E-12	508.000E-3	-7.82537E-3
4.37969E-3	183.076E-12	493.458E-3	25.4516E-3	182.790E-12	499.764E-3	-10.0747E-3
4.37469E-3	183.885E-12	513.373E-3	2.63345E-3	183.192E-12	512.055E-3	18.9015E-3
4.36968E-3	184.563E-12	522.940E-3	-4.34705E-3	183.323E-12	527.107E-3	42.9717E-3
4.36468E-3	185.755E-12	524.608E-3	23.5110E-3	182.235E-12	504.562E-3	27.3970E-3
4.35968E-3	185.571E-12	514.350E-3	33.1936E-3	181.571E-12	467.717E-3	6.35868E-3
4.35468E-3	184.514E-12	514.220E-3	17.7651E-3	180.000E-12	477.477E-3	-5.38957E-3
4.34967E-3	183.684E-12	539.830E-3	9.44829E-3	179.096E-12	499.264E-3	-26.7540E-3
4.34467E-3	182.706E-12	550.092E-3	6.57720E-3	176.167E-12	491.586E-3	-36.5760E-3
4.33967E-3	180.970E-12	537.635E-3	-5.49300E-3	175.098E-12	506.957E-3	-20.6312E-3
4.33467E-3	178.540E-12	529.918E-3	-6.73362E-3	173.686E-12	522.440E-3	-3.57006E-3
4.32966E-3	177.075E-12	522.244E-3	-7.85733E-3	172.270E-12	503.032E-3	-5.70730E-3
4.32466E-3	175.463E-12	509.445E-3	-18.0347E-3	171.414E-12	493.775E-3	-8.68178E-3
4.31966E-3	173.606E-12	496.253E-3	-6.47842E-3	171.355E-12	500.414E-3	12.6915E-3
4.31466E-3	172.730E-12	471.820E-3	1.30092E-3	171.447E-12	499.936E-3	24.1322E-3
4.30965E-3	171.987E-12	462.963E-3	-24.2409E-3	171.409E-12	499.929E-3	102.208E-6
4.30465E-3	171.815E-12	490.523E-3	-51.9932E-3	172.278E-12	505.179E-3	-30.9608E-3
4.29965E-3	171.670E-12	532.940E-3	-53.1636E-3	173.069E-12	498.513E-3	-40.0069E-3
4.29465E-3	172.529E-12	544.289E-3	-44.2390E-3	174.245E-12	501.079E-3	-30.7112E-3
4.28964E-3	173.261E-12	528.500E-3	-36.8896E-3	175.481E-12	512.291E-3	-20.1462E-3
4.28464E-3	174.788E-12	507.938E-3	-38.8029E-3	176.260E-12	508.397E-3	-32.5215E-3
4.27964E-3	176.308E-12	481.389E-3	-46.5830E-3	177.389E-12	514.659E-3	-43.9584E-3
4.27464E-3	178.228E-12	465.445E-3	-30.6561E-3	177.881E-12	519.752E-3	-39.3482E-3
4.26963E-3	179.736E-12	470.316E-3	3.22022E-3	178.752E-12	513.416E-3	-41.8657E-3
4.26463E-3	180.432E-12	500.010E-3	908.055E-6	178.854E-12	514.998E-3	-29.3460E-3
4.25963E-3	181.336E-12	539.572E-3	-28.3124E-3	178.558E-12	535.088E-3	-8.20338E-3
4.25463E-3	181.101E-12	578.762E-3	-16.5608E-3	177.658E-12	541.478E-3	-13.5525E-3
4.24962E-3	180.520E-12	581.140E-3	8.32877E-3	176.139E-12	528.244E-3	-27.7927E-3
4.24462E-3	178.655E-12	562.207E-3	11.7545E-3	174.694E-12	539.980E-3	-18.0069E-3
4.23962E-3	176.992E-12	552.682E-3	5.07055E-3	172.691E-12	548.643E-3	2.42352E-3
4.23462E-3	174.468E-12	532.327E-3	-6.91320E-3	171.466E-12	520.795E-3	13.6591E-3
4.22961E-3	172.749E-12	533.879E-3	-12.3068E-3	169.796E-12	500.210E-3	4.14501E-3
4.22461E-3	170.574E-12	546.513E-3	-13.7966E-3	170.102E-12	505.160E-3	-12.7067E-3
4.21961E-3	168.801E-12	535.947E-3	-16.9128E-3	168.893E-12	521.908E-3	-13.3232E-3
4.21461E-3	166.913E-12	528.845E-3	-6.67449E-3	169.013E-12	530.828E-3	-13.5047E-3
4.20960E-3	166.047E-12	529.290E-3	-1.53245E-3	169.091E-12	511.510E-3	-20.8626E-3
4.20460E-3	165.817E-12	513.819E-3	-11.5568E-3	169.781E-12	513.001E-3	-29.7782E-3
4.19960E-3	165.893E-12	517.030E-3	-9.47451E-3	170.025E-12	529.257E-3	-31.3901E-3
4.19460E-3	165.876E-12	535.229E-3	3.65492E-3	171.070E-12	511.408E-3	-30.9300E-3
4.18959E-3	166.870E-12	518.076E-3	13.1694E-3	173.047E-12	506.337E-3	-23.1519E-3
4.18459E-3	169.002E-12	494.744E-3	10.8408E-3	174.343E-12	529.594E-3	-14.9341E-3
4.17959E-3	170.920E-12	485.962E-3	3.24730E-3	175.311E-12	537.570E-3	-40.0231E-3
4.17459E-3	171.882E-12	500.081E-3	-11.0035E-3	176.504E-12	536.014E-3	-56.9695E-3
4.16958E-3	173.052E-12	522.753E-3	-25.2664E-3	177.197E-12	554.558E-3	-38.9569E-3
4.16458E-3	175.106E-12	518.286E-3	-28.5137E-3	178.257E-12	553.571E-3	-31.0212E-3
4.15958E-3	176.596E-12	524.029E-3	-36.1776E-3	177.630E-12	521.690E-3	-24.2896E-3
4.15458E-3	176.418E-12	541.554E-3	-37.8457E-3	177.244E-12	518.874E-3	-7.34502E-3
4.14957E-3	176.096E-12	537.334E-3	-15.4564E-3	175.033E-12	519.612E-3	-7.50485E-3
4.14457E-3	175.365E-12	515.832E-3	-2.02603E-3	174.230E-12	496.157E-3	-4.99445E-3
4.13957E-3	174.824E-12	497.385E-3	-436.436E-6	171.756E-12	511.774E-3	11.4007E-3
4.13457E-3	173.005E-12	503.682E-3	12.0704E-3	170.113E-12	524.005E-3	22.7585E-3
4.12956E-3	171.824E-12	525.004E-3	-2.62946E-3	168.184E-12	498.551E-3	21.4237E-3
4.12456E-3	170.024E-12	540.732E-3	-40.2166E-3	167.389E-12	500.215E-3	8.96996E-3
4.11956E-3	168.393E-12	526.244E-3	-51.7113E-3	165.459E-12	512.276E-3	-7.58241E-3
4.11456E-3	167.325E-12	506.715E-3	-59.9209E-3	165.156E-12	508.959E-3	-13.6058E-3
4.10955E-3	166.462E-12	514.480E-3	-64.2370E-3	164.855E-12	489.434E-3	-2.04681E-3
4.10455E-3	165.302E-12	517.415E-3	-40.1344E-3	164.398E-12	483.205E-3	-4.82421E-3
4.09955E-3	165.228E-12	537.437E-3	-32.4928E-3	165.335E-12	510.582E-3	-4.18423E-3
4.09455E-3	166.066E-12	589.847E-3	-43.9294E-3	165.491E-12	519.921E-3	17.3540E-3
4.08954E-3	166.640E-12	592.965E-3	-15.0965E-3	166.911E-12	510.031E-3	29.2895E-3
4.08454E-3	167.052E-12	544.301E-3	34.0249E-3	167.825E-12	523.194E-3	21.9075E-3
4.07954E-3	168.044E-12	514.313E-3	36.5999E-3	169.188E-12	531.577E-3	-6.46297E-3
4.07454E-3	169.886E-12	515.855E-3	23.1260E-3	169.763E-12	517.758E-3	-30.4027E-3
4.06953E-3	170.396E-12	524.405E-3	10.0528E-3	170.143E-12	510.378E-3	-30.9870E-3
4.06453E-3	171.293E-12	521.057E-3	-14.4080E-3	170.690E-12	498.126E-3	-15.5978E-3
4.05953E-3	171.653E-12	512.234E-3	-10.1915E-3	170.392E-12	488.066E-3	569.189E-6
4.05453E-3	172.715E-12	505.537E-3	3.96886E-3	170.571E-12	497.989E-3	-17.2983E-3
4.04952E-3	172.904E-12	522.744E-3	2.71557E-3	169.230E-12	501.582E-3	-58.0257E-3
4.04452E-3	172.584E-12	562.735E-3	392.020E-6	168.718E-12	499.963E-3	-61.4580E-3
4.03952E-3	171.500E-12	584.811E-3	2.65463E-3	167.310E-12	522.728E-3	-21.5171E-3
4.03452E-3	170.284E-12	566.701E-3	-11.2106E-3	165.906E-12	548.867E-3	15.3310E-3
4.02951E-3	168.947E-12	531.735E-3	-25.7632E-3	163.672E-12	540.286E-3	10.4100E-3
4.02451E-3	168.033E-12	531.171E-3	-12.5212E-3	162.987E-12	521.329E-3	-33.4731E-3
4.01951E-3	166.994E-12	547.033E-3	-11.7992E-3	161.914E-12	515.730E-3	-51.9279E-3
4.01451E-3	165.285E-12	543.726E-3	-13.0858E-3	161.218E-12	521.998E-3	-28.8603E-3
4.00950E-3	163.825E-12	523.498E-3	3.67286E-3	160.832E-12	540.159E-3	-10.7778E-3
4.00450E-3	162.665E-12	518.203E-3	-7.95997E-3	160.213E-12	544.429E-3	2.56382E-3
3.99950E-3	162.405E-12	537.521E-3	-36.5323E-3	161.045E-12	537.099E-3	14.8891E-3
3.99450E-3	161.979E-12	552.527E-3	-38.0396E-3	161.689E-12	540.501E-3	-2.32180E-3
3.98949E-3	161.060E-12	552.695E-3	-16.1469E-3	163.120E-12	558.215E-3	-28.5909E-3
3.98449E-3	161.556E-12	546.896E-3	1.12421E-3	163.330E-12	575.950E-3	-32.7205E-3
3.97949E-3	161.969E-12	533.501E-3	-13.6722E-3	164.829E-12	563.010E-3	-23.9092E-3
3.97449E-3	162.913E-12	509.127E-3	-41.2329E-3	165.501E-12	542.558E-3	-14.2937E-3
3.96948E-3	162.528E-12	502.808E-3	-46.2714E-3	166.685E-12	546.511E-3	-24.4520E-3
3.96448E-3	164.041E-12	511.833E-3	-39.3513E-3	166.331E-12	533.055E-3	-30.4483E-3
3.95948E-3	164.399E-12	523.216E-3	-32.5013E-3	166.599E-12	521.526E-3	-25.1290E-3
3.95448E-3	165.595E-12	532.973E-3	-27.2264E-3	167.482E-12	541.009E-3	-44.7220E-3
3.94947E-3	166.763E-12	528.788E-3	-23.3849E-3	167.258E-12	531.980E-3	-64.6804E-3
3.94447E-3	167.379E-12	517.914E-3	-23.7395E-3	165.945E-12	513.399E-3	-50.5624E-3
3.93947E-3	167.615E-12	529.862E-3	-13.7836E-3	164.559E-12	521.485E-3	-20.2697E-3
3.93447E-3	167.140E-12	543.147E-3	1.43678E-3	164.248E-12	515.612E-3	3.84064E-3
3.92946E-3	167.016E-12	539.382E-3	-18.4958E-3	163.022E-12	497.787E-3	18.5565E-3
3.92446E-3	165.323E-12	547.384E-3	-35.7047E-3	162.183E-12	503.424E-3	1.36738E-3
3.91946E-3	164.328E-12	561.335E-3	-19.4930E-3	160.639E-12	524.224E-3	-36.7357E-3
3.91446E-3	162.036E-12	566.271E-3	-15.6934E-3	159.723E-12	530.317E-3	-21.9372E-3
3.90945E-3	161.830E-12	563.459E-3	-24.6808E-3	160.157E-12	519.263E-3	14.5327E-3
3.90445E-3	160.583E-12	548.974E-3	-33.5884E-3	160.109E-12	506.318E-3	8.77111E-3
3.89945E-3	159.541E-12	531.457E-3	-47.6570E-3	159.677E-12	499.413E-3	-9.31631E-3
3.89445E-3	158.784E-12	541.638E-3	-44.8705E-3	159.097E-12	507.229E-3	-29.4425E-3
3.88944E-3	157.735E-12	540.080E-3	-36.3745E-3	159.172E-12	519.408E-3	-32.0206E-3
3.88444E-3	158.063E-12	519.794E-3	-58.7539E-3	159.796E-12	511.956E-3	-3.71318E-3
3.87944E-3	156.994E-12	525.209E-3	-65.2376E-3	160.405E-12	496.025E-3	-2.01151E-3
3.87444E-3	158.035E-12	532.314E-3	-37.1605E-3	159.793E-12	487.686E-3	-26.1958E-3
3.86943E-3	157.710E-12	517.857E-3	-36.6769E-3	160.654E-12	485.060E-3	-33.3038E-3
3.86443E-3	158.506E-12	518.482E-3	-54.9973E-3	160.862E-12	507.218E-3	-45.5551E-3
3.85943E-3	158.865E-12	543.786E-3	-32.7909E-3	161.669E-12	543.790E-3	-60.1709E-3
3.85443E-3	160.364E-12	548.210E-3	23.0531E-3	161.148E-12	543.532E-3	-41.1351E-3
3.84942E-3	160.806E-12	548.431E-3	36.5344E-3	161.379E-12	525.546E-3	-14.7552E-3
3.84442E-3	161.864E-12	570.809E-3	6.74667E-3	161.723E-12	526.087E-3	-14.1441E-3
3.83942E-3	163.455E-12	573.393E-3	-9.81550E-3	161.784E-12	518.554E-3	-12.8294E-3
3.83442E-3	163.745E-12	547.333E-3	-9.80187E-3	160.975E-12	513.640E-3	-19.5280E-3
3.82941E-3	163.243E-12	521.827E-3	-276.882E-6	159.845E-12	516.671E-3	-39.5907E-3
3.82441E-3	162.327E-12	513.683E-3	20.9859E-3	159.544E-12	501.692E-3	-33.3378E-3
3.81941E-3	162.072E-12	519.562E-3	29.1106E-3	159.289E-12	496.705E-3	-16.0198E-3
3.81441E-3	160.410E-12	511.661E-3	14.6852E-3	158.855E-12	508.077E-3	-12.4142E-3
3.80940E-3	158.461E-12	506.319E-3	-6.66150E-3	157.778E-12	516.446E-3	-14.1731E-3
3.80440E-3	156.619E-12	522.102E-3	-29.2818E-3	156.566E-12	512.054E-3	-19.1842E-3
3.79940E-3	155.573E-12	521.861E-3	-19.0180E-3	156.516E-12	499.416E-3	-41.5568E-3
3.79440E-3	154.168E-12	515.267E-3	17.4033E-3	156.403E-12	515.553E-3	-67.4087E-3
3.78939E-3	152.889E-12	520.812E-3	17.2440E-3	156.261E-12	530.513E-3	-46.3056E-3
3.78439E-3	152.370E-12	528.625E-3	-7.02409E-3	155.869E-12	519.873E-3	-4.27773E-3
3.77939E-3	152.501E-12	531.836E-3	-13.3975E-3	155.883E-12	509.734E-3	-2.60299E-3
3.77439E-3	152.128E-12	526.842E-3	-26.3638E-3	155.944E-12	511.190E-3	-16.4642E-3
3.76938E-3	152.575E-12	523.180E-3	-38.2812E-3	156.651E-12	542.054E-3	-10.1477E-3
3.76438E-3	153.488E-12	520.682E-3	-22.2435E-3	156.943E-12	559.259E-3	-10.8158E-3
3.75938E-3	155.177E-12	525.871E-3	-3.04014E-3	157.496E-12	549.890E-3	-40.3994E-3
3.75438E-3	156.347E-12	531.866E-3	21.6956E-3	158.253E-12	546.455E-3	-61.4793E-3
3.74937E-3	158.800E-12	508.446E-3	34.7437E-3	158.577E-12	546.935E-3	-42.0181E-3
3.74437E-3	160.057E-12	496.531E-3	4.89930E-3	159.046E-12	570.299E-3	-5.46080E-3
3.73937E-3	161.211E-12	538.435E-3	-39.9443E-3	158.331E-12	601.690E-3	12.6388E-3
3.73437E-3	162.828E-12	562.727E-3	-41.4496E-3	158.631E-12	591.691E-3	-5.41042E-3
3.72936E-3	163.166E-12	541.585E-3	-24.8960E-3	158.466E-12	550.592E-3	-31.4437E-3
3.72436E-3	162.610E-12	545.694E-3	-24.8655E-3	157.712E-12	522.796E-3	-24.2514E-3
3.71936E-3	161.576E-12	576.346E-3	-11.5627E-3	156.372E-12	516.851E-3	-8.19382E-3
3.71436E-3	160.468E-12	585.279E-3	-16.5180E-3	155.724E-12	517.216E-3	-22.0252E-3
3.70935E-3	159.570E-12	591.596E-3	-20.0397E-3	154.862E-12	515.394E-3	-38.8516E-3
3.70435E-3	157.567E-12	598.704E-3	-1.71724E-3	153.737E-12	510.583E-3	-32.6451E-3
3.69935E-3	154.941E-12	556.381E-3	-18.0062E-3	152.367E-12	496.793E-3	-21.5854E-3
3.69435E-3	154.301E-12	519.745E-3	-55.5132E-3	151.599E-12	483.584E-3	-15.1746E-3
3.68934E-3	153.092E-12	537.827E-3	-47.5993E-3	151.692E-12	482.831E-3	-13.9611E-3
3.68434E-3	151.296E-12	546.923E-3	-28.2189E-3	151.054E-12	494.685E-3	-11.6925E-3
3.67934E-3	150.765E-12	542.109E-3	-39.5607E-3	150.600E-12	512.983E-3	-10.8682E-3
3.67434E-3	150.362E-12	533.870E-3	-29.9160E-3	150.027E-12	528.651E-3	-23.7085E-3
3.66933E-3	150.991E-12	508.573E-3	-11.7733E-3	150.768E-12	543.219E-3	-31.1838E-3
3.66433E-3	151.393E-12	496.237E-3	-9.03585E-3	151.195E-12	550.856E-3	-29.6427E-3
3.65933E-3	152.327E-12	498.934E-3	-3.42787E-3	152.062E-12	534.320E-3	-36.8431E-3
3.65433E-3	153.480E-12	503.279E-3	-21.0403E-3	152.465E-12	526.600E-3	-39.6203E-3
3.64932E-3	155.019E-12	525.595E-3	-42.8492E-3	153.385E-12	543.644E-3	-41.0380E-3
3.64432E-3	156.204E-12	553.367E-3	-34.2492E-3	154.638E-12	539.890E-3	-51.2375E-3
3.63932E-3	156.871E-12	558.612E-3	-10.1892E-3	155.331E-12	526.906E-3	-52.2716E-3
3.63432E-3	157.636E-12	551.026E-3	8.77881E-3	155.657E-12	536.956E-3	-38.7895E-3
3.62931E-3	156.666E-12	549.312E-3	15.4520E-3	155.343E-12	549.764E-3	-28.3635E-3
3.62431E-3	156.706E-12	565.832E-3	19.0254E-3	155.040E-12	571.886E-3	-16.9492E-3
3.61931E-3	156.118E-12	581.210E-3	20.6133E-3	154.368E-12	585.787E-3	-5.41802E-3
3.61431E-3	154.699E-12	576.638E-3	17.1007E-3	153.635E-12	552.854E-3	-3.79034E-3
3.60930E-3	153.744E-12	572.224E-3	7.25081E-3	152.254E-12	523.192E-3	1.71143E-3
3.60430E-3	152.189E-12	564.553E-3	-2.37354E-3	150.376E-12	527.979E-3	-8.28886E-3
3.59930E-3	151.178E-12	550.478E-3	-15.5663E-3	150.022E-12	540.457E-3	-22.3107E-3
3.59430E-3	149.707E-12	534.529E-3	-21.4631E-3	149.427E-12	547.706E-3	-7.15627E-3
3.58929E-3	147.848E-12	532.266E-3	-9.51420E-3	148.540E-12	552.192E-3	16.2074E-3
3.58429E-3	146.461E-12	535.260E-3	-3.41215E-3	147.831E-12	555.827E-3	23.7657E-3
3.57929E-3	145.404E-12	519.554E-3	-11.5665E-3	147.933E-12	558.042E-3	6.36312E-3
3.57429E-3	145.255E-12	491.174E-3	-21.6967E-3	148.462E-12	564.061E-3	-16.0077E-3
3.56928E-3	144.804E-12	481.272E-3	-27.4444E-3	148.361E-12	570.769E-3	-26.8251E-3
3.56428E-3	144.628E-12	502.476E-3	-38.8024E-3	148.982E-12	557.496E-3	-20.9142E-3
3.55928E-3	144.929E-12	527.741E-3	-52.3376E-3	149.919E-12	541.055E-3	-28.7257E-3
3.55428E-3	145.809E-12	526.464E-3	-37.1084E-3	150.358E-12	555.572E-3	-58.1672E-3
3.54927E-3	147.012E-12	505.920E-3	-2.94734E-3	150.830E-12	555.640E-3	-67.6822E-3
3.54427E-3	147.467E-12	505.882E-3	-7.98813E-3	151.846E-12	527.756E-3	-61.4832E-3
3.53927E-3	147.982E-12	544.972E-3	-22.1347E-3	152.531E-12	509.336E-3	-38.2796E-3
3.53427E-3	149.070E-12	579.380E-3	-6.39852E-3	152.193E-12	499.100E-3	-7.08519E-3
3.52926E-3	149.820E-12	562.612E-3	439.689E-6	151.764E-12	508.707E-3	6.11612E-3
3.52426E-3	150.575E-12	528.007E-3	-5.13307E-3	151.299E-12	538.926E-3	-4.81963E-3
3.51926E-3	150.452E-12	494.414E-3	-4.13962E-3	150.287E-12	540.892E-3	-25.4236E-3
3.51426E-3	150.565E-12	487.538E-3	-3.54388E-3	149.170E-12	523.506E-3	-31.0742E-3
3.50925E-3	150.938E-12	528.206E-3	-5.08059E-3	147.803E-12	530.968E-3	-19.3740E-3
3.50425E-3	150.487E-12	556.515E-3	1.50297E-3	146.636E-12	538.612E-3	-11.5736E-3
3.49925E-3	149.309E-12	555.206E-3	-3.40617E-3	145.767E-12	526.643E-3	-21.4968E-3
3.49425E-3	148.294E-12	548.287E-3	-791.390E-6	144.575E-12	513.231E-3	-14.5928E-3
3.48924E-3	147.829E-12	550.241E-3	24.3713E-3	145.149E-12	519.829E-3	4.55882E-3
3.48424E-3	146.434E-12	558.487E-3	32.6769E-3	144.581E-12	538.556E-3	6.81961E-3
3.47924E-3	145.194E-12	554.328E-3	13.3358E-3	144.390E-12	548.273E-3	-1.10645E-3
3.47424E-3	144.216E-12	526.053E-3	-15.4744E-3	144.686E-12	546.876E-3	-11.7638E-3
3.46923E-3	143.232E-12	503.018E-3	-32.9722E-3	145.581E-12	532.107E-3	-18.7923E-3
3.46423E-3	142.542E-12	515.968E-3	-29.9810E-3	146.059E-12	523.023E-3	-28.3592E-3
3.45923E-3	142.690E-12	534.340E-3	-9.81469E-3	146.260E-12	526.591E-3	-25.4034E-3
3.45423E-3	141.877E-12	530.881E-3	2.04794E-3	146.879E-12	528.568E-3	-8.44201E-3
3.44922E-3	142.203E-12	524.685E-3	-3.12388E-3	147.127E-12	534.465E-3	-1.73805E-3
3.44422E-3	142.825E-12	529.791E-3	-13.4580E-3	147.337E-12	536.653E-3	-3.88126E-3
3.43922E-3	143.672E-12	541.052E-3	-16.0955E-3	147.091E-12	525.847E-3	-15.1741E-3
3.43422E-3	144.701E-12	543.785E-3	-3.74241E-3	147.194E-12	507.747E-3	-30.5154E-3
3.42921E-3	145.964E-12	537.315E-3	924.038E-6	145.910E-12	499.590E-3	-51.4117E-3
3.42421E-3	146.921E-12	546.210E-3	-9.95321E-3	145.845E-12	493.834E-3	-71.3470E-3
3.41921E-3	148.335E-12	562.375E-3	-13.2698E-3	145.088E-12	498.720E-3	-52.5466E-3
3.41421E-3	149.380E-12	551.789E-3	-12.4014E-3	144.875E-12	527.035E-3	-10.8156E-3
3.40920E-3	150.218E-12	517.469E-3	-6.14805E-3	143.849E-12	540.014E-3	-3.41527E-3
3.40420E-3	149.845E-12	524.059E-3	6.06662E-3	143.641E-12	537.525E-3	-22.3926E-3
3.39920E-3	150.097E-12	547.779E-3	10.0948E-3	142.981E-12	557.933E-3	-28.0670E-3
3.39420E-3	149.628E-12	524.402E-3	1.87674E-3	143.467E-12	578.589E-3	-31.8521E-3
3.38919E-3	148.169E-12	513.384E-3	-15.3623E-3	143.109E-12	566.507E-3	-48.1134E-3
3.38419E-3	146.720E-12	533.935E-3	-27.3894E-3	143.069E-12	538.765E-3	-50.2179E-3
3.37919E-3	145.157E-12	539.582E-3	-21.7338E-3	143.475E-12	515.170E-3	-39.4081E-3
3.37419E-3	143.417E-12	535.308E-3	-9.20210E-3	143.726E-12	510.853E-3	-31.3927E-3
3.36918E-3	141.823E-12	535.063E-3	-4.03064E-3	143.516E-12	524.092E-3	-12.5351E-3
3.36418E-3	140.332E-12	522.518E-3	-13.6485E-3	144.041E-12	540.260E-3	4.66280E-3
3.35918E-3	138.982E-12	505.359E-3	-18.2999E-3	143.470E-12	539.175E-3	-8.03122E-3
3.35418E-3	137.594E-12	517.640E-3	-20.2514E-3	143.627E-12	530.578E-3	-36.0256E-3
3.34917E-3	137.045E-12	541.442E-3	-51.8089E-3	143.179E-12	535.044E-3	-32.4610E-3
3.34417E-3	137.256E-12	541.509E-3	-59.2951E-3	142.859E-12	548.841E-3	-764.649E-6
3.33917E-3	138.573E-12	536.352E-3	-16.4469E-3	142.522E-12	569.971E-3	12.4118E-3
3.33417E-3	139.445E-12	535.139E-3	527.405E-6	142.336E-12	568.257E-3	6.33760E-3
3.32916E-3	141.328E-12	534.425E-3	-12.6551E-3	142.082E-12	533.756E-3	9.98894E-3
3.32416E-3	142.686E-12	528.119E-3	-13.3683E-3	141.675E-12	499.601E-3	21.5818E-3
3.31916E-3	144.675E-12	510.674E-3	-21.3204E-3	141.122E-12	484.798E-3	10.9150E-3
3.31416E-3	146.030E-12	518.469E-3	-51.8809E-3	140.719E-12	498.068E-3	-26.9547E-3
3.30915E-3	147.394E-12	543.244E-3	-47.2831E-3	140.382E-12	530.186E-3	-39.2294E-3
3.30415E-3	147.286E-12	536.633E-3	-15.2824E-3	140.286E-12	550.132E-3	-18.3630E-3
3.29915E-3	147.432E-12	522.675E-3	-29.6708E-3	140.501E-12	541.922E-3	-5.71257E-3
3.29415E-3	147.471E-12	529.561E-3	-50.0438E-3	140.172E-12	533.236E-3	-7.90196E-3
3.28914E-3	146.098E-12	531.042E-3	-42.1578E-3	140.406E-12	532.567E-3	-27.3501E-3
3.28414E-3	143.615E-12	535.786E-3	-37.4070E-3	139.739E-12	538.566E-3	-46.9150E-3
3.27914E-3	141.795E-12	554.344E-3	-20.8363E-3	139.143E-12	549.603E-3	-44.3549E-3
3.27414E-3	139.977E-12	548.748E-3	-6.66513E-3	139.446E-12	541.272E-3	-18.4448E-3
3.26913E-3	137.804E-12	526.047E-3	-26.3673E-3	139.054E-12	522.453E-3	-1.14570E-3
3.26413E-3	135.666E-12	516.561E-3	-41.1992E-3	138.669E-12	517.026E-3	-12.1218E-3
3.25913E-3	134.024E-12	507.670E-3	-28.3217E-3	137.851E-12	514.489E-3	-10.5094E-3
3.25413E-3	133.348E-12	514.288E-3	-13.3280E-3	137.674E-12	525.959E-3	3.55514E-3
3.24912E-3	132.806E-12	540.084E-3	574.166E-6	137.492E-12	547.717E-3	9.02761E-3
3.24412E-3	133.030E-12	541.304E-3	14.2080E-3	137.065E-12	541.105E-3	-10.2410E-3
3.23912E-3	133.298E-12	525.187E-3	6.92103E-3	137.021E-12	524.147E-3	-36.1402E-3
3.23412E-3	134.607E-12	516.496E-3	-10.7997E-3	136.535E-12	528.058E-3	-22.7150E-3
3.22911E-3	135.554E-12	511.562E-3	-17.5170E-3	137.085E-12	539.235E-3	-6.17867E-3
3.22411E-3	137.012E-12	504.830E-3	-22.2352E-3	137.227E-12	539.043E-3	-5.78020E-3
3.21911E-3	139.011E-12	502.994E-3	-36.6388E-3	137.420E-12	540.858E-3	-10.3520E-3
3.21411E-3	139.676E-12	508.605E-3	-49.0586E-3	137.773E-12	550.550E-3	-17.4222E-3
3.20910E-3	140.291E-12	529.310E-3	-40.7989E-3	138.285E-12	561.850E-3	-25.8187E-3
3.20410E-3	140.415E-12	560.380E-3	-23.2444E-3	137.431E-12	557.318E-3	-35.1053E-3
3.19910E-3	141.384E-12	555.452E-3	-7.58388E-3	137.341E-12	538.409E-3	-35.3705E-3
3.19410E-3	140.427E-12	540.287E-3	-2.88366E-3	137.356E-12	532.078E-3	-32.7288E-3
3.18909E-3	139.708E-12	554.086E-3	-845.877E-6	137.259E-12	536.387E-3	-14.0113E-3
3.18409E-3	138.684E-12	562.008E-3	6.02229E-3	136.653E-12	542.194E-3	11.0240E-3
3.17909E-3	137.525E-12	550.717E-3	-7.35580E-3	136.132E-12	543.090E-3	13.4816E-3
3.17409E-3	136.288E-12	537.090E-3	-28.5313E-3	135.127E-12	541.260E-3	-2.66500E-3
3.16908E-3	134.716E-12	523.618E-3	-28.2494E-3	134.745E-12	543.912E-3	-20.1606E-3
3.16408E-3	134.158E-12	516.255E-3	-21.4557E-3	134.624E-12	533.630E-3	-36.4122E-3
3.15908E-3	132.389E-12	534.395E-3	-25.0203E-3	134.472E-12	511.203E-3	-36.6035E-3
3.15408E-3	131.850E-12	542.822E-3	-11.5637E-3	133.550E-12	517.663E-3	-15.9369E-3
3.14907E-3	131.503E-12	530.725E-3	-1.68989E-3	133.881E-12	542.093E-3	-7.40598E-3
3.14407E-3	131.918E-12	531.729E-3	-21.0656E-3	134.604E-12	533.853E-3	-11.4741E-3
3.13907E-3	131.517E-12	519.659E-3	-30.0797E-3	135.216E-12	527.046E-3	-22.8099E-3
3.13407E-3	131.976E-12	504.721E-3	-40.7844E-3	135.334E-12	548.842E-3	-47.4652E-3
3.12906E-3	132.951E-12	521.848E-3	-57.3584E-3	135.984E-12	555.206E-3	-55.0537E-3
3.12406E-3	133.556E-12	529.880E-3	-39.4595E-3	136.862E-12	549.876E-3	-43.7528E-3
3.11906E-3	134.667E-12	530.443E-3	-28.5509E-3	137.430E-12	561.030E-3	-32.1977E-3
3.11406E-3	135.294E-12	539.068E-3	-57.4587E-3	137.243E-12	559.861E-3	-7.53305E-3
3.10905E-3	136.221E-12	542.418E-3	-68.2296E-3	136.097E-12	539.528E-3	6.11683E-3
3.10405E-3	135.838E-12	544.337E-3	-44.0017E-3	136.001E-12	529.244E-3	-17.1917E-3
3.09905E-3	136.572E-12	550.484E-3	-17.9100E-3	134.387E-12	525.909E-3	-41.9381E-3
3.09405E-3	136.821E-12	555.699E-3	3.59310E-3	133.377E-12	527.856E-3	-39.9002E-3
3.08904E-3	136.430E-12	549.853E-3	18.9341E-3	131.844E-12	531.921E-3	-36.4006E-3
3.08404E-3	136.267E-12	555.466E-3	33.3057E-3	131.013E-12	534.298E-3	-35.4514E-3
3.07904E-3	135.254E-12	565.977E-3	38.2607E-3	130.219E-12	542.398E-3	-31.2352E-3
3.07404E-3	135.345E-12	542.042E-3	20.5756E-3	129.419E-12	541.837E-3	-27.3780E-3
3.06903E-3	134.674E-12	524.899E-3	7.46211E-3	129.324E-12	524.956E-3	-17.9012E-3
3.06403E-3	134.311E-12	559.448E-3	12.8728E-3	129.084E-12	519.762E-3	-11.0855E-3
3.05903E-3	133.313E-12	572.153E-3	-2.46993E-3	129.419E-12	538.088E-3	-6.08026E-3
3.05403E-3	132.970E-12	557.266E-3	-34.2542E-3	129.697E-12	556.879E-3	-10.9286E-3
3.04902E-3	132.233E-12	552.714E-3	-40.9102E-3	130.665E-12	565.733E-3	-10.4293E-3
3.04402E-3	130.896E-12	532.295E-3	-31.7238E-3	131.454E-12	563.946E-3	11.0612E-3
3.03902E-3	130.343E-12	533.043E-3	-10.4108E-3	132.427E-12	552.470E-3	11.7336E-3
3.03402E-3	129.458E-12	550.379E-3	22.1713E-3	132.937E-12	537.897E-3	-11.6871E-3
3.02901E-3	129.256E-12	544.344E-3	29.8738E-3	133.993E-12	521.986E-3	-38.3941E-3
3.02401E-3	128.604E-12	544.717E-3	-4.81128E-3	133.766E-12	531.269E-3	-52.2223E-3
3.01901E-3	128.350E-12	548.534E-3	-40.3701E-3	133.816E-12	556.159E-3	-27.6737E-3
3.01401E-3	128.298E-12	537.913E-3	-35.2461E-3	133.194E-12	554.926E-3	-6.42381E-3
3.00900E-3	128.834E-12	521.928E-3	-11.5790E-3	132.364E-12	535.618E-3	-10.3173E-3
3.00400E-3	129.473E-12	522.971E-3	-4.57302E-3	131.225E-12	532.207E-3	-4.66853E-3
2.99900E-3	129.983E-12	541.927E-3	-13.8151E-3	129.920E-12	550.543E-3	16.6206E-3
2.99400E-3	130.353E-12	530.479E-3	-31.4069E-3	128.611E-12	560.179E-3	29.1542E-3
2.98899E-3	130.983E-12	519.270E-3	-31.0889E-3	127.392E-12	552.728E-3	16.0800E-3
2.98399E-3	131.743E-12	539.085E-3	-19.6684E-3	127.157E-12	530.350E-3	-11.1275E-3
2.97899E-3	131.818E-12	549.095E-3	-34.3863E-3	126.712E-12	512.685E-3	-32.7719E-3
2.97399E-3	131.439E-12	551.980E-3	-39.6727E-3	126.217E-12	518.090E-3	-52.8984E-3
2.96898E-3	131.736E-12	537.782E-3	-4.51467E-3	126.026E-12	536.118E-3	-61.5500E-3
2.96398E-3	131.057E-12	527.783E-3	16.3002E-3	126.577E-12	556.113E-3	-39.0843E-3
2.95898E-3	129.892E-12	548.068E-3	7.18678E-3	127.487E-12	579.281E-3	-17.4381E-3
2.95398E-3	128.660E-12	555.601E-3	-3.55677E-3	127.986E-12	584.611E-3	-19.7067E-3
2.94897E-3	127.246E-12	547.972E-3	-17.0654E-3	128.684E-12	577.665E-3	-28.1763E-3
2.94397E-3	126.166E-12	541.614E-3	-21.6152E-3	129.313E-12	589.683E-3	-6.31896E-3
2.93897E-3	124.032E-12	537.389E-3	-18.1561E-3	130.162E-12	596.683E-3	22.7423E-3
2.93397E-3	123.829E-12	545.161E-3	-12.2996E-3	130.838E-12	594.059E-3	7.43109E-3
2.92896E-3	122.714E-12	553.490E-3	4.55862E-3	130.353E-12	589.593E-3	-22.5842E-3
2.92396E-3	122.774E-12	537.968E-3	7.19532E-3	130.483E-12	587.064E-3	-30.0375E-3
2.91896E-3	123.221E-12	520.716E-3	-3.56439E-3	129.976E-12	582.350E-3	-27.8942E-3
2.91396E-3	123.821E-12	518.996E-3	-5.94766E-3	129.094E-12	575.073E-3	-27.9092E-3
2.90895E-3	124.354E-12	513.277E-3	-14.9756E-3	128.158E-12	570.948E-3	-27.7230E-3
2.90395E-3	124.819E-12	511.134E-3	-20.4461E-3	127.100E-12	549.231E-3	-24.0173E-3
2.89895E-3	125.981E-12	522.831E-3	-21.5295E-3	125.502E-12	529.376E-3	-19.4236E-3
2.89395E-3	126.610E-12	525.519E-3	-39.4859E-3	125.145E-12	532.533E-3	-18.6593E-3
2.88894E-3	127.621E-12	535.215E-3	-57.6773E-3	124.838E-12	554.969E-3	-14.7281E-3
2.88394E-3	128.175E-12	557.192E-3	-35.9361E-3	124.013E-12	575.489E-3	-6.86442E-3
2.87894E-3	128.882E-12	542.591E-3	-6.31719E-3	123.529E-12	558.208E-3	-20.0418E-3
2.87394E-3	128.892E-12	523.390E-3	-15.7192E-3	123.660E-12	519.804E-3	-34.6267E-3
2.86893E-3	129.184E-12	551.029E-3	-22.4514E-3	123.816E-12	517.336E-3	-23.2932E-3
2.86393E-3	128.642E-12	564.535E-3	-14.0502E-3	123.854E-12	547.120E-3	-16.8390E-3
2.85893E-3	127.527E-12	548.149E-3	-10.5805E-3	123.150E-12	540.688E-3	-13.6044E-3
2.85393E-3	126.606E-12	558.159E-3	-161.316E-6	123.381E-12	518.065E-3	630.458E-6
2.84892E-3	124.656E-12	563.267E-3	7.87341E-3	124.034E-12	530.043E-3	-699.200E-6
2.84392E-3	123.697E-12	548.677E-3	3.15104E-3	123.816E-12	550.237E-3	-9.84641E-3
2.83892E-3	121.968E-12	552.160E-3	-2.84157E-3	123.291E-12	561.185E-3	-8.59131E-3
2.83392E-3	121.634E-12	555.517E-3	1.56695E-3	123.460E-12	569.816E-3	-7.16049E-3
2.82891E-3	120.507E-12	536.141E-3	10.0307E-3	123.505E-12	566.013E-3	-8.85677E-3
2.82391E-3	120.568E-12	524.394E-3	1.00180E-3	123.706E-12	552.266E-3	-18.6371E-3
2.81891E-3	120.481E-12	529.843E-3	-18.4489E-3	123.743E-12	549.134E-3	-34.9415E-3
2.81391E-3	121.103E-12	533.205E-3	-34.5119E-3	123.775E-12	559.170E-3	-44.3820E-3
2.80890E-3	121.569E-12	536.513E-3	-32.3664E-3	122.821E-12	569.527E-3	-33.6705E-3
2.80390E-3	122.589E-12	531.377E-3	-11.7369E-3	123.142E-12	580.892E-3	-20.8990E-3
2.79890E-3	123.542E-12	511.625E-3	-27.3319E-3	122.630E-12	581.860E-3	-34.0738E-3
2.79390E-3	124.697E-12	519.344E-3	-63.8122E-3	122.337E-12	562.509E-3	-55.7208E-3
2.78889E-3	125.565E-12	542.290E-3	-60.4760E-3	121.559E-12	553.482E-3	-63.0044E-3
2.78389E-3	126.202E-12	546.627E-3	-50.0321E-3	121.686E-12	559.957E-3	-52.0971E-3
2.77889E-3	126.701E-12	571.365E-3	-42.7290E-3	121.946E-12	553.651E-3	-27.1480E-3
2.77389E-3	126.291E-12	592.664E-3	-4.71874E-3	121.636E-12	536.488E-3	-15.1943E-3
2.76888E-3	125.738E-12	584.726E-3	12.6393E-3	121.272E-12	528.538E-3	-34.8693E-3
2.76388E-3	124.956E-12	589.800E-3	-10.2693E-3	121.133E-12	529.289E-3	-52.6685E-3
2.75888E-3	123.745E-12	593.981E-3	-6.76372E-3	121.181E-12	532.427E-3	-46.5604E-3
2.75388E-3	122.394E-12	584.086E-3	15.7443E-3	120.168E-12	532.364E-3	-37.2119E-3
2.74887E-3	120.700E-12	586.877E-3	11.9759E-3	119.413E-12	531.077E-3	-24.6747E-3
2.74387E-3	119.418E-12	580.262E-3	-8.36172E-3	118.535E-12	531.910E-3	-14.2864E-3
2.73887E-3	117.928E-12	550.751E-3	-21.6894E-3	118.304E-12	536.818E-3	-30.5916E-3
2.73387E-3	117.498E-12	527.167E-3	-26.5491E-3	118.307E-12	536.045E-3	-46.0269E-3
2.72886E-3	117.277E-12	520.171E-3	-31.1918E-3	118.653E-12	527.010E-3	-25.7615E-3
2.72386E-3	117.042E-12	533.697E-3	-32.9584E-3	118.731E-12	538.453E-3	-12.1612E-3
2.71886E-3	116.410E-12	551.780E-3	-32.1566E-3	119.614E-12	553.645E-3	-32.2354E-3
2.71386E-3	117.350E-12	555.848E-3	-14.0583E-3	120.281E-12	546.133E-3	-40.0789E-3
2.70885E-3	117.530E-12	551.567E-3	20.1727E-3	121.059E-12	553.578E-3	-36.5077E-3
2.70385E-3	118.386E-12	542.343E-3	19.2469E-3	121.603E-12	578.301E-3	-44.4295E-3
2.69885E-3	118.717E-12	535.754E-3	12.6691E-3	121.594E-12	583.903E-3	-47.3206E-3
2.69385E-3	119.975E-12	536.217E-3	23.7793E-3	121.883E-12	584.757E-3	-47.3896E-3
2.68884E-3	120.517E-12	545.652E-3	6.09211E-3	121.605E-12	575.640E-3	-40.2102E-3
2.68384E-3	120.591E-12	562.392E-3	-22.7473E-3	121.394E-12	560.695E-3	-19.9549E-3
2.67884E-3	121.006E-12	565.417E-3	-32.9024E-3	120.009E-12	553.894E-3	342.590E-6
2.67384E-3	120.618E-12	566.147E-3	-24.0869E-3	118.919E-12	528.576E-3	9.06052E-3
2.66883E-3	120.872E-12	581.088E-3	-3.92541E-3	117.355E-12	504.896E-3	10.0244E-3
2.66383E-3	120.364E-12	581.043E-3	-4.98995E-3	116.186E-12	504.639E-3	13.7206E-3
2.65883E-3	119.820E-12	569.987E-3	-39.4244E-3	114.664E-12	512.356E-3	6.42631E-3
2.65383E-3	118.433E-12	569.071E-3	-57.2109E-3	113.530E-12	523.679E-3	-2.89804E-3
2.64882E-3	118.374E-12	568.336E-3	-35.3851E-3	112.995E-12	538.459E-3	6.73315E-3
2.64382E-3	118.091E-12	564.802E-3	-21.3730E-3	112.651E-12	537.978E-3	5.25208E-3
2.63882E-3	117.207E-12	554.278E-3	-27.0141E-3	112.637E-12	527.158E-3	-6.66637E-3
2.63382E-3	115.690E-12	542.291E-3	-29.4436E-3	113.028E-12	532.643E-3	-6.87020E-3
2.62881E-3	115.104E-12	545.088E-3	-36.9194E-3	113.933E-12	534.378E-3	-5.60337E-3
2.62381E-3	115.094E-12	558.657E-3	-57.9529E-3	114.583E-12	528.582E-3	588.004E-6
2.61881E-3	114.909E-12	561.673E-3	-54.1160E-3	115.566E-12	546.871E-3	-2.63630E-3
2.61381E-3	114.546E-12	534.995E-3	-24.3502E-3	116.652E-12	575.233E-3	-26.4369E-3
2.60880E-3	114.175E-12	501.111E-3	-18.0930E-3	117.823E-12	571.938E-3	-36.2562E-3
2.60380E-3	114.506E-12	494.049E-3	-17.8858E-3	118.351E-12	558.989E-3	-40.8966E-3
2.59880E-3	115.008E-12	505.764E-3	-8.68996E-3	118.879E-12	573.125E-3	-45.0303E-3
2.59380E-3	114.999E-12	523.887E-3	-4.92528E-3	119.011E-12	580.791E-3	-26.3092E-3
2.58879E-3	114.729E-12	542.422E-3	-5.81937E-3	118.352E-12	567.609E-3	-5.98040E-3
2.58379E-3	114.687E-12	543.810E-3	-11.8038E-3	117.702E-12	544.081E-3	-1.20445E-3
2.57879E-3	115.213E-12	531.016E-3	-11.9138E-3	116.780E-12	517.918E-3	-8.78854E-3
2.57379E-3	115.365E-12	525.531E-3	1.06049E-3	115.390E-12	514.417E-3	-18.2982E-3
2.56878E-3	115.529E-12	532.509E-3	-2.99098E-3	113.823E-12	522.451E-3	-17.1322E-3
2.56378E-3	114.979E-12	541.364E-3	-18.2879E-3	112.554E-12	535.274E-3	-11.3730E-3
2.55878E-3	114.732E-12	542.633E-3	-19.5186E-3	111.271E-12	566.491E-3	-10.0048E-3
2.55378E-3	115.032E-12	541.751E-3	-44.5724E-3	110.204E-12	577.409E-3	-19.0127E-3
2.54877E-3	114.593E-12	541.561E-3	-66.2124E-3	109.598E-12	541.076E-3	-26.4036E-3
2.54377E-3	113.435E-12	533.110E-3	-45.6974E-3	109.315E-12	502.365E-3	-18.2451E-3
2.53877E-3	112.846E-12	528.893E-3	-28.6382E-3	109.843E-12	504.481E-3	-17.8111E-3
2.53377E-3	112.338E-12	542.608E-3	-13.8974E-3	110.133E-12	530.398E-3	-25.0672E-3
2.52876E-3	111.938E-12	542.679E-3	3.37933E-3	110.674E-12	545.677E-3	-26.5058E-3
2.52376E-3	110.881E-12	524.792E-3	-9.23321E-3	111.685E-12	542.828E-3	-24.0291E-3
2.51876E-3	110.282E-12	524.299E-3	-31.8990E-3	112.597E-12	548.775E-3	-23.5626E-3
2.51376E-3	109.743E-12	538.154E-3	-20.2429E-3	113.416E-12	567.644E-3	-31.1798E-3
2.50875E-3	109.788E-12	546.231E-3	-2.10331E-3	114.167E-12	570.896E-3	-26.6807E-3
2.50375E-3	109.086E-12	549.417E-3	-7.93351E-3	114.745E-12	554.303E-3	-2.13054E-3
2.49875E-3	108.961E-12	542.383E-3	-2.23233E-3	114.557E-12	544.246E-3	13.2831E-3
2.49375E-3	109.288E-12	521.359E-3	7.81356E-3	114.603E-12	542.500E-3	395.717E-6
2.48874E-3	109.388E-12	520.463E-3	-6.35917E-3	114.606E-12	534.075E-3	-11.9737E-3
2.48374E-3	109.969E-12	542.071E-3	-18.6205E-3	113.652E-12	543.647E-3	-10.3602E-3
2.47874E-3	110.380E-12	561.432E-3	-13.0816E-3	112.902E-12	561.283E-3	-16.0685E-3
2.47374E-3	110.890E-12	573.795E-3	-11.1161E-3	111.690E-12	555.751E-3	-6.72883E-3
2.46873E-3	111.529E-12	573.950E-3	-10.7958E-3	111.163E-12	538.407E-3	13.4823E-3
2.46373E-3	112.063E-12	569.607E-3	336.260E-6	110.093E-12	532.403E-3	4.70194E-3
2.45873E-3	112.309E-12	561.139E-3	8.68682E-3	108.638E-12	538.474E-3	-12.1099E-3
2.45373E-3	112.082E-12	549.818E-3	11.3331E-3	107.745E-12	554.799E-3	-18.6982E-3
2.44872E-3	112.395E-12	534.308E-3	14.9433E-3	107.386E-12	567.555E-3	-33.4420E-3
2.44372E-3	111.891E-12	529.219E-3	15.7400E-3	107.095E-12	556.253E-3	-47.6008E-3
2.43872E-3	111.720E-12	553.861E-3	8.81711E-3	106.422E-12	552.368E-3	-42.3457E-3
2.43372E-3	110.730E-12	569.697E-3	1.65128E-3	107.041E-12	553.088E-3	-48.1110E-3
2.42871E-3	109.451E-12	556.452E-3	-9.77437E-3	106.908E-12	543.254E-3	-48.4787E-3
2.42371E-3	108.538E-12	543.783E-3	-15.9896E-3	107.359E-12	545.107E-3	-14.8239E-3
2.41871E-3	107.352E-12	535.411E-3	10.8250E-3	107.849E-12	548.445E-3	6.00299E-3
2.41371E-3	106.139E-12	522.944E-3	33.6343E-3	107.735E-12	547.900E-3	-3.13579E-3
2.40870E-3	105.168E-12	514.468E-3	12.3035E-3	107.764E-12	562.294E-3	-24.0300E-3
2.40370E-3	104.924E-12	511.175E-3	-21.0290E-3	108.370E-12	573.337E-3	-30.0817E-3
2.39870E-3	104.572E-12	511.412E-3	-36.0612E-3	108.989E-12	568.660E-3	-9.20978E-3
2.39370E-3	104.298E-12	501.165E-3	-25.5648E-3	108.585E-12	578.376E-3	6.16309E-3
2.38869E-3	104.721E-12	488.992E-3	-3.36580E-3	108.846E-12	579.966E-3	-11.1346E-3
2.38369E-3	105.296E-12	496.067E-3	-11.1577E-3	109.066E-12	546.524E-3	-46.8696E-3
2.37869E-3	105.841E-12	502.637E-3	-41.7763E-3	108.889E-12	533.485E-3	-59.7820E-3
2.37369E-3	106.701E-12	505.403E-3	-43.9251E-3	108.946E-12	555.270E-3	-43.6316E-3
2.36868E-3	107.712E-12	528.835E-3	-23.0873E-3	108.421E-12	556.011E-3	-15.5715E-3
2.36368E-3	108.157E-12	558.736E-3	-20.8476E-3	108.097E-12	524.941E-3	3.26473E-3
2.35868E-3	108.509E-12	551.059E-3	-39.9162E-3	107.850E-12	510.714E-3	-8.49642E-3
2.35368E-3	109.261E-12	527.092E-3	-45.6333E-3	107.416E-12	525.771E-3	-30.5558E-3
2.34867E-3	109.101E-12	525.955E-3	-31.7125E-3	106.344E-12	532.735E-3	-26.2231E-3
2.34367E-3	108.182E-12	539.659E-3	-24.1941E-3	105.482E-12	527.390E-3	-7.38198E-3
2.33867E-3	108.091E-12	544.881E-3	-33.8353E-3	105.025E-12	526.495E-3	-4.09565E-3
2.33367E-3	107.211E-12	537.563E-3	-40.5177E-3	104.313E-12	527.473E-3	6.25399E-3
2.32866E-3	106.126E-12	542.488E-3	-31.9689E-3	103.369E-12	546.332E-3	15.2720E-3
2.32366E-3	104.768E-12	548.093E-3	-16.2801E-3	102.470E-12	555.303E-3	-11.5177E-3
2.31866E-3	103.729E-12	541.325E-3	-5.37708E-3	102.345E-12	537.575E-3	-41.4392E-3
2.31366E-3	103.114E-12	538.323E-3	-6.44935E-3	102.041E-12	538.091E-3	-47.4565E-3
2.30865E-3	101.975E-12	538.189E-3	-10.9839E-3	102.453E-12	541.018E-3	-48.3728E-3
2.30365E-3	101.402E-12	538.739E-3	-5.80136E-3	102.412E-12	528.817E-3	-44.6729E-3
2.29865E-3	100.960E-12	527.010E-3	917.175E-6	103.120E-12	537.244E-3	-30.2131E-3
2.29365E-3	101.141E-12	511.480E-3	322.841E-6	103.793E-12	551.006E-3	-30.6905E-3
2.28864E-3	101.144E-12	517.064E-3	-2.25441E-3	104.903E-12	543.008E-3	-38.1855E-3
2.28364E-3	102.080E-12	514.793E-3	-6.53986E-3	105.328E-12	547.991E-3	-38.5328E-3
2.27864E-3	102.349E-12	509.676E-3	-11.4714E-3	105.220E-12	555.916E-3	-33.8582E-3
2.27364E-3	102.897E-12	515.786E-3	-16.7102E-3	105.686E-12	543.631E-3	-18.4224E-3
2.26863E-3	103.307E-12	515.751E-3	-22.2083E-3	105.753E-12	536.911E-3	946.176E-6
2.26363E-3	103.967E-12	532.053E-3	-23.2497E-3	105.495E-12	535.609E-3	28.8484E-3
2.25863E-3	104.171E-12	548.646E-3	-9.34997E-3	104.799E-12	528.030E-3	33.3296E-3
2.25363E-3	104.324E-12	540.952E-3	-2.37333E-3	104.353E-12	518.937E-3	3.58354E-3
2.24862E-3	104.444E-12	536.566E-3	-9.06587E-3	103.968E-12	505.831E-3	-16.5934E-3
2.24362E-3	104.431E-12	533.747E-3	-3.51441E-3	103.082E-12	505.043E-3	-24.2726E-3
2.23862E-3	104.535E-12	531.771E-3	8.72621E-3	101.700E-12	517.635E-3	-23.3136E-3
2.23362E-3	104.026E-12	553.985E-3	4.88531E-3	100.341E-12	517.541E-3	-8.57600E-3
2.22861E-3	103.337E-12	566.177E-3	-14.4203E-3	99.8295E-12	511.336E-3	-843.741E-6
2.22361E-3	102.261E-12	542.544E-3	-26.8760E-3	98.9346E-12	522.031E-3	-6.77715E-3
2.21861E-3	101.697E-12	524.357E-3	-28.6824E-3	98.0140E-12	527.222E-3	-16.7006E-3
2.21361E-3	100.435E-12	530.735E-3	-31.4440E-3	97.8105E-12	517.424E-3	-21.2705E-3
2.20860E-3	99.5297E-12	542.025E-3	-27.3238E-3	97.2855E-12	524.488E-3	-17.5462E-3
2.20360E-3	99.2276E-12	539.950E-3	-18.3061E-3	97.8205E-12	539.645E-3	-28.9669E-3
2.19860E-3	98.7514E-12	528.982E-3	-13.9061E-3	98.3295E-12	542.645E-3	-44.2266E-3
2.19360E-3	98.4263E-12	532.691E-3	-11.7000E-3	99.1144E-12	554.166E-3	-33.7135E-3
2.18859E-3	99.3034E-12	538.650E-3	-26.8351E-3	99.2645E-12	578.540E-3	-23.8822E-3
2.18359E-3	99.4172E-12	533.051E-3	-48.4458E-3	100.510E-12	581.576E-3	-26.1889E-3
2.17859E-3	99.1749E-12	533.730E-3	-34.3531E-3	101.066E-12	567.420E-3	-9.16623E-3
2.17359E-3	99.3659E-12	550.218E-3	-12.1190E-3	101.680E-12	554.117E-3	77.1662E-6
2.16858E-3	99.9013E-12	550.863E-3	-11.2502E-3	101.694E-12	554.508E-3	-14.1567E-3
2.16358E-3	100.081E-12	522.837E-3	-14.9722E-3	101.564E-12	563.029E-3	-18.2921E-3
2.15858E-3	99.7222E-12	517.258E-3	-26.3216E-3	101.389E-12	552.434E-3	-15.6295E-3
2.15358E-3	99.9563E-12	530.185E-3	-32.3236E-3	100.624E-12	534.656E-3	-15.6911E-3
2.14857E-3	100.333E-12	545.166E-3	-26.1570E-3	100.168E-12	526.299E-3	-11.5233E-3
2.14357E-3	100.376E-12	563.185E-3	-24.7779E-3	99.1328E-12	526.631E-3	-2.40109E-3
2.13857E-3	100.008E-12	555.195E-3	-15.2784E-3	97.8109E-12	529.862E-3	-2.60236E-3
2.13357E-3	99.9240E-12	541.931E-3	-9.97214E-3	96.5453E-12	529.483E-3	-14.4458E-3
2.12856E-3	99.9147E-12	545.054E-3	-24.3564E-3	95.6838E-12	518.663E-3	-26.0717E-3
2.12356E-3	99.6127E-12	545.489E-3	-28.6260E-3	94.8873E-12	508.150E-3	-39.4132E-3
2.11856E-3	98.8026E-12	530.119E-3	-15.3953E-3	94.3427E-12	522.741E-3	-55.5984E-3
2.11356E-3	98.5130E-12	529.613E-3	-10.6017E-3	94.0416E-12	534.685E-3	-56.3591E-3
2.10855E-3	97.6577E-12	539.922E-3	-17.7237E-3	94.4008E-12	516.913E-3	-41.0938E-3
2.10355E-3	97.2896E-12	525.696E-3	-16.0240E-3	94.3361E-12	504.111E-3	-24.2740E-3
2.09855E-3	96.7935E-12	516.610E-3	-14.7117E-3	95.3170E-12	514.133E-3	-16.3959E-3
2.09355E-3	96.2293E-12	529.335E-3	-25.2260E-3	95.5181E-12	528.688E-3	-17.2712E-3
2.08854E-3	95.7570E-12	530.580E-3	-29.6975E-3	96.6375E-12	535.226E-3	-15.2223E-3
2.08354E-3	95.3621E-12	512.443E-3	-17.9562E-3	97.1608E-12	540.922E-3	-17.8392E-3
2.07854E-3	95.5115E-12	497.788E-3	-8.67288E-3	97.9787E-12	554.395E-3	-21.3141E-3
2.07354E-3	95.3401E-12	500.608E-3	-10.1099E-3	98.1236E-12	558.679E-3	-14.3538E-3
2.06853E-3	95.1275E-12	524.422E-3	-7.89141E-3	98.5353E-12	544.474E-3	-10.1222E-3
2.06353E-3	95.1354E-12	539.536E-3	-177.316E-6	98.4398E-12	535.840E-3	-21.1003E-3
2.05853E-3	95.3986E-12	527.506E-3	1.01164E-3	98.4199E-12	535.036E-3	-28.2705E-3
2.05353E-3	95.6209E-12	509.664E-3	-7.01880E-3	98.0077E-12	533.741E-3	-22.3965E-3
2.04852E-3	96.0169E-12	512.101E-3	-17.0993E-3	96.7877E-12	530.666E-3	-17.4338E-3
2.04352E-3	96.0366E-12	528.464E-3	-15.2253E-3	96.1095E-12	516.681E-3	-16.0700E-3
2.03852E-3	96.1808E-12	539.842E-3	-7.42079E-3	95.3057E-12	495.248E-3	-16.4405E-3
2.03352E-3	96.2895E-12	545.877E-3	-13.9532E-3	94.9802E-12	494.756E-3	-14.0361E-3
2.02851E-3	96.2043E-12	529.920E-3	-15.5689E-3	93.6938E-12	510.787E-3	-11.8887E-3
2.02351E-3	96.2466E-12	498.166E-3	-1.85413E-3	93.1845E-12	505.275E-3	-20.4722E-3
2.01851E-3	96.0463E-12	490.346E-3	-1.61183E-3	92.6768E-12	497.373E-3	-24.6343E-3
2.01351E-3	95.4207E-12	495.094E-3	-16.0885E-3	92.5120E-12	496.077E-3	-20.7257E-3
2.00850E-3	95.3199E-12	490.797E-3	-28.0019E-3	92.5626E-12	494.121E-3	-11.7636E-3
2.00350E-3	94.4652E-12	506.867E-3	-28.9307E-3	92.2819E-12	509.186E-3	-5.17528E-3
1.99850E-3	93.5277E-12	528.966E-3	-22.0544E-3	92.7872E-12	524.676E-3	-21.6813E-3
1.99350E-3	93.1566E-12	547.129E-3	-22.1651E-3	93.3196E-12	528.494E-3	-43.1886E-3
1.98849E-3	92.4348E-12	564.079E-3	-27.9488E-3	93.4127E-12	535.566E-3	-33.4056E-3
1.98349E-3	91.6618E-12	536.621E-3	-29.3187E-3	93.2700E-12	536.481E-3	-14.0939E-3
1.97849E-3	90.9543E-12	497.054E-3	-23.1097E-3	93.9153E-12	521.154E-3	-16.4953E-3
1.97349E-3	90.7108E-12	500.858E-3	-22.3140E-3	94.3218E-12	517.047E-3	-9.94041E-3
1.96848E-3	90.6869E-12	504.791E-3	-11.0699E-3	94.1110E-12	527.763E-3	7.95406E-3
1.96348E-3	90.3197E-12	478.649E-3	724.827E-6	94.3925E-12	528.373E-3	-9.27753E-3
1.95848E-3	90.6884E-12	469.552E-3	-11.7651E-3	94.6374E-12	531.022E-3	-25.3110E-3
1.95348E-3	90.7727E-12	491.269E-3	-2.62122E-3	94.4881E-12	533.395E-3	-11.3831E-3
1.94847E-3	91.0753E-12	510.116E-3	-562.361E-6	94.3706E-12	533.080E-3	-12.1412E-3
1.94347E-3	91.1205E-12	519.850E-3	-31.0475E-3	94.0113E-12	543.833E-3	-19.8638E-3
1.93847E-3	91.8482E-12	515.137E-3	-39.3942E-3	93.4241E-12	545.094E-3	-6.53830E-3
1.93347E-3	92.0434E-12	491.745E-3	-29.3663E-3	92.9479E-12	530.641E-3	-5.84578E-3
1.92846E-3	92.0061E-12	484.377E-3	-23.9071E-3	92.1301E-12	525.122E-3	-15.1282E-3
1.92346E-3	92.0863E-12	499.649E-3	-17.8541E-3	91.1951E-12	522.689E-3	1.69883E-3
1.91846E-3	92.0717E-12	519.269E-3	-6.32984E-3	90.6854E-12	505.326E-3	11.7887E-3
1.91346E-3	91.8132E-12	537.554E-3	-101.476E-6	90.2769E-12	489.981E-3	2.83156E-3
1.90845E-3	90.7011E-12	530.567E-3	-2.44822E-3	89.2342E-12	486.227E-3	2.68455E-3
1.90345E-3	90.8587E-12	506.840E-3	-5.59237E-3	89.0206E-12	490.104E-3	-2.32495E-3
1.89845E-3	90.1879E-12	506.992E-3	-9.42673E-3	88.5029E-12	490.475E-3	-15.6986E-3
1.89345E-3	89.7758E-12	516.910E-3	-13.7485E-3	88.6217E-12	480.352E-3	-13.9413E-3
1.88844E-3	88.5568E-12	506.946E-3	-19.3403E-3	87.9742E-12	480.949E-3	-3.72493E-3
1.88344E-3	87.8482E-12	498.969E-3	-27.7536E-3	87.5686E-12	493.874E-3	2.32132E-3
1.87844E-3	87.5994E-12	498.114E-3	-20.6358E-3	87.7046E-12	492.250E-3	-10.0750E-3
1.87344E-3	87.0954E-12	489.204E-3	-4.00807E-3	87.8040E-12	485.209E-3	-44.2770E-3
1.86843E-3	86.7475E-12	481.606E-3	-7.65149E-3	87.7996E-12	490.034E-3	-64.3307E-3
1.86343E-3	86.5954E-12	492.285E-3	-18.5413E-3	87.9351E-12	497.566E-3	-52.3453E-3
1.85843E-3	87.2180E-12	494.651E-3	-21.7429E-3	88.7015E-12	498.622E-3	-28.1492E-3
1.85343E-3	87.1768E-12	468.996E-3	-22.1737E-3	89.1715E-12	491.394E-3	-14.3168E-3
1.84842E-3	87.7599E-12	460.510E-3	-19.2073E-3	89.3115E-12	496.040E-3	-12.8535E-3
1.84342E-3	88.1984E-12	473.604E-3	-20.6271E-3	89.1507E-12	508.556E-3	-13.7995E-3
1.83842E-3	88.6826E-12	487.051E-3	-24.8276E-3	88.8145E-12	512.485E-3	-12.3096E-3
1.83342E-3	89.2269E-12	498.714E-3	-11.0385E-3	88.7595E-12	520.251E-3	-20.9417E-3
1.82841E-3	89.9401E-12	508.103E-3	-6.35508E-3	88.1831E-12	512.500E-3	-24.1564E-3
1.82341E-3	90.1374E-12	510.028E-3	-28.8782E-3	87.1172E-12	492.465E-3	-7.29363E-3
1.81841E-3	89.8864E-12	508.102E-3	-26.7223E-3	86.0239E-12	485.867E-3	307.120E-6
1.81341E-3	89.5899E-12	499.082E-3	-7.75695E-3	85.4311E-12	481.127E-3	2.46947E-3
1.80840E-3	89.2992E-12	494.793E-3	-3.45488E-3	84.4710E-12	487.005E-3	14.9104E-3
1.80340E-3	88.9226E-12	526.321E-3	-1.42451E-3	84.0572E-12	497.784E-3	13.0478E-3
1.79840E-3	87.9432E-12	545.794E-3	3.27409E-3	83.3896E-12	489.857E-3	-8.33931E-3
1.79340E-3	87.0616E-12	517.333E-3	7.42574E-3	83.0204E-12	483.253E-3	-24.0956E-3
1.78839E-3	86.8055E-12	493.336E-3	2.38907E-3	82.8604E-12	494.334E-3	-28.1492E-3
1.78339E-3	86.0727E-12	488.776E-3	-4.57459E-3	83.0696E-12	497.058E-3	-23.7393E-3
1.77839E-3	85.1045E-12	478.778E-3	-8.83905E-3	83.6036E-12	491.283E-3	-8.01284E-3
1.77339E-3	85.0700E-12	482.667E-3	-4.94285E-3	83.7049E-12	499.782E-3	4.26705E-3
1.76838E-3	84.8852E-12	506.844E-3	3.15465E-3	84.4855E-12	519.331E-3	-3.83880E-3
1.76338E-3	84.6476E-12	511.883E-3	-5.24156E-3	85.0222E-12	527.768E-3	-10.0644E-3
1.75838E-3	84.7216E-12	492.450E-3	-13.0827E-3	86.1520E-12	517.629E-3	-6.58367E-3
1.75338E-3	84.7873E-12	481.961E-3	-3.49262E-3	86.6871E-12	514.176E-3	-17.9955E-3
1.74837E-3	84.8570E-12	484.174E-3	165.048E-6	87.1653E-12	518.074E-3	-26.6498E-3
1.74337E-3	84.8971E-12	484.117E-3	-7.68209E-3	87.2667E-12	521.099E-3	-6.19059E-3
1.73837E-3	85.3730E-12	487.844E-3	-6.82974E-3	88.0620E-12	523.895E-3	-74.4629E-6
1.73337E-3	85.2628E-12	491.969E-3	-2.85863E-3	87.7758E-12	517.479E-3	-23.4376E-3
1.72836E-3	85.3424E-12	499.385E-3	-22.3229E-3	87.1292E-12	516.547E-3	-32.4245E-3
1.72336E-3	85.4087E-12	509.971E-3	-38.4454E-3	86.4906E-12	515.308E-3	-22.4215E-3
1.71836E-3	85.7382E-12	502.659E-3	-26.5633E-3	85.5350E-12	506.998E-3	-11.9444E-3
1.71336E-3	84.9304E-12	485.339E-3	-15.6038E-3	84.7965E-12	498.992E-3	-9.67943E-3
1.70835E-3	84.9069E-12	479.575E-3	-13.1873E-3	84.1310E-12	490.656E-3	-25.4759E-3
1.70335E-3	84.1197E-12	481.229E-3	-13.6424E-3	83.1868E-12	488.692E-3	-34.5910E-3
1.69835E-3	83.9069E-12	478.648E-3	-15.8547E-3	82.5234E-12	491.070E-3	-23.6560E-3
1.69335E-3	83.2623E-12	484.777E-3	-17.1690E-3	81.9850E-12	488.890E-3	-15.8667E-3
1.68834E-3	82.8199E-12	497.024E-3	-20.0549E-3	82.1936E-12	475.840E-3	-13.6178E-3
1.68334E-3	82.2157E-12	493.033E-3	-24.9195E-3	81.8588E-12	470.085E-3	-899.946E-6
1.67834E-3	81.9829E-12	485.665E-3	-15.9751E-3	81.8116E-12	474.287E-3	12.8441E-3
1.67334E-3	81.5731E-12	489.645E-3	-2.11637E-3	81.8365E-12	466.218E-3	10.2184E-3
1.66833E-3	81.0301E-12	490.116E-3	-6.59115E-3	82.7942E-12	461.734E-3	3.96289E-3
1.66333E-3	80.6695E-12	484.772E-3	-10.5866E-3	83.2263E-12	479.372E-3	5.67894E-3
1.65833E-3	80.4601E-12	478.117E-3	-7.41673E-3	83.5447E-12	499.337E-3	-2.71415E-3
1.65333E-3	80.3137E-12	474.368E-3	-15.5162E-3	84.0683E-12	503.833E-3	-15.5351E-3
1.64832E-3	80.4609E-12	486.578E-3	-25.6247E-3	84.3342E-12	502.905E-3	-17.5593E-3
1.64332E-3	80.7077E-12	492.339E-3	-17.6026E-3	84.6832E-12	504.021E-3	-15.1590E-3
1.63832E-3	80.4566E-12	468.692E-3	-7.05076E-3	84.7917E-12	498.763E-3	-8.28941E-3
1.63332E-3	80.1446E-12	453.138E-3	-8.48194E-3	83.8991E-12	492.857E-3	1.75517E-3
1.62831E-3	80.9046E-12	453.605E-3	-4.31419E-3	83.7416E-12	484.767E-3	-3.74250E-3
1.62331E-3	80.6279E-12	455.162E-3	-13.1476E-3	83.2009E-12	474.753E-3	-23.7152E-3
1.61831E-3	80.3032E-12	462.762E-3	-24.0969E-3	82.3239E-12	477.993E-3	-26.2271E-3
1.61331E-3	80.1850E-12	463.400E-3	-14.0636E-3	81.0989E-12	468.120E-3	-21.0998E-3
1.60830E-3	80.4452E-12	459.370E-3	-22.5879E-3	80.3000E-12	454.617E-3	-13.7153E-3
1.60330E-3	80.0435E-12	467.272E-3	-44.5659E-3	79.4487E-12	471.470E-3	-7.26516E-3
1.59830E-3	79.6798E-12	462.909E-3	-43.6315E-3	78.7551E-12	475.475E-3	-18.9407E-3
1.59330E-3	79.2068E-12	444.800E-3	-17.4787E-3	78.1650E-12	449.668E-3	-28.9719E-3
1.58829E-3	79.7149E-12	451.129E-3	6.04976E-3	77.3447E-12	434.376E-3	-32.5399E-3
1.58329E-3	79.6883E-12	448.690E-3	7.20196E-3	77.2996E-12	430.158E-3	-40.9374E-3
1.57829E-3	79.0568E-12	428.405E-3	-1.14746E-3	77.2817E-12	418.364E-3	-36.6989E-3
1.57329E-3	78.9379E-12	432.705E-3	-6.39882E-3	77.4827E-12	428.331E-3	-20.2068E-3
1.56828E-3	78.6087E-12	440.223E-3	-5.41023E-3	77.4272E-12	445.376E-3	-12.0241E-3
1.56328E-3	78.3830E-12	427.949E-3	-2.19408E-3	77.5818E-12	446.643E-3	-17.3269E-3
1.55828E-3	78.0878E-12	416.759E-3	-7.51420E-3	77.8472E-12	451.672E-3	-37.6188E-3
1.55328E-3	77.6736E-12	418.787E-3	-10.3222E-3	78.2163E-12	445.572E-3	-60.3143E-3
1.54827E-3	77.3436E-12	434.182E-3	-9.96115E-3	78.8056E-12	431.135E-3	-60.4418E-3
1.54327E-3	77.3328E-12	454.333E-3	-14.9294E-3	78.9173E-12	429.783E-3	-38.6469E-3
1.53827E-3	77.5439E-12	453.311E-3	-12.3159E-3	78.9772E-12	433.584E-3	-17.2594E-3
1.53327E-3	77.5085E-12	432.029E-3	-22.5547E-3	79.0559E-12	431.383E-3	-7.39260E-3
1.52826E-3	77.4534E-12	432.687E-3	-35.7195E-3	79.2438E-12	441.478E-3	-4.80272E-3
1.52326E-3	77.6018E-12	458.221E-3	-23.1093E-3	78.5766E-12	444.802E-3	-11.3585E-3
1.51826E-3	77.8134E-12	462.278E-3	-16.2727E-3	78.5257E-12	425.988E-3	-20.4638E-3
1.51326E-3	77.8168E-12	448.459E-3	-24.3821E-3	78.0337E-12	420.297E-3	-12.8071E-3
1.50825E-3	77.9580E-12	452.151E-3	-17.4927E-3	77.6561E-12	431.368E-3	-8.24806E-3
1.50325E-3	78.1689E-12	446.993E-3	-3.15703E-3	76.9088E-12	420.158E-3	-15.2713E-3
1.49825E-3	78.3365E-12	420.786E-3	-9.97324E-3	76.3197E-12	398.548E-3	-14.0204E-3
1.49325E-3	78.5980E-12	400.744E-3	-17.0754E-3	76.1009E-12	402.428E-3	-6.39505E-3
1.48824E-3	78.2276E-12	390.211E-3	-9.78302E-3	75.4370E-12	395.909E-3	-10.5059E-3
1.48324E-3	78.0101E-12	394.746E-3	-11.3463E-3	75.2106E-12	375.426E-3	-14.3818E-3
1.47824E-3	77.9418E-12	406.021E-3	-5.50300E-3	74.6924E-12	373.594E-3	-13.1910E-3
1.47324E-3	77.3475E-12	410.324E-3	10.8873E-3	74.5715E-12	380.290E-3	-18.3014E-3
1.46823E-3	77.0394E-12	417.162E-3	-1.40792E-3	74.5314E-12	397.076E-3	-14.6624E-3
1.46323E-3	76.4564E-12	427.925E-3	-19.9341E-3	74.8947E-12	421.611E-3	-3.87958E-3
1.45823E-3	75.5527E-12	423.466E-3	-8.87237E-3	74.8711E-12	409.996E-3	-87.9169E-6
1.45323E-3	75.2777E-12	409.592E-3	-1.45761E-3	75.0675E-12	373.773E-3	-5.36069E-3
1.44822E-3	75.3869E-12	413.305E-3	-14.1292E-3	75.4376E-12	360.347E-3	-21.1788E-3
1.44322E-3	74.8546E-12	418.294E-3	-30.2278E-3	75.6321E-12	369.659E-3	-35.4366E-3
1.43822E-3	74.2715E-12	406.963E-3	-47.7452E-3	76.0236E-12	384.510E-3	-16.9509E-3
1.43322E-3	74.3625E-12	391.119E-3	-39.1670E-3	76.4749E-12	387.781E-3	856.663E-6
1.42821E-3	74.5436E-12	373.616E-3	-11.4531E-3	76.5845E-12	379.538E-3	-12.7244E-3
1.42321E-3	74.7399E-12	361.866E-3	-14.1311E-3	77.0466E-12	378.505E-3	-21.1772E-3
1.41821E-3	74.9016E-12	376.178E-3	-30.1367E-3	77.1790E-12	385.764E-3	-12.1418E-3
1.41321E-3	74.9961E-12	387.539E-3	-29.8271E-3	76.8714E-12	389.996E-3	-7.11521E-3
1.40820E-3	75.1067E-12	376.579E-3	-21.0536E-3	76.8066E-12	395.257E-3	-10.9484E-3
1.40320E-3	75.4413E-12	378.539E-3	-6.73846E-3	76.7268E-12	388.745E-3	-13.4564E-3
1.39820E-3	75.5458E-12	377.796E-3	1.52714E-3	76.0998E-12	352.757E-3	-17.3004E-3
1.39320E-3	75.2461E-12	358.338E-3	-9.23136E-3	75.3763E-12	331.604E-3	-11.1617E-3
1.38819E-3	75.4662E-12	349.696E-3	-15.4458E-3	74.8301E-12	348.588E-3	-4.68199E-3
1.38319E-3	75.1816E-12	346.904E-3	-6.49769E-3	74.1565E-12	359.123E-3	-16.2004E-3
1.37819E-3	74.5256E-12	336.603E-3	-5.43022E-3	73.5644E-12	347.444E-3	-9.29313E-3
1.37319E-3	74.2855E-12	342.037E-3	-15.0980E-3	73.0530E-12	337.152E-3	15.8991E-3
1.36818E-3	73.8666E-12	344.431E-3	-12.9049E-3	73.0054E-12	317.717E-3	7.91366E-3
1.36318E-3	73.0333E-12	328.688E-3	-7.81106E-3	72.6367E-12	294.558E-3	-9.19000E-3
1.35818E-3	72.6669E-12	315.236E-3	-19.1137E-3	72.6363E-12	303.034E-3	-2.70474E-3
1.35318E-3	72.2077E-12	303.373E-3	-25.9330E-3	72.9597E-12	307.342E-3	-4.46781E-3
1.34817E-3	71.7295E-12	306.395E-3	-19.9018E-3	73.1340E-12	298.006E-3	-14.6140E-3
1.34317E-3	71.5587E-12	325.798E-3	-11.8988E-3	73.5254E-12	306.275E-3	-13.2352E-3
1.33817E-3	71.3274E-12	331.374E-3	-7.72727E-3	74.0049E-12	310.129E-3	-15.6742E-3
1.33317E-3	71.3856E-12	306.071E-3	-9.50811E-3	74.9313E-12	299.679E-3	-27.3492E-3
1.32816E-3	71.3634E-12	285.048E-3	-21.5531E-3	74.8866E-12	292.766E-3	-29.8864E-3
1.32316E-3	71.5749E-12	290.575E-3	-28.9960E-3	74.9693E-12	266.489E-3	-33.5992E-3
1.31816E-3	71.9433E-12	293.727E-3	-26.7573E-3	75.0312E-12	238.639E-3	-36.7882E-3
1.31316E-3	72.1770E-12	290.541E-3	-37.4617E-3	75.5411E-12	257.747E-3	-17.5311E-3
1.30815E-3	72.2450E-12	296.177E-3	-26.5188E-3	75.1228E-12	280.072E-3	-5.14388E-3
1.30315E-3	72.5675E-12	297.281E-3	-4.01878E-3	74.6928E-12	270.818E-3	-6.27722E-3
1.29815E-3	73.1404E-12	282.087E-3	-15.8937E-3	74.2253E-12	271.537E-3	18.6596E-6
1.29315E-3	72.7225E-12	270.415E-3	-24.9761E-3	73.5858E-12	287.601E-3	-5.92304E-3
1.28814E-3	72.2649E-12	264.226E-3	-20.1335E-3	72.9885E-12	277.199E-3	-21.8420E-3
1.28314E-3	72.3255E-12	268.177E-3	-25.6117E-3	72.0601E-12	254.530E-3	-12.1405E-3
1.27814E-3	72.0949E-12	266.698E-3	-25.6223E-3	71.4261E-12	247.368E-3	-711.269E-6
1.27314E-3	71.6973E-12	246.072E-3	-19.3802E-3	70.1215E-12	238.810E-3	-7.76260E-3
1.26813E-3	70.7938E-12	255.143E-3	-29.6841E-3	70.0723E-12	228.879E-3	-456.613E-6
1.26313E-3	70.5864E-12	279.457E-3	-30.3652E-3	69.4536E-12	218.877E-3	1.73492E-3
1.25813E-3	70.4188E-12	269.905E-3	-17.9264E-3	69.3130E-12	206.818E-3	-19.2634E-3
1.25313E-3	69.9613E-12	247.169E-3	-31.1173E-3	68.9069E-12	216.892E-3	-18.0480E-3
1.24812E-3	69.6951E-12	234.356E-3	-47.3990E-3	69.4722E-12	236.371E-3	-12.3235E-3
1.24312E-3	69.3443E-12	230.395E-3	-38.5738E-3	69.9201E-12	231.947E-3	-24.9679E-3
1.23812E-3	69.4941E-12	238.211E-3	-25.4922E-3	70.0367E-12	213.194E-3	-17.4895E-3
1.23312E-3	69.5036E-12	249.476E-3	-19.2117E-3	70.4418E-12	209.076E-3	-13.5937E-3
1.22811E-3	70.0461E-12	235.534E-3	-14.1779E-3	70.6069E-12	208.164E-3	-27.3114E-3
1.22311E-3	70.2880E-12	201.246E-3	-21.7326E-3	71.3610E-12	208.247E-3	-21.4507E-3
1.21811E-3	70.6698E-12	195.332E-3	-32.5807E-3	71.6469E-12	217.767E-3	-10.1498E-3
1.21311E-3	71.0927E-12	207.615E-3	-25.4812E-3	71.7890E-12	218.209E-3	-18.3099E-3
1.20810E-3	71.3837E-12	202.591E-3	-22.4535E-3	71.6323E-12	213.894E-3	-20.1522E-3
1.20310E-3	71.9782E-12	204.522E-3	-32.5654E-3	71.9019E-12	208.561E-3	-18.9394E-3
1.19810E-3	71.7781E-12	210.112E-3	-25.9640E-3	71.9685E-12	197.415E-3	-22.0546E-3
1.19310E-3	72.0353E-12	205.684E-3	-17.2914E-3	71.3747E-12	190.925E-3	-20.5596E-3
1.18809E-3	72.2572E-12	201.940E-3	-17.7361E-3	70.7835E-12	186.065E-3	-26.3533E-3
1.18309E-3	72.3062E-12	189.805E-3	-10.2242E-3	70.1388E-12	171.508E-3	-37.7214E-3
1.17809E-3	71.7389E-12	189.357E-3	-12.6609E-3	69.4821E-12	172.861E-3	-33.8022E-3
1.17309E-3	71.1663E-12	219.409E-3	-22.2893E-3	69.0893E-12	187.724E-3	-15.0453E-3
1.16808E-3	71.3965E-12	229.615E-3	-17.2082E-3	68.5246E-12	171.150E-3	-1.40593E-3
1.16308E-3	70.7268E-12	207.931E-3	-17.5654E-3	67.7969E-12	151.685E-3	4.19830E-3
1.15808E-3	70.1787E-12	203.034E-3	-32.3092E-3	67.6808E-12	169.721E-3	-1.91302E-3
1.15308E-3	69.5536E-12	208.143E-3	-31.1488E-3	67.8853E-12	187.191E-3	-15.6579E-3
1.14807E-3	69.9457E-12	194.004E-3	-23.1945E-3	68.4469E-12	182.409E-3	-22.4036E-3
1.14307E-3	69.7544E-12	179.792E-3	-21.7128E-3	68.5622E-12	177.357E-3	-27.0693E-3
1.13807E-3	69.8463E-12	175.497E-3	-11.4559E-3	69.1537E-12	172.903E-3	-33.7721E-3
1.13307E-3	69.7946E-12	162.193E-3	-14.1050E-3	69.4441E-12	158.889E-3	-28.3360E-3
1.12806E-3	69.7705E-12	161.806E-3	-31.6852E-3	70.1746E-12	146.924E-3	-8.34039E-3
1.12306E-3	69.7830E-12	182.664E-3	-23.2870E-3	70.4187E-12	146.923E-3	-6.62349E-3
1.11806E-3	69.8004E-12	188.036E-3	-18.4071E-3	70.6939E-12	152.330E-3	-15.9894E-3
1.11306E-3	69.7925E-12	183.757E-3	-38.4455E-3	70.7734E-12	163.915E-3	-5.63096E-3
1.10805E-3	69.5446E-12	185.107E-3	-27.7910E-3	71.2495E-12	173.983E-3	-8.29684E-3
1.10305E-3	69.7361E-12	179.397E-3	2.27284E-3	71.2696E-12	165.079E-3	-17.7373E-3
1.09805E-3	70.2981E-12	180.827E-3	276.681E-6	71.2124E-12	157.454E-3	-5.88544E-3
1.09305E-3	70.1698E-12	191.663E-3	-9.38441E-3	70.8786E-12	166.479E-3	-4.92380E-3
1.08804E-3	70.0526E-12	183.494E-3	8.07741E-3	70.4108E-12	170.847E-3	-11.1899E-3
1.08304E-3	70.1630E-12	172.654E-3	14.1040E-3	70.4655E-12	175.599E-3	-3.15319E-3
1.07804E-3	70.3967E-12	177.973E-3	-2.23127E-3	69.9915E-12	184.499E-3	-10.6908E-3
1.07304E-3	70.0077E-12	179.828E-3	-11.4833E-3	69.3561E-12	179.910E-3	-29.7289E-3
1.06803E-3	69.7348E-12	182.221E-3	-22.9844E-3	68.9847E-12	180.215E-3	-30.3252E-3
1.06303E-3	69.4609E-12	186.489E-3	-23.9053E-3	68.4710E-12	187.965E-3	-23.6725E-3
1.05803E-3	69.0548E-12	174.455E-3	-17.0776E-3	68.4589E-12	174.589E-3	-15.0585E-3
1.05303E-3	68.7916E-12	160.784E-3	-23.4666E-3	68.0559E-12	158.799E-3	-1.93290E-3
1.04802E-3	68.8723E-12	153.150E-3	-19.4723E-3	67.6545E-12	162.917E-3	-10.6170E-3
1.04302E-3	68.5886E-12	143.029E-3	-17.2574E-3	67.7560E-12	178.491E-3	-30.6447E-3
1.03802E-3	68.1911E-12	153.366E-3	-31.7319E-3	67.9810E-12	198.604E-3	-20.8301E-3
1.03302E-3	67.7152E-12	192.566E-3	-25.0063E-3	67.9834E-12	217.657E-3	-7.46436E-3
1.02801E-3	67.4484E-12	214.305E-3	-5.79542E-3	67.7623E-12	221.033E-3	-12.3882E-3
1.02301E-3	67.2276E-12	207.578E-3	-13.1812E-3	68.1374E-12	217.008E-3	-12.0275E-3
1.01801E-3	66.8743E-12	202.564E-3	-21.6991E-3	68.6230E-12	223.311E-3	-16.8254E-3
1.01301E-3	66.4613E-12	194.316E-3	-2.24684E-3	68.7794E-12	228.050E-3	-31.4594E-3
1.00800E-3	66.7358E-12	192.901E-3	1.54043E-3	68.9532E-12	235.399E-3	-16.7234E-3
1.00300E-3	66.9538E-12	209.646E-3	-11.0218E-3	68.8954E-12	247.934E-3	311.140E-6
997.999E-6	66.9534E-12	209.676E-3	-15.3648E-3	69.1854E-12	246.247E-3	-8.83124E-3
992.997E-6	66.8499E-12	203.023E-3	-26.0156E-3	69.3324E-12	249.858E-3	2.18287E-3
987.994E-6	67.5324E-12	227.250E-3	-34.4294E-3	69.0489E-12	273.453E-3	13.1274E-3
982.991E-6	67.8952E-12	251.502E-3	-24.9560E-3	68.7273E-12	274.534E-3	-10.2717E-3
977.989E-6	68.2036E-12	260.111E-3	-16.5041E-3	68.2348E-12	274.628E-3	-31.8270E-3
972.986E-6	68.0649E-12	272.316E-3	-24.9671E-3	68.2777E-12	301.848E-3	-39.8068E-3
967.984E-6	68.3551E-12	264.138E-3	-18.0639E-3	67.7408E-12	313.118E-3	-42.9862E-3
962.981E-6	68.6541E-12	242.714E-3	1.64992E-3	67.3576E-12	309.449E-3	-20.4948E-3
957.979E-6	68.8504E-12	257.223E-3	895.612E-6	66.7576E-12	315.806E-3	8.52007E-3
952.976E-6	68.8115E-12	283.974E-3	-14.4456E-3	66.2378E-12	323.352E-3	7.77179E-3
947.974E-6	68.1532E-12	289.747E-3	-30.4203E-3	66.2609E-12	341.262E-3	5.68002E-3
942.971E-6	67.8915E-12	288.232E-3	-33.6862E-3	65.9613E-12	365.652E-3	16.6112E-3
937.969E-6	67.4413E-12	289.544E-3	-18.0469E-3	65.7757E-12	370.267E-3	13.4417E-3
932.966E-6	67.0676E-12	306.866E-3	-10.5004E-3	65.7328E-12	375.161E-3	-589.303E-6
927.964E-6	66.0534E-12	332.114E-3	-19.8743E-3	65.7569E-12	395.277E-3	-7.31552E-3
922.961E-6	65.4118E-12	350.214E-3	-13.0393E-3	65.9721E-12	399.367E-3	-8.00733E-3
917.959E-6	64.9021E-12	346.609E-3	5.82347E-3	66.1262E-12	399.106E-3	-10.3951E-3
912.956E-6	64.6893E-12	339.684E-3	4.18293E-3	66.2031E-12	427.118E-3	-13.0008E-3
907.954E-6	64.4336E-12	357.388E-3	-5.85043E-3	66.5161E-12	460.543E-3	-19.9791E-3
902.951E-6	63.9371E-12	376.575E-3	-14.5327E-3	66.9142E-12	483.944E-3	-23.4964E-3
897.949E-6	64.5768E-12	408.636E-3	-28.5533E-3	66.9586E-12	505.840E-3	-23.6675E-3
892.946E-6	65.1830E-12	455.899E-3	-18.7073E-3	67.1934E-12	525.836E-3	-26.9426E-3
887.944E-6	65.2899E-12	466.269E-3	9.22585E-3	67.3261E-12	538.533E-3	-22.4070E-3
882.941E-6	65.3642E-12	467.531E-3	11.2040E-3	67.2229E-12	540.390E-3	-11.7348E-3
877.939E-6	66.1873E-12	488.005E-3	7.03644E-3	66.9866E-12	549.120E-3	-6.71700E-3
872.936E-6	66.7488E-12	493.586E-3	6.51182E-3	66.6101E-12	579.617E-3	-15.8247E-3
867.934E-6	66.7480E-12	506.807E-3	-5.21481E-3	66.0678E-12	613.053E-3	-26.7158E-3
862.931E-6	66.8102E-12	540.161E-3	-4.77188E-3	65.5033E-12	626.930E-3	-33.0214E-3
857.929E-6	66.4475E-12	564.515E-3	3.91541E-3	64.7118E-12	629.945E-3	-34.0378E-3
852.926E-6	66.3636E-12	588.817E-3	-14.4561E-6	63.9329E-12	649.860E-3	-33.1017E-3
847.924E-6	65.6621E-12	619.607E-3	-737.340E-6	63.1472E-12	682.806E-3	-35.7776E-3
842.921E-6	64.8460E-12	643.772E-3	-425.642E-6	62.6316E-12	702.608E-3	-16.2748E-3
837.919E-6	63.9154E-12	665.522E-3	-16.8324E-3	61.9966E-12	716.830E-3	-314.104E-6
832.916E-6	63.3460E-12	675.184E-3	-30.7864E-3	61.7589E-12	743.333E-3	-19.8715E-3
827.914E-6	62.5126E-12	667.693E-3	-27.0651E-3	61.4017E-12	764.911E-3	-13.7426E-3
822.911E-6	61.2560E-12	676.067E-3	-23.4826E-3	60.9796E-12	784.279E-3	13.2079E-3
817.909E-6	60.7742E-12	710.868E-3	-25.2964E-3	61.0804E-12	823.901E-3	1.89493E-3
812.906E-6	60.5619E-12	734.038E-3	-25.6037E-3	61.2817E-12	854.726E-3	-22.6734E-3
807.904E-6	60.4447E-12	743.172E-3	-24.9195E-3	61.3669E-12	879.364E-3	-16.5618E-3
802.901E-6	60.1924E-12	770.603E-3	-16.7303E-3	61.3407E-12	923.781E-3	-9.60136E-3
797.899E-6	60.0690E-12	796.527E-3	-15.4568E-3	61.6875E-12	955.313E-3	-23.8145E-3
792.896E-6	60.4331E-12	815.445E-3	-38.4001E-3	61.8971E-12	978.221E-3	-28.2215E-3
787.894E-6	60.6154E-12	847.032E-3	-50.1078E-3	62.2104E-12	1.01968E+0	-22.5589E-3
782.891E-6	60.9800E-12	886.792E-3	-36.4227E-3	61.9322E-12	1.04489E+0	-18.4049E-3
777.889E-6	60.7823E-12	920.225E-3	-28.8417E-3	61.4605E-12	1.05422E+0	-10.3968E-3
772.886E-6	60.8705E-12	954.864E-3	-17.1816E-3	61.0738E-12	1.07907E+0	-5.48846E-3
767.884E-6	60.4445E-12	992.933E-3	2.53226E-3	60.3994E-12	1.09942E+0	-6.44863E-3
762.881E-6	60.1746E-12	1.02286E+0	-7.53587E-3	59.6913E-12	1.11375E+0	3.91473E-3
757.879E-6	59.7378E-12	1.05762E+0	-34.4243E-3	58.7278E-12	1.14144E+0	-453.657E-6
752.876E-6	59.1083E-12	1.09175E+0	-32.5903E-3	57.7433E-12	1.16973E+0	-23.1398E-3
747.874E-6	58.1916E-12	1.12635E+0	-17.6247E-3	57.0994E-12	1.19239E+0	-20.2007E-3
742.871E-6	57.5611E-12	1.15448E+0	-21.0857E-3	56.2707E-12	1.23042E+0	-4.81161E-3
737.869E-6	57.0918E-12	1.16151E+0	-18.8461E-3	55.7309E-12	1.26485E+0	-5.41091E-3
732.866E-6	56.0642E-12	1.17281E+0	-1.76478E-3	55.1753E-12	1.27847E+0	-6.79334E-3
727.864E-6	55.1774E-12	1.20088E+0	5.23185E-3	54.8338E-12	1.30177E+0	-454.180E-6
722.861E-6	54.8612E-12	1.22544E+0	-738.656E-6	54.5714E-12	1.33260E+0	-4.90605E-3
717.859E-6	54.2831E-12	1.24074E+0	-18.6034E-3	54.2636E-12	1.36299E+0	-13.6366E-3
712.856E-6	53.8889E-12	1.26315E+0	-37.5473E-3	54.2579E-12	1.41599E+0	-21.0062E-3
707.854E-6	53.4284E-12	1.28819E+0	-28.2906E-3	53.9057E-12	1.46687E+0	-21.8390E-3
702.851E-6	53.3793E-12	1.31371E+0	-17.0254E-3	53.9597E-12	1.49372E+0	-624.399E-6
697.849E-6	52.9047E-12	1.35359E+0	-24.4571E-3	54.0590E-12	1.53394E+0	7.30117E-3
692.846E-6	53.0583E-12	1.38490E+0	-22.2004E-3	54.4986E-12	1.57398E+0	-12.4552E-3
687.844E-6	52.4564E-12	1.40216E+0	-17.3725E-3	53.9132E-12	1.60049E+0	-15.2132E-3
682.841E-6	52.0955E-12	1.44247E+0	-16.9898E-3	53.5181E-12	1.63632E+0	-3.99785E-3
677.839E-6	51.8526E-12	1.49149E+0	-8.27897E-3	53.3432E-12	1.65302E+0	-1.08415E-3
672.836E-6	51.3589E-12	1.51966E+0	-1.78031E-3	52.9970E-12	1.65900E+0	4.94156E-3
667.834E-6	50.8190E-12	1.55176E+0	-2.36936E-3	52.0657E-12	1.68356E+0	6.20650E-3
662.831E-6	49.9786E-12	1.59552E+0	411.543E-6	51.0774E-12	1.69604E+0	-8.49598E-3
657.829E-6	49.7011E-12	1.62145E+0	-10.9433E-3	50.4800E-12	1.68453E+0	-10.6514E-3
652.826E-6	48.8612E-12	1.63720E+0	-33.4382E-3	49.5178E-12	1.68405E+0	86.0684E-6
647.824E-6	48.3323E-12	1.65867E+0	-32.3142E-3	48.6557E-12	1.71366E+0	-6.10163E-3
642.821E-6	47.9740E-12	1.66699E+0	-25.2644E-3	47.8220E-12	1.74280E+0	-18.5354E-3
637.819E-6	47.1892E-12	1.67764E+0	-33.9761E-3	47.2532E-12	1.76333E+0	-21.9262E-3
632.816E-6	46.4204E-12	1.69276E+0	-26.9086E-3	46.5352E-12	1.78271E+0	-22.8938E-3
627.814E-6	45.9728E-12	1.70422E+0	-13.9746E-3	45.5722E-12	1.79911E+0	-13.8538E-3
622.811E-6	45.5115E-12	1.73548E+0	-18.8972E-3	44.9702E-12	1.83250E+0	-3.06274E-3
617.809E-6	44.5989E-12	1.77625E+0	-20.8668E-3	44.5226E-12	1.86720E+0	-17.5691E-3
612.806E-6	44.2030E-12	1.79465E+0	-21.6044E-3	44.0161E-12	1.87772E+0	-28.4755E-3
607.804E-6	43.6810E-12	1.79780E+0	-32.2603E-3	43.5115E-12	1.88811E+0	-15.9417E-3
602.801E-6	43.2155E-12	1.81406E+0	-22.3533E-3	43.0901E-12	1.91839E+0	-13.7707E-3
597.799E-6	42.4901E-12	1.83390E+0	6.62024E-3	42.6902E-12	1.94333E+0	-22.2034E-3
592.796E-6	41.6757E-12	1.84922E+0	10.1428E-3	42.2064E-12	1.96169E+0	-27.5919E-3
587.794E-6	41.0734E-12	1.85837E+0	-2.46041E-3	41.7224E-12	1.98803E+0	-32.8632E-3
582.791E-6	40.5112E-12	1.86041E+0	-8.07456E-3	41.5116E-12	1.99621E+0	-30.7644E-3
577.789E-6	39.8153E-12	1.88221E+0	-13.3353E-3	41.0494E-12	1.98867E+0	-19.7355E-3
572.786E-6	38.8192E-12	1.91726E+0	-15.2507E-3	40.3119E-12	1.98986E+0	-21.4294E-3
567.784E-6	38.3294E-12	1.92378E+0	-10.5844E-3	39.5100E-12	1.99083E+0	-33.3117E-3
562.781E-6	38.0711E-12	1.91831E+0	-11.6956E-3	38.9436E-12	1.98685E+0	-31.0436E-3
557.779E-6	37.4854E-12	1.92425E+0	-17.0879E-3	38.1508E-12	1.98118E+0	-24.9389E-3
552.776E-6	36.8096E-12	1.92966E+0	-24.4004E-3	37.1168E-12	1.96567E+0	-15.9829E-3
547.774E-6	36.3835E-12	1.94698E+0	-26.7285E-3	36.1415E-12	1.95618E+0	1.05483E-3
542.771E-6	36.0742E-12	1.97191E+0	-17.5675E-3	35.4485E-12	1.95633E+0	-5.10214E-3
537.769E-6	35.5624E-12	1.98234E+0	-17.5904E-3	34.7680E-12	1.94143E+0	-24.9741E-3
532.766E-6	34.7359E-12	1.99512E+0	-28.2604E-3	33.8359E-12	1.93073E+0	-19.1241E-3
527.764E-6	34.0654E-12	2.01760E+0	-23.4232E-3	32.9202E-12	1.93133E+0	-10.2200E-3
522.761E-6	33.4772E-12	2.01377E+0	-7.06539E-3	32.2208E-12	1.91419E+0	-19.9104E-3
517.759E-6	32.7411E-12	1.99550E+0	-7.80273E-3	31.4961E-12	1.89727E+0	-20.9000E-3
512.756E-6	31.8048E-12	2.00494E+0	-4.64340E-3	30.6464E-12	1.89030E+0	-13.0627E-3
507.754E-6	31.2684E-12	2.01849E+0	6.81058E-3	29.8461E-12	1.87870E+0	-13.2411E-3
502.751E-6	30.4453E-12	2.00354E+0	-3.11508E-3	29.4449E-12	1.88022E+0	-14.0478E-3
497.749E-6	29.5622E-12	1.97801E+0	-14.1124E-3	28.7580E-12	1.89670E+0	-12.9123E-3
492.746E-6	28.8008E-12	1.95307E+0	-9.72304E-3	28.2398E-12	1.90328E+0	-14.8979E-3
487.744E-6	28.3089E-12	1.93671E+0	-17.1565E-3	27.8283E-12	1.91058E+0	-18.4982E-3
482.741E-6	27.4366E-12	1.93802E+0	-32.0744E-3	27.3077E-12	1.92594E+0	-27.9089E-3
477.739E-6	26.6780E-12	1.92635E+0	-22.4266E-3	26.7771E-12	1.91491E+0	-30.3197E-3
472.736E-6	26.1359E-12	1.89369E+0	-17.1503E-3	26.3736E-12	1.88975E+0	-17.7444E-3
467.734E-6	25.7555E-12	1.88481E+0	-23.9429E-3	25.9744E-12	1.88059E+0	-11.5043E-3
462.731E-6	25.2787E-12	1.89118E+0	-15.3688E-3	25.2940E-12	1.87041E+0	-17.1505E-3
457.729E-6	24.6452E-12	1.87997E+0	-17.7312E-3	24.7388E-12	1.84563E+0	-17.2926E-3
452.726E-6	24.3307E-12	1.87465E+0	-27.0371E-3	24.1593E-12	1.82124E+0	-617.912E-6
447.724E-6	24.1457E-12	1.88142E+0	-22.1662E-3	23.4626E-12	1.79654E+0	-518.058E-6
442.721E-6	23.7034E-12	1.88237E+0	-19.1490E-3	22.9984E-12	1.75506E+0	-27.1499E-3
437.719E-6	22.8565E-12	1.88130E+0	-20.1645E-3	22.3274E-12	1.70887E+0	-40.7781E-3
432.716E-6	22.2596E-12	1.87176E+0	-17.5649E-3	21.3993E-12	1.67522E+0	-38.7005E-3
427.714E-6	21.8018E-12	1.85178E+0	-16.1646E-3	20.6881E-12	1.64950E+0	-31.7122E-3
422.711E-6	20.9933E-12	1.84547E+0	-16.4769E-3	20.1021E-12	1.62849E+0	-20.7657E-3
417.709E-6	20.1465E-12	1.84133E+0	-5.76327E-3	19.2404E-12	1.59913E+0	-17.2439E-3
412.706E-6	19.5305E-12	1.80812E+0	674.456E-6	18.4875E-12	1.55849E+0	-18.8142E-3
407.704E-6	18.8660E-12	1.76444E+0	-13.2496E-3	18.0874E-12	1.54266E+0	-23.1410E-3
402.701E-6	18.0951E-12	1.72464E+0	-18.3241E-3	17.6775E-12	1.54584E+0	-26.1119E-3
397.699E-6	17.4690E-12	1.68817E+0	-16.6984E-3	17.1214E-12	1.53950E+0	-20.5762E-3
392.696E-6	16.9068E-12	1.66238E+0	-25.6483E-3	16.6518E-12	1.52911E+0	-11.7150E-3
387.694E-6	16.4672E-12	1.62394E+0	-24.5411E-3	16.2507E-12	1.50654E+0	-13.9756E-3
382.691E-6	15.8606E-12	1.57489E+0	-13.2449E-3	16.0469E-12	1.47758E+0	-17.7884E-3
377.689E-6	15.3695E-12	1.55127E+0	-8.63748E-3	15.6577E-12	1.46731E+0	-6.09889E-3
372.686E-6	15.0891E-12	1.54070E+0	368.086E-6	15.2132E-12	1.45996E+0	-11.7182E-3
367.684E-6	14.7688E-12	1.50614E+0	7.10772E-3	14.9580E-12	1.43383E+0	-36.3782E-3
362.681E-6	14.3612E-12	1.46303E+0	1.47744E-3	14.5786E-12	1.39827E+0	-35.8037E-3
357.679E-6	13.7792E-12	1.44342E+0	-3.35999E-3	14.1696E-12	1.36116E+0	-24.5566E-3
352.676E-6	13.5736E-12	1.43316E+0	-10.7193E-3	13.7334E-12	1.32359E+0	-18.9445E-3
347.674E-6	13.1210E-12	1.42227E+0	-30.8231E-3	13.3475E-12	1.29935E+0	-7.48038E-3
342.671E-6	12.6370E-12	1.40810E+0	-40.0935E-3	12.8531E-12	1.26845E+0	-7.46960E-3
337.669E-6	12.1012E-12	1.37167E+0	-27.5507E-3	12.3213E-12	1.22014E+0	-29.7825E-3
332.666E-6	11.8010E-12	1.32846E+0	-18.5392E-3	11.9011E-12	1.18067E+0	-47.4605E-3
327.664E-6	11.2812E-12	1.30320E+0	-15.3024E-3	11.4533E-12	1.14928E+0	-42.3640E-3
322.661E-6	10.6531E-12	1.26314E+0	-17.4541E-3	10.8776E-12	1.11057E+0	-35.3348E-3
317.659E-6	10.1849E-12	1.19981E+0	-26.4610E-3	10.2330E-12	1.06140E+0	-23.5005E-3
312.656E-6	9.84681E-12	1.16630E+0	-25.0671E-3	9.99988E-12	1.01982E+0	-6.23780E-3
307.654E-6	9.41945E-12	1.15647E+0	-18.7839E-3	9.60044E-12	989.331E-3	-14.6125E-3
302.651E-6	8.90220E-12	1.12941E+0	-28.1049E-3	9.10438E-12	960.239E-3	-22.8834E-3
297.649E-6	8.67019E-12	1.08649E+0	-37.8285E-3	8.73836E-12	938.234E-3	-14.7083E-3
292.646E-6	8.33896E-12	1.03051E+0	-27.1265E-3	8.48871E-12	920.415E-3	-16.4317E-3
287.644E-6	8.05740E-12	980.086E-3	-19.0773E-3	8.28677E-12	901.193E-3	-16.6399E-3
282.641E-6	7.76500E-12	960.633E-3	-33.3644E-3	7.92526E-12	880.907E-3	-10.3131E-3
277.639E-6	7.51050E-12	941.902E-3	-35.1467E-3	7.58046E-12	847.451E-3	-12.5692E-3
272.636E-6	7.31130E-12	911.524E-3	-19.8988E-3	7.40057E-12	810.790E-3	-10.7881E-3
267.634E-6	7.03867E-12	903.646E-3	-18.5477E-3	7.19732E-12	794.868E-3	-357.239E-6
262.631E-6	6.81084E-12	893.870E-3	-14.2322E-3	6.90300E-12	781.767E-3	3.30389E-3
257.629E-6	6.61800E-12	862.133E-3	-14.8016E-3	6.61343E-12	759.582E-3	2.49762E-3
252.626E-6	6.27263E-12	845.944E-3	-34.3803E-3	6.40830E-12	742.943E-3	-3.15442E-3
247.624E-6	6.05346E-12	829.405E-3	-29.0248E-3	6.16396E-12	722.292E-3	-10.5366E-3
242.621E-6	5.88256E-12	786.292E-3	-11.2462E-3	5.96448E-12	688.389E-3	-9.43656E-3
237.619E-6	5.70381E-12	748.689E-3	-10.0635E-3	5.71905E-12	653.181E-3	-8.62586E-3
232.616E-6	5.32762E-12	732.137E-3	6.36466E-3	5.35179E-12	619.701E-3	-17.3110E-3
227.614E-6	4.98879E-12	711.494E-3	18.5548E-3	5.03029E-12	582.964E-3	-23.0912E-3
222.611E-6	4.74841E-12	671.985E-3	-110.918E-6	4.71612E-12	553.886E-3	-13.3713E-3
217.609E-6	4.58803E-12	633.958E-3	-10.3350E-3	4.49447E-12	530.956E-3	-6.80150E-3
212.606E-6	4.39598E-12	617.541E-3	-6.50167E-3	4.27403E-12	499.692E-3	-14.3006E-3
207.604E-6	4.13678E-12	607.177E-3	-11.1544E-3	4.05531E-12	479.074E-3	-22.3864E-3
202.601E-6	3.99308E-12	581.669E-3	-12.6674E-3	3.81401E-12	471.681E-3	-26.6210E-3
197.599E-6	3.84582E-12	546.119E-3	-12.3047E-3	3.67267E-12	454.712E-3	-24.5154E-3
192.596E-6	3.64566E-12	527.208E-3	-18.4906E-3	3.56880E-12	435.119E-3	-17.5816E-3
187.594E-6	3.46888E-12	514.564E-3	-23.0121E-3	3.33280E-12	426.048E-3	-20.3264E-3
182.591E-6	3.35239E-12	486.423E-3	-24.9357E-3	3.11608E-12	414.549E-3	-26.3100E-3
177.589E-6	3.24149E-12	464.125E-3	-24.9916E-3	3.08906E-12	398.271E-3	-18.9739E-3
172.586E-6	3.06077E-12	451.049E-3	-19.1695E-3	3.02685E-12	384.186E-3	-11.8566E-3
167.584E-6	2.95492E-12	440.856E-3	-18.5967E-3	2.81259E-12	371.166E-3	-18.0005E-3
162.581E-6	2.83718E-12	438.606E-3	-26.1362E-3	2.67807E-12	366.664E-3	-25.4707E-3
157.579E-6	2.64166E-12	431.744E-3	-23.0081E-3	2.59492E-12	366.272E-3	-26.4422E-3
152.576E-6	2.50194E-12	412.053E-3	-11.6528E-3	2.53240E-12	345.202E-3	-24.4076E-3
147.574E-6	2.44131E-12	391.603E-3	-7.64730E-3	2.37484E-12	315.460E-3	-17.7060E-3
142.571E-6	2.32676E-12	369.578E-3	-11.1342E-3	2.20604E-12	307.994E-3	-15.4022E-3
137.569E-6	2.16504E-12	337.041E-3	-10.2624E-3	2.14007E-12	303.017E-3	-18.8298E-3
132.566E-6	1.95382E-12	318.471E-3	-13.4213E-3	2.02801E-12	283.852E-3	-14.3127E-3
127.564E-6	1.94187E-12	324.054E-3	-22.9660E-3	1.89198E-12	274.492E-3	-9.87089E-3
122.561E-6	1.84943E-12	318.075E-3	-25.7649E-3	1.72019E-12	270.606E-3	-19.9444E-3
117.559E-6	1.66289E-12	301.348E-3	-32.8555E-3	1.69399E-12	261.629E-3	-33.3407E-3
112.556E-6	1.60324E-12	298.479E-3	-34.4609E-3	1.57157E-12	262.989E-3	-34.7471E-3
107.554E-6	1.51775E-12	296.817E-3	-19.7675E-3	1.49458E-12	264.266E-3	-26.8835E-3
102.551E-6	1.47940E-12	284.553E-3	-15.9849E-3	1.39205E-12	249.883E-3	-11.0411E-3
97.5488E-6	1.32547E-12	272.037E-3	-18.8339E-3	1.27243E-12	236.544E-3	-4.96924E-3
92.5463E-6	1.25902E-12	259.031E-3	-13.6637E-3	1.18124E-12	232.283E-3	-21.9568E-3
87.5438E-6	1.19966E-12	254.503E-3	-14.5273E-3	1.10821E-12	226.866E-3	-32.2234E-3
82.5413E-6	1.10983E-12	264.922E-3	-20.5250E-3	1.06565E-12	225.694E-3	-24.2058E-3
77.5388E-6	954.849E-15	256.209E-3	-14.7790E-3	966.167E-15	223.136E-3	-20.0059E-3
72.5363E-6	872.495E-15	232.256E-3	-10.8661E-3	819.107E-15	213.805E-3	-19.5067E-3
67.5338E-6	874.658E-15	233.760E-3	-21.6757E-3	847.175E-15	207.768E-3	-16.4796E-3
62.5313E-6	748.585E-15	238.572E-3	-22.0696E-3	773.322E-15	208.379E-3	-20.0143E-3
57.5288E-6	669.065E-15	219.449E-3	-19.4044E-3	740.939E-15	212.100E-3	-24.7660E-3
52.5263E-6	607.612E-15	201.265E-3	-18.1652E-3	572.516E-15	215.894E-3	-23.2524E-3
47.5238E-6	560.370E-15	198.013E-3	-4.67456E-3	502.901E-15	218.067E-3	-22.5724E-3
42.5213E-6	480.711E-15	199.734E-3	-10.9505E-3	515.858E-15	210.106E-3	-25.7604E-3
37.5188E-6	366.436E-15	209.968E-3	-32.6722E-3	496.519E-15	202.824E-3	-28.9003E-3
32.5163E-6	380.116E-15	219.678E-3	-38.0764E-3	330.181E-15	202.557E-3	-25.8769E-3
27.5138E-6	314.111E-15	220.653E-3	-41.8551E-3	196.418E-15	202.523E-3	-19.4538E-3
22.5113E-6	141.059E-15	222.327E-3	-42.7954E-3	216.952E-15	206.621E-3	-19.2543E-3
17.5088E-6	38.6331E-15	213.088E-3	-27.9244E-3	171.402E-15	208.463E-3	-23.0415E-3
12.5063E-6	49.6195E-15	205.562E-3	-20.2082E-3	16.4338E-15	209.132E-3	-13.9336E-3
7.50375E-6	72.7954E-15	216.696E-3	-23.8565E-3	-80.9696E-15	212.297E-3	-4.72232E-3
2.50125E-6	-109.421E-15	218.234E-3	-13.5267E-3	-68.0999E-15	209.755E-3	-19.4421E-3
-2.50125E-6	-225.178E-15	203.554E-3	-1.13404E-3	-152.991E-15	205.646E-3	-34.2901E-3
-7.50375E-6	-191.400E-15	200.386E-3	-7.84093E-3	-270.588E-15	210.965E-3	-22.7457E-3
-12.5063E-6	-254.981E-15	204.363E-3	-22.4588E-3	-364.068E-15	222.737E-3	-6.90380E-3
-17.5088E-6	-430.936E-15	199.230E-3	-27.1156E-3	-442.376E-15	232.650E-3	-10.9200E-3
-22.5113E-6	-486.069E-15	201.275E-3	-21.3721E-3	-481.482E-15	238.361E-3	-15.4831E-3
-27.5138E-6	-546.162E-15	209.004E-3	-13.8586E-3	-609.098E-15	242.951E-3	-15.3154E-3
-32.5163E-6	-586.733E-15	209.695E-3	-8.97804E-3	-616.850E-15	246.916E-3	-19.6545E-3
-37.5188E-6	-745.965E-15	218.589E-3	-9.47933E-3	-738.423E-15	251.824E-3	-22.9072E-3
-42.5213E-6	-827.839E-15	234.920E-3	-15.3464E-3	-800.077E-15	263.036E-3	-27.9072E-3
-47.5238E-6	-862.795E-15	245.585E-3	-27.4654E-3	-937.005E-15	269.563E-3	-27.4327E-3
-52.5263E-6	-943.946E-15	258.064E-3	-32.0809E-3	-980.855E-15	268.969E-3	-15.9139E-3
-57.5288E-6	-1.11123E-12	272.288E-3	-18.3023E-3	-1.07746E-12	274.871E-3	-15.3612E-3
-62.5313E-6	-1.16324E-12	279.704E-3	-7.85308E-3	-1.20028E-12	293.591E-3	-32.3788E-3
-67.5338E-6	-1.25964E-12	284.983E-3	-14.9206E-3	-1.33973E-12	321.194E-3	-32.9883E-3
-72.5363E-6	-1.40798E-12	284.546E-3	-18.9233E-3	-1.36985E-12	339.747E-3	-16.6573E-3
-77.5388E-6	-1.46902E-12	277.078E-3	-18.1116E-3	-1.45642E-12	338.822E-3	-12.0968E-3
-82.5413E-6	-1.57244E-12	289.705E-3	-20.0962E-3	-1.66870E-12	341.171E-3	-5.51841E-3
-87.5438E-6	-1.70948E-12	307.470E-3	-21.5645E-3	-1.77674E-12	361.122E-3	1.27361E-3
-92.5463E-6	-1.83093E-12	309.531E-3	-16.6826E-3	-1.80733E-12	368.120E-3	-5.65834E-3
-97.5488E-6	-1.96192E-12	323.974E-3	-8.66203E-3	-1.88794E-12	368.112E-3	-9.78549E-3
-102.551E-6	-2.02687E-12	342.585E-3	-6.24993E-3	-2.06333E-12	387.669E-3	-16.6850E-3
-107.554E-6	-2.15479E-12	352.463E-3	-6.36980E-3	-2.18760E-12	409.388E-3	-32.8674E-3
-112.556E-6	-2.35751E-12	374.510E-3	-13.7639E-3	-2.28532E-12	431.891E-3	-36.2209E-3
-117.559E-6	-2.49522E-12	399.987E-3	-14.3502E-3	-2.40843E-12	469.850E-3	-20.7241E-3
-122.561E-6	-2.51920E-12	407.719E-3	-2.40057E-3	-2.55904E-12	490.936E-3	-6.93565E-3
-127.564E-6	-2.71106E-12	413.153E-3	-3.85368E-3	-2.72846E-12	485.328E-3	-4.22298E-3
-132.566E-6	-2.92223E-12	436.355E-3	-7.35031E-3	-2.85695E-12	500.100E-3	-6.26734E-3
-137.569E-6	-3.12544E-12	456.301E-3	898.376E-6	-3.05516E-12	530.767E-3	-12.2578E-3
-142.571E-6	-3.24322E-12	463.977E-3	-4.82650E-3	-3.22882E-12	552.689E-3	-12.4857E-3
-147.574E-6	-3.43989E-12	485.234E-3	-16.3633E-3	-3.39669E-12	590.292E-3	-8.95526E-3
-152.576E-6	-3.71654E-12	516.217E-3	-14.5983E-3	-3.58236E-12	635.678E-3	-19.4692E-3
-157.579E-6	-3.89892E-12	540.423E-3	-9.10115E-3	-3.82189E-12	653.713E-3	-25.5609E-3
-162.581E-6	-4.03997E-12	557.419E-3	-9.84876E-3	-4.00815E-12	668.824E-3	-12.5741E-3
-167.584E-6	-4.29352E-12	574.487E-3	-14.5449E-3	-4.27826E-12	700.871E-3	-9.35299E-3
-172.586E-6	-4.61512E-12	605.957E-3	-18.4865E-3	-4.61307E-12	734.818E-3	-21.4770E-3
-177.589E-6	-4.82002E-12	650.469E-3	-22.2648E-3	-4.89590E-12	771.903E-3	-26.5505E-3
-182.591E-6	-5.02005E-12	689.694E-3	-26.6296E-3	-5.05111E-12	810.239E-3	-25.1958E-3
-187.594E-6	-5.24919E-12	708.605E-3	-25.7961E-3	-5.31810E-12	841.277E-3	-22.1937E-3
-192.596E-6	-5.51530E-12	712.095E-3	-16.5147E-3	-5.57287E-12	869.063E-3	-15.1244E-3
-197.599E-6	-5.74786E-12	730.460E-3	-13.0877E-3	-5.87077E-12	900.198E-3	-22.7350E-3
-202.601E-6	-5.92672E-12	770.450E-3	-18.6472E-3	-6.15069E-12	933.500E-3	-34.5211E-3
-207.604E-6	-6.30214E-12	808.424E-3	-23.7112E-3	-6.32811E-12	963.402E-3	-23.0706E-3
-212.606E-6	-6.54676E-12	833.050E-3	-20.8913E-3	-6.64207E-12	995.571E-3	-12.4392E-3
-217.609E-6	-6.88148E-12	859.850E-3	-22.9492E-3	-7.03370E-12	1.04307E+0	-13.9469E-3
-222.611E-6	-7.17300E-12	903.128E-3	-28.9615E-3	-7.30741E-12	1.09505E+0	-14.9289E-3
-227.614E-6	-7.64601E-12	947.719E-3	-23.5878E-3	-7.61790E-12	1.14750E+0	-18.4355E-3
-232.616E-6	-8.02157E-12	986.832E-3	-24.0917E-3	-8.02901E-12	1.19760E+0	-19.9663E-3
-237.619E-6	-8.31526E-12	1.03480E+0	-37.4861E-3	-8.36117E-12	1.24089E+0	-20.2393E-3
-242.621E-6	-8.74746E-12	1.09124E+0	-42.3641E-3	-8.73369E-12	1.30590E+0	-24.3689E-3
-247.624E-6	-9.27539E-12	1.13875E+0	-29.9975E-3	-9.27940E-12	1.37128E+0	-25.1746E-3
-252.626E-6	-9.66627E-12	1.16551E+0	-18.6891E-3	-9.69811E-12	1.41605E+0	-14.9447E-3
-257.629E-6	-9.98563E-12	1.19869E+0	-15.2112E-3	-10.1481E-12	1.47005E+0	-2.10261E-3
-262.631E-6	-10.5113E-12	1.25803E+0	-15.5861E-3	-10.6793E-12	1.52192E+0	-3.67262E-3
-267.634E-6	-11.0232E-12	1.31877E+0	-20.3985E-3	-11.3267E-12	1.56637E+0	-7.04138E-3
-272.636E-6	-11.4669E-12	1.36374E+0	-26.5549E-3	-11.9657E-12	1.63115E+0	-4.63583E-3
-277.639E-6	-11.8537E-12	1.40984E+0	-37.1843E-3	-12.3512E-12	1.71170E+0	-15.9560E-3
-282.641E-6	-12.3424E-12	1.46316E+0	-38.3782E-3	-12.9091E-12	1.77666E+0	-12.6742E-3
-287.644E-6	-12.8686E-12	1.51048E+0	-27.1996E-3	-13.6699E-12	1.82329E+0	8.42871E-3
-292.646E-6	-13.3386E-12	1.55553E+0	-23.6544E-3	-14.2567E-12	1.87035E+0	8.92772E-3
-297.649E-6	-13.8907E-12	1.60577E+0	-26.1036E-3	-14.7014E-12	1.91599E+0	3.04320E-3
-302.651E-6	-14.3733E-12	1.66309E+0	-19.7626E-3	-15.2263E-12	1.95928E+0	-5.05003E-3
-307.654E-6	-15.1086E-12	1.71630E+0	-11.1918E-3	-15.9157E-12	2.00268E+0	-20.0768E-3
-312.656E-6	-15.8192E-12	1.76389E+0	-11.0066E-3	-16.4381E-12	2.04828E+0	-21.3630E-3
-317.659E-6	-16.3246E-12	1.82350E+0	-14.7549E-3	-16.8970E-12	2.11154E+0	-23.8272E-3
-322.661E-6	-17.1354E-12	1.88617E+0	-20.2093E-3	-17.4900E-12	2.16929E+0	-32.5996E-3
-327.664E-6	-17.8446E-12	1.93208E+0	-15.1956E-3	-18.2267E-12	2.20603E+0	-31.2007E-3
-332.666E-6	-18.6554E-12	1.98057E+0	-3.52092E-3	-18.7881E-12	2.25946E+0	-30.2309E-3
-337.669E-6	-19.3694E-12	2.05086E+0	-1.26074E-3	-19.3972E-12	2.32429E+0	-32.4098E-3
-342.671E-6	-20.2340E-12	2.12066E+0	-6.64064E-3	-20.1105E-12	2.36492E+0	-37.2713E-3
-347.674E-6	-21.0038E-12	2.18302E+0	-13.8146E-3	-20.8504E-12	2.40517E+0	-33.2643E-3
-352.676E-6	-21.5557E-12	2.25716E+0	-19.1971E-3	-21.5035E-12	2.47521E+0	-23.8864E-3
-357.679E-6	-22.2357E-12	2.32958E+0	-33.0576E-3	-22.1271E-12	2.55819E+0	-19.0210E-3
-362.681E-6	-23.2503E-12	2.38545E+0	-45.3287E-3	-23.0507E-12	2.64368E+0	-14.2442E-3
-367.684E-6	-24.2708E-12	2.43210E+0	-41.9455E-3	-24.1848E-12	2.71773E+0	-25.6479E-3
-372.686E-6	-24.9010E-12	2.47598E+0	-35.5136E-3	-25.0529E-12	2.77562E+0	-33.3163E-3
-377.689E-6	-25.8110E-12	2.53591E+0	-32.2790E-3	-25.8282E-12	2.84720E+0	-20.2595E-3
-382.691E-6	-26.9263E-12	2.61239E+0	-26.2183E-3	-27.1474E-12	2.92312E+0	-19.8341E-3
-387.694E-6	-27.9078E-12	2.68034E+0	-23.5613E-3	-28.2375E-12	2.97186E+0	-27.3894E-3
-392.696E-6	-28.8630E-12	2.73169E+0	-29.2952E-3	-29.1002E-12	3.01468E+0	-15.9446E-3
-397.699E-6	-29.5892E-12	2.78839E+0	-33.0603E-3	-30.0103E-12	3.06946E+0	-9.14444E-3
-402.701E-6	-30.9523E-12	2.85173E+0	-37.8249E-3	-31.2716E-12	3.11589E+0	-22.5071E-3
-407.704E-6	-32.1222E-12	2.90814E+0	-33.8423E-3	-32.2328E-12	3.14663E+0	-30.9143E-3
-412.706E-6	-32.8350E-12	2.97569E+0	-13.1783E-3	-32.9877E-12	3.17806E+0	-27.0153E-3
-417.709E-6	-33.9515E-12	3.05374E+0	-7.97764E-3	-33.7037E-12	3.20457E+0	-27.0399E-3
-422.711E-6	-35.3658E-12	3.11415E+0	-17.8452E-3	-34.9442E-12	3.21576E+0	-27.9249E-3
-427.714E-6	-36.2544E-12	3.15737E+0	-17.9981E-3	-35.6249E-12	3.22940E+0	-25.8313E-3
-432.716E-6	-37.1089E-12	3.20838E+0	-23.3747E-3	-36.3134E-12	3.24587E+0	-30.3133E-3
-437.719E-6	-38.1840E-12	3.26377E+0	-37.5547E-3	-36.8496E-12	3.27361E+0	-20.4949E-3
-442.721E-6	-39.2337E-12	3.30155E+0	-37.9764E-3	-38.1108E-12	3.31429E+0	-7.48015E-3
-447.724E-6	-40.2402E-12	3.33265E+0	-29.4242E-3	-38.9640E-12	3.34062E+0	-19.8721E-3
-452.726E-6	-41.1679E-12	3.37282E+0	-26.1758E-3	-39.8153E-12	3.37833E+0	-20.6913E-3
-457.729E-6	-42.3897E-12	3.40421E+0	-31.3598E-3	-40.8077E-12	3.44789E+0	-8.61963E-3
-462.731E-6	-43.6666E-12	3.42169E+0	-31.3221E-3	-42.3593E-12	3.49971E+0	-10.1342E-3
-467.734E-6	-44.4603E-12	3.44946E+0	-27.9219E-3	-43.8121E-12	3.54138E+0	-2.13497E-3
-472.736E-6	-45.6662E-12	3.48816E+0	-25.5104E-3	-44.9910E-12	3.61394E+0	-10.1746E-3
-477.739E-6	-47.0640E-12	3.51161E+0	-13.4942E-3	-46.4097E-12	3.67546E+0	-47.7735E-3
-482.741E-6	-48.5508E-12	3.52896E+0	-18.5826E-3	-48.3108E-12	3.71491E+0	-55.8847E-3
-487.744E-6	-49.4359E-12	3.56723E+0	-36.3861E-3	-49.9111E-12	3.76448E+0	-34.7953E-3
-492.746E-6	-51.0122E-12	3.60935E+0	-36.1454E-3	-51.2667E-12	3.79804E+0	-23.5926E-3
-497.749E-6	-52.4836E-12	3.63884E+0	-25.1625E-3	-53.1219E-12	3.80648E+0	-16.0299E-3
-502.751E-6	-53.8087E-12	3.67770E+0	-4.09848E-3	-54.8180E-12	3.81253E+0	-18.7628E-3
-507.754E-6	-54.6719E-12	3.72308E+0	12.4438E-3	-55.9431E-12	3.80017E+0	-39.8406E-3
-512.756E-6	-56.0056E-12	3.74680E+0	8.99010E-3	-57.1963E-12	3.78069E+0	-29.7488E-3
-517.759E-6	-57.2678E-12	3.75361E+0	5.75539E-3	-58.2175E-12	3.77546E+0	-11.6884E-3
-522.761E-6	-58.0077E-12	3.74888E+0	5.29866E-3	-59.3988E-12	3.76116E+0	-35.7894E-3
-527.764E-6	-58.6076E-12	3.73892E+0	2.91626E-3	-59.8391E-12	3.72550E+0	-43.8488E-3
-532.766E-6	-59.4778E-12	3.73149E+0	6.31606E-3	-60.6355E-12	3.70152E+0	-16.5546E-3
-537.769E-6	-60.5557E-12	3.71399E+0	11.4575E-3	-61.3779E-12	3.69571E+0	-12.7432E-3
-542.771E-6	-61.7695E-12	3.68537E+0	2.64537E-3	-62.6425E-12	3.66390E+0	-13.3419E-3
-547.774E-6	-62.2723E-12	3.65939E+0	-11.4772E-3	-63.0163E-12	3.62645E+0	-46.4651E-6
-552.776E-6	-63.4345E-12	3.64171E+0	-20.4502E-3	-63.4655E-12	3.62155E+0	-10.4214E-3
-557.779E-6	-64.2950E-12	3.63172E+0	-28.1400E-3	-64.6017E-12	3.61492E+0	-14.3717E-3
-562.781E-6	-66.0166E-12	3.63774E+0	-28.3605E-3	-66.8208E-12	3.61131E+0	-4.09289E-3
-567.784E-6	-68.2416E-12	3.64053E+0	-19.8382E-3	-68.5730E-12	3.63941E+0	-20.4787E-3
-572.786E-6	-70.0643E-12	3.62620E+0	-18.8132E-3	-70.0189E-12	3.65616E+0	-25.9826E-3
-577.789E-6	-71.4832E-12	3.63187E+0	-27.1629E-3	-71.8569E-12	3.65002E+0	-14.9868E-3
-582.791E-6	-72.8059E-12	3.64791E+0	-31.0463E-3	-73.6896E-12	3.65239E+0	-25.0885E-3
-587.794E-6	-74.4904E-12	3.63976E+0	-21.5050E-3	-74.7627E-12	3.64778E+0	-35.2632E-3
-592.796E-6	-75.7142E-12	3.62306E+0	-8.60017E-3	-76.5497E-12	3.62753E+0	-30.9551E-3
-597.799E-6	-77.1223E-12	3.61416E+0	-29.4851E-3	-78.5808E-12	3.60887E+0	-25.0209E-3
-602.801E-6	-77.8602E-12	3.60029E+0	-53.1769E-3	-80.2082E-12	3.58612E+0	-30.4485E-3
-607.804E-6	-78.7165E-12	3.58135E+0	-32.6144E-3	-80.7931E-12	3.54752E+0	-32.3706E-3
-612.806E-6	-79.9106E-12	3.55660E+0	-9.22267E-3	-82.7687E-12	3.47973E+0	-31.0109E-3
-617.809E-6	-80.9478E-12	3.52269E+0	-5.42759E-3	-83.9512E-12	3.38923E+0	-38.4552E-3
-622.811E-6	-81.6560E-12	3.49965E+0	-3.02071E-3	-84.6510E-12	3.32223E+0	-22.7303E-3
-627.814E-6	-81.9701E-12	3.46945E+0	-8.41137E-3	-84.4897E-12	3.28200E+0	-462.001E-6
-632.816E-6	-83.3706E-12	3.40838E+0	-26.0529E-3	-85.5230E-12	3.22284E+0	-6.02560E-3
-637.819E-6	-84.4580E-12	3.34741E+0	-36.5683E-3	-86.1652E-12	3.15005E+0	-20.5480E-3
-642.821E-6	-85.3107E-12	3.30233E+0	-32.4854E-3	-86.2240E-12	3.09491E+0	-38.2387E-3
-647.824E-6	-86.2834E-12	3.26042E+0	-25.3111E-3	-86.4071E-12	3.05185E+0	-49.6703E-3
-652.826E-6	-87.5658E-12	3.22533E+0	-15.1793E-3	-86.9347E-12	3.01073E+0	-44.7036E-3
-657.829E-6	-89.2093E-12	3.19595E+0	-4.53005E-3	-87.9347E-12	2.96437E+0	-45.7449E-3
-662.831E-6	-90.2498E-12	3.15973E+0	-7.71468E-3	-88.7192E-12	2.90508E+0	-54.5278E-3
-667.834E-6	-91.8014E-12	3.12842E+0	-17.2649E-3	-89.3712E-12	2.86124E+0	-40.2820E-3
-672.836E-6	-92.9140E-12	3.10029E+0	-24.5748E-3	-90.0493E-12	2.85263E+0	-8.31725E-3
-677.839E-6	-94.5092E-12	3.06239E+0	-48.8356E-3	-91.9840E-12	2.82434E+0	1.25049E-3
-682.841E-6	-95.3696E-12	3.02335E+0	-72.7438E-3	-92.9375E-12	2.76911E+0	-9.48576E-3
-687.844E-6	-96.0622E-12	2.97716E+0	-69.6495E-3	-94.0681E-12	2.73146E+0	-15.1953E-3
-692.846E-6	-97.7125E-12	2.91567E+0	-50.9855E-3	-95.5836E-12	2.69277E+0	-12.6723E-3
-697.849E-6	-98.0395E-12	2.86929E+0	-26.8161E-3	-97.0139E-12	2.64823E+0	4.84279E-3
-702.851E-6	-98.6132E-12	2.84998E+0	-13.3312E-3	-98.4207E-12	2.60984E+0	17.5349E-3
-707.854E-6	-98.6300E-12	2.79875E+0	-21.0685E-3	-99.6847E-12	2.55687E+0	-1.60343E-3
-712.856E-6	-100.205E-12	2.71907E+0	-26.9114E-3	-101.213E-12	2.49886E+0	-11.1147E-3
-717.859E-6	-100.699E-12	2.65434E+0	-26.9895E-3	-101.837E-12	2.45688E+0	7.69173E-3
-722.861E-6	-100.883E-12	2.60192E+0	-22.8173E-3	-102.570E-12	2.40242E+0	12.4210E-3
-727.864E-6	-101.622E-12	2.56030E+0	-12.3501E-3	-102.929E-12	2.34435E+0	-1.49431E-3
-732.866E-6	-102.979E-12	2.50528E+0	-13.9055E-3	-103.799E-12	2.29776E+0	-10.5056E-3
-737.869E-6	-103.710E-12	2.43166E+0	-22.5775E-3	-104.540E-12	2.22945E+0	-16.6430E-3
-742.871E-6	-104.341E-12	2.37390E+0	-21.8472E-3	-104.369E-12	2.15040E+0	-6.41622E-3
-747.874E-6	-105.401E-12	2.34140E+0	1.44960E-3	-104.866E-12	2.08332E+0	5.54905E-3
-752.876E-6	-106.102E-12	2.30840E+0	26.4682E-3	-105.014E-12	2.02853E+0	-17.5218E-3
-757.879E-6	-106.947E-12	2.26322E+0	21.4672E-3	-105.270E-12	1.98192E+0	-21.4376E-3
-762.881E-6	-107.963E-12	2.21625E+0	10.2246E-3	-105.174E-12	1.92180E+0	-10.2919E-3
-767.884E-6	-109.019E-12	2.16476E+0	1.59283E-3	-105.973E-12	1.86260E+0	-21.1164E-3
-772.886E-6	-110.122E-12	2.11692E+0	-11.6619E-3	-106.677E-12	1.81880E+0	-12.4815E-3
-777.889E-6	-110.117E-12	2.05531E+0	-15.0545E-3	-107.237E-12	1.77520E+0	-6.39699E-3
-782.891E-6	-110.850E-12	1.97277E+0	-15.3759E-3	-107.607E-12	1.72866E+0	-18.7280E-3
-787.894E-6	-111.552E-12	1.92161E+0	-16.5107E-3	-108.800E-12	1.68587E+0	-13.3848E-3
-792.896E-6	-111.570E-12	1.89246E+0	-24.5437E-3	-109.859E-12	1.66269E+0	772.278E-6
-797.899E-6	-111.789E-12	1.83946E+0	-37.0864E-3	-110.285E-12	1.62292E+0	157.741E-6
-802.901E-6	-111.460E-12	1.77611E+0	-30.0251E-3	-111.537E-12	1.55579E+0	-10.0992E-3
-807.904E-6	-113.367E-12	1.72212E+0	-15.2321E-3	-112.934E-12	1.50357E+0	-18.4416E-3
-812.906E-6	-113.417E-12	1.66967E+0	-21.5967E-3	-114.556E-12	1.47937E+0	-27.6656E-3
-817.909E-6	-113.991E-12	1.61958E+0	-38.9831E-3	-116.110E-12	1.47112E+0	-30.2583E-3
-822.911E-6	-114.046E-12	1.57477E+0	-48.1528E-3	-117.422E-12	1.44410E+0	-34.1724E-3
-827.914E-6	-115.399E-12	1.52850E+0	-36.0974E-3	-118.561E-12	1.38557E+0	-35.7306E-3
-832.916E-6	-116.210E-12	1.48136E+0	-18.6589E-3	-119.179E-12	1.31468E+0	-22.7903E-3
-837.919E-6	-116.954E-12	1.45319E+0	-13.2683E-3	-119.240E-12	1.24834E+0	-21.4214E-3
-842.921E-6	-117.015E-12	1.44034E+0	-3.85555E-3	-118.801E-12	1.20230E+0	-24.7577E-3
-847.924E-6	-117.414E-12	1.40295E+0	3.48025E-3	-119.144E-12	1.17312E+0	-13.8223E-3
-852.926E-6	-118.018E-12	1.33380E+0	-6.33708E-3	-119.234E-12	1.13759E+0	-10.2924E-3
-857.929E-6	-117.932E-12	1.26803E+0	-16.0006E-3	-118.452E-12	1.08567E+0	-24.1884E-3
-862.931E-6	-118.543E-12	1.23564E+0	-4.06573E-3	-117.987E-12	1.02477E+0	-30.7211E-3
-867.934E-6	-117.862E-12	1.21550E+0	14.8557E-3	-118.130E-12	979.833E-3	-37.3972E-3
-872.936E-6	-118.231E-12	1.17169E+0	20.3152E-3	-117.982E-12	945.878E-3	-59.1691E-3
-877.939E-6	-118.298E-12	1.11399E+0	2.58631E-3	-117.335E-12	911.468E-3	-55.6133E-3
-882.941E-6	-118.877E-12	1.07423E+0	-29.3341E-3	-117.325E-12	874.409E-3	-27.1059E-3
-887.944E-6	-118.846E-12	1.02636E+0	-43.4036E-3	-117.955E-12	837.706E-3	-19.7811E-3
-892.946E-6	-118.741E-12	951.245E-3	-33.4246E-3	-119.083E-12	822.949E-3	-23.7837E-3
-897.949E-6	-119.441E-12	913.878E-3	-26.9900E-3	-118.985E-12	816.638E-3	-28.2079E-3
-902.951E-6	-120.243E-12	917.299E-3	-23.4195E-3	-119.818E-12	786.196E-3	-34.9398E-3
-907.954E-6	-121.216E-12	901.098E-3	-15.2290E-3	-121.017E-12	734.012E-3	-18.1566E-3
-912.956E-6	-121.331E-12	856.610E-3	-15.8091E-3	-122.737E-12	704.689E-3	11.9806E-3
-917.959E-6	-122.159E-12	802.236E-3	-24.2823E-3	-123.969E-12	707.219E-3	13.6669E-3
-922.961E-6	-122.369E-12	770.555E-3	-22.1325E-3	-124.272E-12	700.492E-3	-4.60505E-3
-927.964E-6	-122.940E-12	777.484E-3	-7.19602E-3	-125.248E-12	687.807E-3	-5.20662E-3
-932.966E-6	-123.157E-12	767.124E-3	-347.674E-6	-126.105E-12	671.377E-3	-3.73964E-3
-937.969E-6	-123.458E-12	722.239E-3	3.10614E-3	-126.930E-12	631.810E-3	-24.5409E-3
-942.971E-6	-123.729E-12	671.779E-3	4.41489E-3	-126.430E-12	596.846E-3	-34.0440E-3
-947.974E-6	-124.082E-12	637.650E-3	-1.34513E-3	-126.482E-12	575.823E-3	-23.1433E-3
-952.976E-6	-123.910E-12	630.244E-3	-6.59063E-3	-125.531E-12	544.993E-3	-5.48406E-3
-957.979E-6	-123.977E-12	618.634E-3	-14.1965E-3	-125.719E-12	519.150E-3	4.67239E-3
-962.981E-6	-123.848E-12	600.203E-3	-17.1147E-3	-124.929E-12	507.714E-3	-13.0135E-3
-967.984E-6	-124.297E-12	591.271E-3	-11.9251E-3	-123.883E-12	487.639E-3	-31.7365E-3
-972.986E-6	-123.646E-12	587.698E-3	-13.4364E-3	-123.016E-12	461.295E-3	-26.0483E-3
-977.989E-6	-123.197E-12	567.095E-3	-23.6918E-3	-121.984E-12	444.070E-3	-13.0743E-3
-982.991E-6	-123.723E-12	522.713E-3	-32.2909E-3	-122.448E-12	431.844E-3	-14.2989E-3
-987.994E-6	-123.905E-12	481.597E-3	-24.3731E-3	-122.254E-12	417.472E-3	-19.2250E-3
-992.997E-6	-124.351E-12	457.100E-3	-1.97060E-3	-122.018E-12	414.622E-3	-21.5799E-3
-997.999E-6	-124.550E-12	454.682E-3	5.33318E-3	-122.043E-12	418.695E-3	-31.8880E-3
-1.00300E-3	-125.743E-12	457.935E-3	-10.5439E-3	-122.920E-12	398.123E-3	-14.4555E-3
-1.00800E-3	-126.392E-12	436.990E-3	-37.1958E-3	-124.031E-12	354.697E-3	11.8428E-3
-1.01301E-3	-126.780E-12	424.543E-3	-55.1647E-3	-124.397E-12	327.127E-3	3.47886E-3
-1.01801E-3	-127.341E-12	435.045E-3	-41.0955E-3	-125.091E-12	341.677E-3	-5.96307E-3
-1.02301E-3	-127.830E-12	433.256E-3	-10.2798E-3	-125.894E-12	367.432E-3	-8.92020E-3
-1.02801E-3	-128.339E-12	416.534E-3	5.72046E-3	-127.497E-12	360.818E-3	-8.52272E-3
-1.03302E-3	-128.401E-12	398.469E-3	513.698E-6	-128.064E-12	330.439E-3	-5.43909E-3
-1.03802E-3	-128.481E-12	383.932E-3	-12.6472E-3	-128.348E-12	319.232E-3	-13.7216E-3
-1.04302E-3	-128.279E-12	367.505E-3	-21.7154E-3	-128.680E-12	311.930E-3	-19.2536E-3
-1.04802E-3	-128.197E-12	353.549E-3	-22.5150E-3	-129.027E-12	304.368E-3	-13.5597E-3
-1.05303E-3	-127.464E-12	346.979E-3	-12.6302E-3	-128.807E-12	307.046E-3	1.37479E-3
-1.05803E-3	-127.261E-12	339.461E-3	-16.1112E-3	-128.119E-12	294.137E-3	-1.08818E-3
-1.06303E-3	-126.918E-12	330.568E-3	-28.0406E-3	-127.169E-12	268.775E-3	-30.1075E-3
-1.06803E-3	-126.648E-12	330.962E-3	-19.4793E-3	-126.987E-12	249.433E-3	-47.1184E-3
-1.07304E-3	-125.966E-12	327.451E-3	-10.3440E-3	-126.224E-12	251.293E-3	-44.3131E-3
-1.07804E-3	-126.092E-12	302.929E-3	-20.8813E-3	-125.560E-12	253.588E-3	-30.5981E-3
-1.08304E-3	-126.166E-12	281.484E-3	-31.2843E-3	-124.350E-12	254.655E-3	-13.0852E-3
-1.08804E-3	-126.331E-12	280.268E-3	-36.4202E-3	-124.510E-12	271.554E-3	-10.0747E-3
-1.09305E-3	-126.423E-12	283.431E-3	-39.3952E-3	-124.699E-12	273.298E-3	-10.5100E-3
-1.09805E-3	-126.670E-12	281.844E-3	-28.1868E-3	-124.805E-12	262.304E-3	2.58204E-3
-1.10305E-3	-127.219E-12	267.829E-3	-11.8078E-3	-124.715E-12	261.828E-3	5.51693E-3
-1.10805E-3	-127.608E-12	255.847E-3	-6.02907E-3	-125.056E-12	265.034E-3	-11.0723E-3
-1.11306E-3	-128.191E-12	251.050E-3	-16.3694E-3	-126.488E-12	262.509E-3	-12.0511E-3
-1.11806E-3	-128.508E-12	246.086E-3	-27.9072E-3	-127.409E-12	253.828E-3	-5.58922E-3
-1.12306E-3	-128.984E-12	252.625E-3	-28.4497E-3	-128.223E-12	251.386E-3	-15.5666E-3
-1.12806E-3	-128.796E-12	266.556E-3	-15.9698E-3	-129.332E-12	258.216E-3	-38.8853E-3
-1.13307E-3	-129.626E-12	265.219E-3	-10.5229E-3	-129.725E-12	263.552E-3	-48.9548E-3
-1.13807E-3	-129.111E-12	248.258E-3	-17.4292E-3	-130.556E-12	267.304E-3	-32.8082E-3
-1.14307E-3	-128.974E-12	243.884E-3	-13.1696E-3	-131.301E-12	274.289E-3	-25.8780E-3
-1.14807E-3	-128.412E-12	247.347E-3	704.877E-6	-131.191E-12	280.215E-3	-41.0847E-3
-1.15308E-3	-128.581E-12	248.766E-3	9.09838E-3	-131.021E-12	265.834E-3	-48.5447E-3
-1.15808E-3	-127.893E-12	255.475E-3	9.41146E-3	-130.753E-12	246.550E-3	-40.9308E-3
-1.16308E-3	-127.578E-12	258.201E-3	4.09426E-3	-130.959E-12	250.809E-3	-30.0739E-3
-1.16808E-3	-126.985E-12	249.456E-3	-2.41589E-3	-129.623E-12	263.292E-3	-16.7712E-3
-1.17309E-3	-127.530E-12	231.766E-3	-5.41235E-3	-129.020E-12	268.573E-3	-13.3803E-3
-1.17809E-3	-127.610E-12	219.703E-3	-10.4060E-3	-128.688E-12	269.660E-3	-27.3188E-3
-1.18309E-3	-127.294E-12	224.896E-3	-34.7961E-3	-127.943E-12	267.055E-3	-38.8617E-3
-1.18809E-3	-127.090E-12	243.613E-3	-49.9641E-3	-127.465E-12	269.772E-3	-29.3942E-3
-1.19310E-3	-127.566E-12	259.516E-3	-40.2195E-3	-127.370E-12	281.403E-3	-22.0339E-3
-1.19810E-3	-127.671E-12	255.730E-3	-26.0816E-3	-126.981E-12	288.284E-3	-17.6048E-3
-1.20310E-3	-128.256E-12	252.348E-3	-14.6013E-3	-126.385E-12	286.339E-3	-7.99135E-3
-1.20810E-3	-128.049E-12	259.842E-3	-14.7638E-3	-126.346E-12	281.600E-3	-9.97883E-3
-1.21311E-3	-129.011E-12	266.897E-3	-18.3638E-3	-127.255E-12	279.025E-3	-20.9000E-3
-1.21811E-3	-129.535E-12	276.722E-3	-27.2724E-3	-128.111E-12	281.122E-3	-13.3330E-3
-1.22311E-3	-129.893E-12	273.497E-3	-37.4110E-3	-128.356E-12	280.220E-3	-5.50464E-3
-1.22811E-3	-130.397E-12	262.988E-3	-34.6123E-3	-128.323E-12	284.480E-3	-25.3472E-3
-1.23312E-3	-131.055E-12	277.981E-3	-21.4335E-3	-129.448E-12	292.406E-3	-26.2475E-3
-1.23812E-3	-130.482E-12	298.560E-3	-24.1385E-3	-130.568E-12	289.430E-3	-14.6989E-3
-1.24312E-3	-131.082E-12	299.723E-3	-42.8464E-3	-131.326E-12	301.304E-3	-35.7446E-3
-1.24812E-3	-130.841E-12	305.531E-3	-37.6151E-3	-130.931E-12	323.675E-3	-55.9075E-3
-1.25313E-3	-131.509E-12	310.562E-3	-18.0703E-3	-131.348E-12	334.570E-3	-41.2738E-3
-1.25813E-3	-131.179E-12	302.478E-3	-12.2518E-3	-132.386E-12	337.366E-3	-17.1147E-3
-1.26313E-3	-131.076E-12	306.044E-3	-1.30530E-3	-132.248E-12	332.297E-3	-5.67226E-3
-1.26813E-3	-131.693E-12	315.646E-3	-2.27366E-3	-131.656E-12	337.824E-3	-6.18311E-3
-1.27314E-3	-132.182E-12	320.890E-3	-29.6431E-3	-131.400E-12	354.104E-3	-20.8728E-3
-1.27814E-3	-131.878E-12	338.269E-3	-32.2073E-3	-131.792E-12	358.105E-3	-30.4084E-3
-1.28314E-3	-130.863E-12	339.828E-3	-6.40145E-3	-131.177E-12	353.652E-3	-25.1366E-3
-1.28814E-3	-131.798E-12	320.311E-3	-5.48502E-3	-130.632E-12	355.186E-3	-25.6310E-3
-1.29315E-3	-132.042E-12	332.347E-3	-21.5593E-3	-130.057E-12	358.775E-3	-36.3019E-3
-1.29815E-3	-131.683E-12	361.842E-3	-27.9130E-3	-130.114E-12	379.400E-3	-41.7438E-3
-1.30315E-3	-130.725E-12	356.064E-3	-24.6485E-3	-130.073E-12	408.806E-3	-49.4738E-3
-1.30815E-3	-131.523E-12	345.025E-3	-15.9716E-3	-129.889E-12	414.923E-3	-58.8096E-3
-1.31316E-3	-131.753E-12	360.372E-3	-20.1519E-3	-129.920E-12	409.999E-3	-40.2807E-3
-1.31816E-3	-131.474E-12	375.612E-3	-29.3236E-3	-130.331E-12	408.523E-3	-14.7969E-3
-1.32316E-3	-131.382E-12	377.419E-3	-35.2690E-3	-130.729E-12	412.612E-3	-12.7738E-3
-1.32816E-3	-131.631E-12	374.708E-3	-43.5477E-3	-131.445E-12	422.706E-3	-20.8306E-3
-1.33317E-3	-132.483E-12	385.386E-3	-41.0115E-3	-131.603E-12	420.261E-3	-38.3610E-3
-1.33817E-3	-132.501E-12	405.231E-3	-38.1341E-3	-132.120E-12	387.835E-3	-51.4656E-3
-1.34317E-3	-132.793E-12	396.091E-3	-34.8484E-3	-133.243E-12	368.218E-3	-39.3030E-3
-1.34817E-3	-132.943E-12	382.420E-3	-15.8361E-3	-133.942E-12	396.500E-3	-31.9662E-3
-1.35318E-3	-133.567E-12	406.567E-3	-10.1277E-3	-134.829E-12	432.625E-3	-45.8238E-3
-1.35818E-3	-133.724E-12	433.194E-3	-4.00981E-3	-135.347E-12	455.147E-3	-46.4733E-3
-1.36318E-3	-134.713E-12	430.997E-3	8.21436E-3	-135.445E-12	466.929E-3	-29.3577E-3
-1.36818E-3	-135.154E-12	414.555E-3	580.392E-6	-135.970E-12	457.300E-3	-20.1223E-3
-1.37319E-3	-135.310E-12	417.201E-3	-15.7173E-3	-136.896E-12	442.679E-3	-14.1625E-3
-1.37819E-3	-134.980E-12	448.048E-3	-18.0282E-3	-136.564E-12	452.908E-3	-22.9415E-3
-1.38319E-3	-134.674E-12	466.588E-3	-815.229E-6	-135.993E-12	466.119E-3	-42.4236E-3
-1.38819E-3	-134.785E-12	444.188E-3	5.09500E-3	-135.720E-12	469.480E-3	-19.6388E-3
-1.39320E-3	-134.142E-12	428.176E-3	-8.01275E-3	-135.575E-12	476.512E-3	21.5815E-3
-1.39820E-3	-133.756E-12	432.072E-3	-30.3675E-3	-134.773E-12	469.787E-3	23.3963E-3
-1.40320E-3	-133.384E-12	430.002E-3	-40.4239E-3	-133.715E-12	459.463E-3	2.38526E-3
-1.40820E-3	-133.507E-12	436.179E-3	-28.0391E-3	-133.780E-12	476.383E-3	-9.78051E-3
-1.41321E-3	-133.059E-12	459.434E-3	-25.7131E-3	-133.968E-12	508.939E-3	-7.38492E-3
-1.41821E-3	-132.903E-12	485.054E-3	-22.8256E-3	-133.319E-12	501.514E-3	-7.54953E-3
-1.42321E-3	-132.597E-12	491.883E-3	-4.09432E-3	-133.216E-12	469.406E-3	-15.8338E-3
-1.42821E-3	-132.936E-12	475.996E-3	-8.52599E-3	-133.635E-12	473.681E-3	-9.35036E-3
-1.43322E-3	-133.525E-12	458.250E-3	-20.9386E-3	-134.595E-12	493.511E-3	9.51703E-3
-1.43822E-3	-134.014E-12	468.976E-3	-17.8685E-3	-134.846E-12	498.846E-3	16.8562E-3
-1.44322E-3	-134.790E-12	502.408E-3	-21.2107E-3	-135.392E-12	508.463E-3	-3.52072E-3
-1.44822E-3	-134.831E-12	512.409E-3	-20.7238E-3	-136.093E-12	541.099E-3	-39.0713E-3
-1.45323E-3	-136.435E-12	488.841E-3	-16.6846E-3	-137.239E-12	563.753E-3	-60.5697E-3
-1.45823E-3	-137.277E-12	479.063E-3	-16.9136E-3	-138.199E-12	553.881E-3	-63.8616E-3
-1.46323E-3	-138.304E-12	498.559E-3	-2.50282E-3	-139.152E-12	547.948E-3	-39.3474E-3
-1.46823E-3	-138.971E-12	507.847E-3	-950.631E-6	-139.162E-12	555.373E-3	-11.6323E-3
-1.47324E-3	-139.124E-12	504.258E-3	-23.0053E-3	-139.392E-12	545.788E-3	-13.2443E-3
-1.47824E-3	-139.208E-12	506.232E-3	-18.2198E-3	-139.771E-12	525.802E-3	-10.3288E-3
-1.48324E-3	-139.322E-12	506.853E-3	897.479E-6	-139.793E-12	524.402E-3	-3.29747E-3
-1.48824E-3	-138.893E-12	507.789E-3	-13.0279E-3	-139.083E-12	536.055E-3	-23.3404E-3
-1.49325E-3	-137.639E-12	529.181E-3	-32.8150E-3	-138.209E-12	552.575E-3	-30.3714E-3
-1.49825E-3	-137.411E-12	562.187E-3	-32.1195E-3	-137.418E-12	557.614E-3	-6.25489E-3
-1.50325E-3	-137.412E-12	573.309E-3	-35.4651E-3	-136.660E-12	529.345E-3	-2.54896E-3
-1.50825E-3	-137.227E-12	550.506E-3	-32.8348E-3	-135.676E-12	510.610E-3	-21.9453E-3
-1.51326E-3	-136.407E-12	517.243E-3	-15.6785E-3	-135.236E-12	525.146E-3	-26.1050E-3
-1.51826E-3	-136.752E-12	518.031E-3	-11.2965E-3	-134.737E-12	534.956E-3	-21.2581E-3
-1.52326E-3	-137.433E-12	539.415E-3	-10.0696E-3	-135.109E-12	526.931E-3	-23.7891E-3
-1.52826E-3	-137.437E-12	532.844E-3	1.08332E-3	-135.919E-12	529.594E-3	-23.7852E-3
-1.53327E-3	-137.844E-12	525.163E-3	379.185E-6	-135.870E-12	554.857E-3	-24.5005E-3
-1.53827E-3	-138.087E-12	528.735E-3	-10.6800E-3	-136.410E-12	564.066E-3	-20.7062E-3
-1.54327E-3	-139.062E-12	530.688E-3	-3.77418E-3	-138.046E-12	546.532E-3	-14.5906E-3
-1.54827E-3	-139.815E-12	545.665E-3	3.15133E-3	-139.523E-12	537.314E-3	-12.9864E-3
-1.55328E-3	-140.348E-12	558.011E-3	-10.6808E-3	-139.648E-12	542.501E-3	-15.8122E-3
-1.55828E-3	-140.735E-12	560.690E-3	-18.7978E-3	-140.407E-12	541.952E-3	-15.9546E-3
-1.56328E-3	-141.684E-12	556.407E-3	-14.2463E-3	-141.785E-12	544.247E-3	5.07249E-3
-1.56828E-3	-141.694E-12	556.965E-3	-1.06539E-3	-142.385E-12	559.847E-3	12.8614E-3
-1.57329E-3	-142.304E-12	573.498E-3	1.54667E-3	-142.327E-12	573.066E-3	1.51125E-3
-1.57829E-3	-142.910E-12	580.245E-3	-29.1929E-3	-142.203E-12	572.808E-3	3.88885E-3
-1.58329E-3	-142.811E-12	561.813E-3	-45.0514E-3	-141.446E-12	558.727E-3	2.46810E-3
-1.58829E-3	-142.472E-12	543.508E-3	-17.0298E-3	-140.974E-12	544.205E-3	-3.84788E-3
-1.59330E-3	-142.404E-12	552.607E-3	-3.89985E-3	-140.802E-12	560.456E-3	-24.6061E-6
-1.59830E-3	-142.138E-12	570.568E-3	-15.0359E-3	-139.511E-12	578.542E-3	-1.05513E-3
-1.60330E-3	-141.690E-12	567.567E-3	-20.6244E-3	-139.166E-12	555.052E-3	-16.8423E-3
-1.60830E-3	-141.192E-12	562.139E-3	-26.8420E-3	-139.077E-12	545.091E-3	-29.9774E-3
-1.61331E-3	-141.638E-12	580.977E-3	-18.1366E-3	-139.700E-12	572.993E-3	-28.5898E-3
-1.61831E-3	-142.421E-12	594.305E-3	293.823E-6	-140.150E-12	594.152E-3	-24.0115E-3
-1.62331E-3	-141.919E-12	586.888E-3	2.02107E-3	-140.490E-12	599.209E-3	-22.5545E-3
-1.62831E-3	-141.894E-12	579.733E-3	-3.91051E-3	-141.134E-12	591.321E-3	-26.1678E-3
-1.63332E-3	-142.844E-12	561.718E-3	-7.98565E-3	-141.842E-12	582.751E-3	-25.2041E-3
-1.63832E-3	-143.263E-12	539.029E-3	-15.4457E-3	-143.074E-12	587.427E-3	-17.3800E-3
-1.64332E-3	-142.949E-12	546.952E-3	-8.65642E-3	-144.021E-12	599.357E-3	-26.7593E-3
-1.64832E-3	-143.010E-12	586.335E-3	9.32166E-3	-144.650E-12	615.797E-3	-37.7304E-3
-1.65333E-3	-143.779E-12	616.517E-3	5.52753E-3	-144.700E-12	624.002E-3	-36.2494E-3
-1.65833E-3	-143.514E-12	609.638E-3	-10.9606E-3	-145.657E-12	613.663E-3	-38.6774E-3
-1.66333E-3	-144.297E-12	581.960E-3	-14.8764E-3	-146.471E-12	602.587E-3	-33.2864E-3
-1.66833E-3	-143.889E-12	562.688E-3	-12.4059E-3	-146.122E-12	613.311E-3	-21.0677E-3
-1.67334E-3	-144.598E-12	578.713E-3	-11.3855E-3	-145.788E-12	622.498E-3	-10.5819E-3
-1.67834E-3	-144.314E-12	619.919E-3	-10.2294E-3	-145.791E-12	612.880E-3	-2.87803E-3
-1.68334E-3	-145.202E-12	635.086E-3	-30.0127E-3	-145.330E-12	607.568E-3	-5.99706E-3
-1.68834E-3	-145.122E-12	623.614E-3	-48.4129E-3	-145.005E-12	602.836E-3	-15.8110E-3
-1.69335E-3	-145.536E-12	611.319E-3	-11.5609E-3	-144.838E-12	604.800E-3	-27.0577E-3
-1.69835E-3	-145.889E-12	603.963E-3	22.2326E-3	-144.489E-12	612.552E-3	-26.4267E-3
-1.70335E-3	-145.861E-12	602.336E-3	589.042E-6	-144.260E-12	603.942E-3	-7.20768E-3
-1.70835E-3	-145.785E-12	598.347E-3	-24.0954E-3	-144.769E-12	591.047E-3	8.43958E-3
-1.71336E-3	-146.247E-12	576.239E-3	-18.3686E-3	-145.057E-12	594.736E-3	1.17608E-3
-1.71836E-3	-146.383E-12	545.850E-3	7.27047E-3	-145.048E-12	608.208E-3	-12.5019E-3
-1.72336E-3	-146.375E-12	557.339E-3	13.3306E-3	-145.543E-12	605.399E-3	-8.02270E-3
-1.72836E-3	-146.206E-12	592.098E-3	-7.15730E-3	-146.175E-12	601.402E-3	-5.30098E-3
-1.73337E-3	-146.094E-12	596.632E-3	-21.8097E-3	-146.834E-12	614.089E-3	-21.5947E-3
-1.73837E-3	-145.721E-12	584.040E-3	-19.0343E-3	-146.745E-12	620.084E-3	-27.5161E-3
-1.74337E-3	-145.649E-12	569.124E-3	-2.75549E-3	-147.111E-12	619.739E-3	-17.8026E-3
-1.74837E-3	-145.380E-12	577.735E-3	4.85606E-3	-147.004E-12	614.514E-3	-13.5007E-3
-1.75338E-3	-145.432E-12	596.596E-3	6.65291E-3	-147.561E-12	608.829E-3	-19.6115E-3
-1.75838E-3	-145.118E-12	579.967E-3	2.13635E-3	-147.465E-12	617.852E-3	-23.3882E-3
-1.76338E-3	-145.460E-12	556.396E-3	-13.4086E-3	-148.238E-12	628.656E-3	-32.2017E-3
-1.76838E-3	-145.818E-12	557.059E-3	-2.76114E-3	-147.504E-12	619.558E-3	-40.9932E-3
-1.77339E-3	-146.364E-12	562.855E-3	9.02505E-3	-148.540E-12	603.382E-3	-27.8184E-3
-1.77839E-3	-146.632E-12	561.072E-3	-14.6361E-3	-148.686E-12	595.025E-3	-27.4287E-3
-1.78339E-3	-146.948E-12	559.077E-3	-11.5003E-3	-148.823E-12	581.959E-3	-41.2558E-3
-1.78839E-3	-147.062E-12	559.365E-3	8.42283E-3	-148.358E-12	584.975E-3	-31.2090E-3
-1.79340E-3	-147.990E-12	566.606E-3	-8.90693E-3	-148.690E-12	598.412E-3	-17.4786E-3
-1.79840E-3	-148.351E-12	592.409E-3	-24.0150E-3	-148.968E-12	595.010E-3	-26.6521E-3
-1.80340E-3	-149.277E-12	613.807E-3	-18.7944E-3	-149.271E-12	588.103E-3	-25.3626E-3
-1.80840E-3	-149.338E-12	619.692E-3	-20.8784E-3	-149.062E-12	564.126E-3	-11.6087E-3
-1.81341E-3	-149.728E-12	626.974E-3	-22.1919E-3	-149.108E-12	561.516E-3	-8.02870E-3
-1.81841E-3	-149.829E-12	625.632E-3	-21.8044E-3	-149.290E-12	600.724E-3	2.74050E-3
-1.82341E-3	-150.108E-12	623.954E-3	-29.7565E-3	-149.249E-12	623.309E-3	12.2822E-3
-1.82841E-3	-150.337E-12	635.234E-3	-21.8306E-3	-149.367E-12	628.022E-3	4.88271E-3
-1.83342E-3	-150.636E-12	646.577E-3	-12.2822E-3	-149.322E-12	615.977E-3	-2.47758E-3
-1.83842E-3	-150.626E-12	645.574E-3	-15.3146E-3	-148.827E-12	591.885E-3	-1.57298E-3
-1.84342E-3	-149.798E-12	632.466E-3	-9.14696E-3	-149.516E-12	584.642E-3	6.65942E-3
-1.84842E-3	-149.962E-12	600.188E-3	-3.77569E-3	-149.442E-12	591.998E-3	11.7046E-3
-1.85343E-3	-150.232E-12	567.663E-3	-13.7137E-3	-150.065E-12	614.902E-3	13.6348E-3
-1.85843E-3	-150.246E-12	571.130E-3	-14.9146E-3	-149.575E-12	628.592E-3	12.7498E-3
-1.86343E-3	-150.061E-12	585.043E-3	8.54095E-3	-150.292E-12	612.041E-3	-4.91431E-3
-1.86843E-3	-150.976E-12	595.941E-3	13.8488E-3	-151.079E-12	616.997E-3	-24.6854E-3
-1.87344E-3	-151.732E-12	615.059E-3	-4.58037E-3	-152.263E-12	657.596E-3	-43.2720E-3
-1.87844E-3	-152.199E-12	616.297E-3	-6.43835E-3	-151.783E-12	666.540E-3	-44.9974E-3
-1.88344E-3	-153.055E-12	605.068E-3	-16.2662E-3	-151.922E-12	629.042E-3	-21.4118E-3
-1.88844E-3	-154.100E-12	606.238E-3	-45.4005E-3	-153.424E-12	600.101E-3	-18.1051E-3
-1.89345E-3	-155.184E-12	616.424E-3	-50.4001E-3	-154.389E-12	592.821E-3	-29.3964E-3
-1.89845E-3	-155.402E-12	633.644E-3	-31.7529E-3	-154.900E-12	598.093E-3	-31.3032E-3
-1.90345E-3	-156.386E-12	649.138E-3	-9.29415E-3	-154.042E-12	613.964E-3	-24.6929E-3
-1.90845E-3	-156.183E-12	646.105E-3	300.833E-6	-153.966E-12	622.830E-3	-4.35944E-3
-1.91346E-3	-156.489E-12	622.389E-3	-16.5771E-3	-154.011E-12	625.721E-3	2.19314E-3
-1.91846E-3	-156.592E-12	595.383E-3	-31.3737E-3	-153.878E-12	617.555E-3	-28.1304E-3
-1.92346E-3	-156.164E-12	592.430E-3	-30.9424E-3	-153.375E-12	601.807E-3	-44.7644E-3
-1.92846E-3	-156.674E-12	610.703E-3	-26.6353E-3	-152.979E-12	619.147E-3	-32.4292E-3
-1.93347E-3	-155.601E-12	622.621E-3	-24.1641E-3	-153.077E-12	649.805E-3	-39.1563E-3
-1.93847E-3	-155.515E-12	623.530E-3	-21.9290E-3	-153.324E-12	636.997E-3	-48.0099E-3
-1.94347E-3	-154.835E-12	619.001E-3	-31.1001E-3	-153.811E-12	624.465E-3	-44.6055E-3
-1.94847E-3	-155.082E-12	616.153E-3	-45.2973E-3	-153.888E-12	645.417E-3	-38.2058E-3
-1.95348E-3	-154.547E-12	621.298E-3	-25.9204E-3	-154.639E-12	640.692E-3	-13.6076E-3
-1.95848E-3	-154.466E-12	618.402E-3	-554.949E-6	-155.445E-12	617.642E-3	12.6993E-3
-1.96348E-3	-154.800E-12	609.004E-3	-18.9489E-3	-156.670E-12	618.248E-3	8.95435E-3
-1.96848E-3	-155.944E-12	600.006E-3	-51.7273E-3	-157.584E-12	621.541E-3	-12.8316E-3
-1.97349E-3	-155.588E-12	603.233E-3	-50.6471E-3	-158.172E-12	612.144E-3	-22.9692E-3
-1.97849E-3	-156.226E-12	622.900E-3	-28.0463E-3	-159.167E-12	622.644E-3	-31.0949E-3
-1.98349E-3	-156.391E-12	625.316E-3	-2.04282E-3	-159.071E-12	653.880E-3	-42.5821E-3
-1.98849E-3	-157.381E-12	620.599E-3	7.74818E-3	-159.286E-12	663.082E-3	-33.3563E-3
-1.99350E-3	-157.715E-12	628.035E-3	-2.76517E-3	-159.190E-12	649.018E-3	-23.4870E-3
-1.99850E-3	-158.170E-12	624.312E-3	4.70661E-3	-159.239E-12	633.416E-3	-32.3290E-3
-2.00350E-3	-158.333E-12	610.484E-3	9.36067E-3	-157.846E-12	628.390E-3	-28.8405E-3
-2.00850E-3	-158.071E-12	616.420E-3	-9.27854E-3	-157.773E-12	641.695E-3	-22.1260E-3
-2.01351E-3	-157.968E-12	641.877E-3	-11.5647E-3	-156.624E-12	640.884E-3	-30.7909E-3
-2.01851E-3	-157.078E-12	655.536E-3	3.49545E-3	-155.582E-12	609.026E-3	-34.7051E-3
-2.02351E-3	-157.277E-12	654.148E-3	5.72211E-3	-154.322E-12	599.916E-3	-29.0878E-3
-2.02851E-3	-156.459E-12	651.831E-3	-8.03553E-3	-155.392E-12	629.075E-3	-15.5076E-3
-2.03352E-3	-155.637E-12	648.330E-3	-16.8266E-3	-155.021E-12	652.713E-3	11.5171E-3
-2.03852E-3	-155.899E-12	638.761E-3	-24.3286E-3	-155.471E-12	655.061E-3	26.9673E-3
-2.04352E-3	-156.599E-12	630.525E-3	-31.0943E-3	-155.467E-12	635.704E-3	2.40139E-3
-2.04852E-3	-157.273E-12	626.637E-3	-20.1172E-3	-156.655E-12	629.460E-3	-32.2177E-3
-2.05353E-3	-157.557E-12	616.686E-3	-16.1674E-3	-158.078E-12	659.739E-3	-42.0558E-3
-2.05853E-3	-157.342E-12	613.384E-3	-28.7987E-3	-159.662E-12	683.022E-3	-32.7525E-3
-2.06353E-3	-157.614E-12	610.067E-3	-41.8842E-3	-160.049E-12	666.377E-3	-10.4621E-3
-2.06853E-3	-158.568E-12	604.185E-3	-37.4421E-3	-160.729E-12	643.576E-3	8.79476E-3
-2.07354E-3	-159.786E-12	611.708E-3	-21.1845E-3	-162.523E-12	652.843E-3	3.48120E-3
-2.07854E-3	-159.449E-12	619.366E-3	-16.4389E-3	-162.480E-12	658.307E-3	-11.2040E-3
-2.08354E-3	-159.921E-12	625.289E-3	-14.3955E-3	-162.557E-12	648.954E-3	-25.8726E-3
-2.08854E-3	-160.647E-12	628.101E-3	-18.1498E-3	-161.574E-12	636.266E-3	-37.8901E-3
-2.09355E-3	-161.185E-12	639.962E-3	-34.5738E-3	-160.893E-12	621.927E-3	-44.6143E-3
-2.09855E-3	-161.083E-12	661.896E-3	-42.5182E-3	-161.294E-12	625.688E-3	-46.3118E-3
-2.10355E-3	-160.792E-12	668.324E-3	-25.9359E-3	-161.023E-12	635.665E-3	-35.2155E-3
-2.10855E-3	-161.680E-12	671.871E-3	-5.89973E-3	-160.200E-12	648.661E-3	-29.6756E-3
-2.11356E-3	-162.027E-12	683.826E-3	1.94630E-3	-159.198E-12	663.748E-3	-36.3762E-3
-2.11856E-3	-162.001E-12	697.583E-3	1.35105E-3	-159.602E-12	666.407E-3	-43.5070E-3
-2.12356E-3	-162.055E-12	699.012E-3	3.22076E-3	-160.013E-12	662.841E-3	-31.4861E-3
-2.12856E-3	-161.668E-12	676.149E-3	15.1703E-3	-160.104E-12	655.490E-3	-11.5082E-3
-2.13357E-3	-162.776E-12	665.544E-3	12.8360E-3	-159.661E-12	644.311E-3	-9.41940E-3
-2.13857E-3	-163.935E-12	669.580E-3	-3.12298E-3	-160.806E-12	642.745E-3	-8.49043E-3
-2.14357E-3	-163.916E-12	650.434E-3	-5.27361E-3	-162.220E-12	659.173E-3	-8.92203E-3
-2.14857E-3	-163.575E-12	633.550E-3	7.77302E-3	-163.616E-12	663.727E-3	-9.56035E-3
-2.15358E-3	-164.610E-12	642.290E-3	16.7882E-3	-164.706E-12	653.439E-3	4.87539E-3
-2.15858E-3	-166.152E-12	651.717E-3	18.3550E-3	-165.313E-12	668.452E-3	9.13330E-3
-2.16358E-3	-166.571E-12	639.477E-3	12.8232E-3	-166.247E-12	688.361E-3	-6.29268E-3
-2.16858E-3	-164.956E-12	628.575E-3	-1.28831E-3	-167.448E-12	687.248E-3	-12.6481E-3
-2.17359E-3	-165.085E-12	648.311E-3	-13.8755E-3	-167.985E-12	676.164E-3	-5.57309E-3
-2.17859E-3	-166.554E-12	672.793E-3	-9.94857E-3	-168.466E-12	659.451E-3	-9.84935E-3
-2.18359E-3	-167.397E-12	676.784E-3	-7.62280E-3	-168.907E-12	656.353E-3	-14.1791E-3
-2.18859E-3	-166.077E-12	676.278E-3	-28.8366E-3	-168.771E-12	676.902E-3	1.83988E-3
-2.19360E-3	-166.198E-12	674.996E-3	-37.8751E-3	-169.119E-12	683.230E-3	1.06177E-3
-2.19860E-3	-166.700E-12	667.107E-3	-22.6881E-3	-168.302E-12	668.818E-3	-17.0702E-3
-2.20360E-3	-167.177E-12	674.707E-3	-5.38681E-3	-167.688E-12	662.499E-3	-16.8671E-3
-2.20860E-3	-166.197E-12	702.100E-3	-6.92920E-3	-166.711E-12	657.591E-3	-21.9764E-3
-2.21361E-3	-166.513E-12	703.403E-3	-20.3109E-3	-166.493E-12	654.194E-3	-22.2593E-3
-2.21861E-3	-166.381E-12	680.101E-3	-24.3333E-3	-166.145E-12	677.135E-3	-15.0541E-3
-2.22361E-3	-166.784E-12	675.408E-3	-11.7101E-3	-166.069E-12	680.220E-3	-38.1656E-3
-2.22861E-3	-167.001E-12	682.610E-3	11.5036E-3	-166.014E-12	645.542E-3	-41.3789E-3
-2.23362E-3	-168.085E-12	683.128E-3	1.46189E-3	-166.486E-12	642.832E-3	-12.3393E-3
-2.23862E-3	-167.434E-12	688.669E-3	-30.8638E-3	-167.259E-12	667.016E-3	-11.6761E-3
-2.24362E-3	-168.200E-12	688.918E-3	-42.0035E-3	-168.062E-12	666.887E-3	-26.3836E-3
-2.24862E-3	-168.997E-12	682.336E-3	-50.8068E-3	-168.843E-12	646.762E-3	-30.2253E-3
-2.25363E-3	-169.321E-12	681.669E-3	-46.6878E-3	-169.069E-12	654.582E-3	-32.1373E-3
-2.25863E-3	-168.428E-12	669.973E-3	-20.1022E-3	-169.929E-12	667.185E-3	-25.6993E-3
-2.26363E-3	-167.932E-12	659.583E-3	-15.0211E-3	-170.538E-12	652.439E-3	-7.67637E-3
-2.26863E-3	-169.022E-12	658.004E-3	-10.9255E-3	-170.022E-12	643.092E-3	-13.7493E-3
-2.27364E-3	-168.928E-12	643.173E-3	7.71431E-3	-169.852E-12	639.389E-3	-46.6752E-3
-2.27864E-3	-167.965E-12	622.788E-3	-5.49459E-3	-171.026E-12	651.336E-3	-59.9806E-3
-2.28364E-3	-166.906E-12	622.363E-3	-18.5736E-3	-171.810E-12	679.901E-3	-47.5905E-3
-2.28864E-3	-168.185E-12	634.215E-3	-3.80959E-3	-171.748E-12	677.050E-3	-35.4950E-3
-2.29365E-3	-168.816E-12	648.415E-3	-12.2799E-3	-171.504E-12	642.467E-3	-29.3214E-3
-2.29865E-3	-168.273E-12	665.295E-3	-35.3328E-3	-171.513E-12	634.426E-3	-12.7610E-3
-2.30365E-3	-167.242E-12	660.327E-3	-26.4288E-3	-171.090E-12	643.099E-3	-12.2810E-3
-2.30865E-3	-168.119E-12	648.096E-3	-8.35649E-3	-170.499E-12	629.587E-3	-40.9714E-3
-2.31366E-3	-169.695E-12	656.891E-3	-9.99321E-3	-169.242E-12	611.460E-3	-48.6520E-3
-2.31866E-3	-169.389E-12	661.790E-3	-16.2744E-3	-168.752E-12	607.451E-3	-20.5370E-3
-2.32366E-3	-169.554E-12	647.217E-3	-26.6720E-3	-168.297E-12	627.642E-3	8.80756E-3
-2.32866E-3	-169.557E-12	657.070E-3	-45.9394E-3	-168.096E-12	658.472E-3	2.36401E-3
-2.33367E-3	-170.825E-12	682.848E-3	-46.2027E-3	-167.894E-12	656.059E-3	-25.2232E-3
-2.33867E-3	-171.441E-12	677.273E-3	-23.1455E-3	-168.569E-12	644.737E-3	-20.8339E-3
-2.34367E-3	-171.288E-12	660.961E-3	3.50981E-3	-168.629E-12	674.787E-3	9.76875E-3
-2.34867E-3	-170.956E-12	655.947E-3	15.0554E-3	-169.024E-12	696.121E-3	17.9401E-3
-2.35368E-3	-170.746E-12	645.039E-3	-4.99118E-3	-169.784E-12	684.429E-3	-7.15849E-3
-2.35868E-3	-170.848E-12	652.791E-3	-4.71103E-3	-171.465E-12	692.455E-3	-27.2988E-3
-2.36368E-3	-170.544E-12	684.592E-3	28.1058E-3	-172.103E-12	694.237E-3	-31.7921E-3
-2.36868E-3	-169.714E-12	679.129E-3	25.6884E-3	-172.397E-12	683.574E-3	-32.3647E-3
-2.37369E-3	-169.388E-12	658.467E-3	1.16044E-3	-173.483E-12	707.188E-3	-19.7088E-3
-2.37869E-3	-169.765E-12	662.953E-3	-3.59377E-3	-174.484E-12	712.816E-3	-7.21742E-3
-2.38369E-3	-170.591E-12	658.963E-3	-20.7875E-3	-175.299E-12	684.197E-3	-2.02370E-3
-2.38869E-3	-170.223E-12	646.278E-3	-45.2290E-3	-175.489E-12	682.421E-3	-6.76645E-3
-2.39370E-3	-170.659E-12	659.521E-3	-33.1447E-3	-176.650E-12	692.343E-3	-10.9717E-3
-2.39870E-3	-172.694E-12	669.844E-3	-18.1802E-3	-176.808E-12	685.524E-3	2.04473E-3
-2.40370E-3	-173.878E-12	645.570E-3	-18.9199E-3	-177.153E-12	670.628E-3	11.3698E-3
-2.40870E-3	-174.439E-12	633.160E-3	-5.79219E-3	-177.105E-12	664.907E-3	11.6185E-3
-2.41371E-3	-175.707E-12	651.846E-3	429.740E-6	-177.087E-12	674.798E-3	18.5299E-3
-2.41871E-3	-176.722E-12	680.820E-3	-2.15120E-3	-176.381E-12	679.150E-3	22.2537E-3
-2.42371E-3	-177.733E-12	703.410E-3	-6.03870E-3	-175.520E-12	670.954E-3	6.84147E-3
-2.42871E-3	-178.093E-12	700.339E-3	-12.4884E-3	-175.644E-12	655.191E-3	-12.0410E-3
-2.43372E-3	-178.847E-12	677.078E-3	-18.4529E-3	-175.649E-12	649.071E-3	-24.5457E-3
-2.43872E-3	-178.822E-12	677.338E-3	-18.0153E-3	-175.250E-12	652.703E-3	-40.7072E-3
-2.44372E-3	-178.966E-12	709.890E-3	-3.74868E-3	-175.010E-12	661.360E-3	-24.8815E-3
-2.44872E-3	-179.846E-12	719.870E-3	-5.44043E-3	-175.928E-12	677.753E-3	4.54854E-3
-2.45373E-3	-179.348E-12	699.757E-3	-29.2219E-3	-175.987E-12	672.853E-3	-14.2509E-3
-2.45873E-3	-178.672E-12	675.358E-3	-24.5640E-3	-175.741E-12	654.115E-3	-30.2834E-3
-2.46373E-3	-177.164E-12	654.636E-3	15.5594E-3	-177.464E-12	669.531E-3	-16.2809E-3
-2.46873E-3	-178.121E-12	651.824E-3	38.0468E-3	-178.331E-12	681.803E-3	-8.40932E-3
-2.47374E-3	-176.909E-12	655.852E-3	33.6569E-3	-179.418E-12	667.998E-3	-19.6571E-3
-2.47874E-3	-178.052E-12	658.130E-3	11.0511E-3	-179.748E-12	684.386E-3	-42.0049E-3
-2.48374E-3	-177.244E-12	644.174E-3	-2.15729E-3	-181.348E-12	693.232E-3	-39.2410E-3
-2.48874E-3	-177.657E-12	617.209E-3	7.67241E-3	-182.564E-12	659.240E-3	-16.1808E-3
-2.49375E-3	-179.100E-12	620.921E-3	4.21619E-3	-184.216E-12	671.552E-3	-9.04843E-3
-2.49875E-3	-180.512E-12	648.854E-3	890.835E-6	-185.109E-12	708.254E-3	-16.7439E-3
-2.50375E-3	-181.338E-12	668.247E-3	-2.70632E-3	-185.388E-12	685.448E-3	-8.27967E-3
-2.50875E-3	-181.712E-12	670.842E-3	-13.4437E-3	-186.194E-12	676.342E-3	23.6790E-3
-2.51376E-3	-182.239E-12	670.801E-3	-6.55160E-3	-185.464E-12	700.925E-3	28.6091E-3
-2.51876E-3	-183.932E-12	684.952E-3	4.01708E-3	-185.359E-12	679.388E-3	6.22207E-3
-2.52376E-3	-184.996E-12	702.040E-3	5.82840E-3	-183.426E-12	642.521E-3	10.3912E-3
-2.52876E-3	-184.393E-12	684.574E-3	-1.44686E-3	-182.647E-12	643.067E-3	13.4823E-3
-2.53377E-3	-182.940E-12	637.403E-3	-19.6002E-3	-181.328E-12	639.767E-3	-12.1056E-3
-2.53877E-3	-183.754E-12	629.136E-3	-35.5874E-3	-180.607E-12	625.384E-3	-28.0492E-3
-2.54377E-3	-184.391E-12	665.105E-3	-34.8152E-3	-179.058E-12	645.144E-3	-25.7770E-3
-2.54877E-3	-183.443E-12	670.143E-3	-20.8280E-3	-178.733E-12	661.442E-3	-3.20132E-3
-2.55378E-3	-182.157E-12	655.972E-3	-2.93003E-3	-178.610E-12	656.091E-3	7.13350E-3
-2.55878E-3	-182.190E-12	681.084E-3	2.95715E-3	-178.468E-12	685.184E-3	-26.2209E-3
-2.56378E-3	-181.961E-12	702.687E-3	-13.6014E-3	-178.810E-12	714.718E-3	-40.2901E-3
-2.56878E-3	-181.323E-12	683.922E-3	-29.9817E-3	-179.871E-12	705.208E-3	-2.38868E-3
-2.57379E-3	-180.202E-12	665.915E-3	-30.8845E-3	-181.437E-12	708.679E-3	17.4198E-3
-2.57879E-3	-180.914E-12	664.024E-3	-24.1289E-3	-183.280E-12	701.219E-3	-8.50631E-3
-2.58379E-3	-181.821E-12	660.169E-3	-22.6846E-3	-184.410E-12	659.681E-3	-14.5723E-3
-2.58879E-3	-182.159E-12	664.193E-3	-26.9773E-3	-185.824E-12	665.599E-3	-15.7854E-3
-2.59380E-3	-182.562E-12	680.595E-3	-27.7917E-3	-186.709E-12	696.609E-3	-41.6696E-3
-2.59880E-3	-183.242E-12	688.112E-3	-37.3530E-3	-187.083E-12	695.080E-3	-30.1899E-3
-2.60380E-3	-183.946E-12	678.533E-3	-45.7387E-3	-187.209E-12	690.174E-3	-6.15442E-3
-2.60880E-3	-184.035E-12	664.338E-3	-25.2713E-3	-187.124E-12	669.051E-3	-16.6115E-3
-2.61381E-3	-184.612E-12	652.790E-3	4.97745E-3	-186.851E-12	643.964E-3	-25.6199E-3
-2.61881E-3	-184.299E-12	648.497E-3	4.65022E-3	-185.583E-12	661.133E-3	-34.4251E-3
-2.62381E-3	-184.358E-12	663.025E-3	-16.1618E-3	-183.910E-12	666.729E-3	-28.8805E-3
-2.62881E-3	-183.902E-12	676.285E-3	-18.5487E-3	-182.847E-12	638.098E-3	-7.22311E-3
-2.63382E-3	-184.483E-12	666.802E-3	-18.2610E-3	-181.871E-12	621.507E-3	-3.85883E-3
-2.63882E-3	-184.120E-12	671.130E-3	-35.4554E-3	-180.599E-12	614.906E-3	-19.9604E-3
-2.64382E-3	-184.407E-12	694.187E-3	-30.6460E-3	-179.618E-12	629.271E-3	-20.4127E-3
-2.64882E-3	-184.771E-12	696.344E-3	-10.9119E-3	-179.297E-12	664.570E-3	-14.0899E-3
-2.65383E-3	-185.680E-12	679.269E-3	497.384E-6	-179.031E-12	675.513E-3	-42.6939E-3
-2.65883E-3	-185.119E-12	667.852E-3	6.13865E-3	-179.189E-12	657.696E-3	-58.6230E-3
-2.66383E-3	-184.897E-12	654.098E-3	-9.00835E-3	-179.943E-12	653.231E-3	-44.9560E-3
-2.66883E-3	-185.896E-12	643.299E-3	-22.0979E-3	-180.705E-12	647.755E-3	-49.5984E-3
-2.67384E-3	-186.708E-12	654.081E-3	-22.3508E-3	-182.354E-12	638.107E-3	-42.8265E-3
-2.67884E-3	-186.382E-12	661.043E-3	-16.2007E-3	-183.764E-12	654.005E-3	-19.2492E-3
-2.68384E-3	-185.976E-12	673.459E-3	-13.7299E-3	-186.093E-12	659.225E-3	-9.67412E-3
-2.68884E-3	-186.887E-12	683.490E-3	-22.7851E-3	-187.523E-12	661.421E-3	3.71621E-3
-2.69385E-3	-187.533E-12	677.857E-3	-17.9046E-3	-189.301E-12	687.992E-3	4.42258E-3
-2.69885E-3	-187.459E-12	702.398E-3	212.097E-6	-190.681E-12	695.323E-3	-17.2140E-3
-2.70385E-3	-186.887E-12	718.857E-3	5.16295E-3	-191.001E-12	685.824E-3	-14.7885E-3
-2.70885E-3	-187.373E-12	706.527E-3	-8.82436E-3	-191.957E-12	695.575E-3	5.81646E-3
-2.71386E-3	-187.457E-12	695.252E-3	-21.0926E-3	-192.139E-12	687.232E-3	-8.10118E-3
-2.71886E-3	-187.751E-12	692.205E-3	-23.9046E-3	-191.723E-12	648.856E-3	-19.6049E-3
-2.72386E-3	-187.731E-12	706.060E-3	-10.7078E-3	-191.667E-12	647.808E-3	-3.60600E-3
-2.72886E-3	-188.563E-12	702.394E-3	10.3014E-3	-190.906E-12	681.539E-3	-17.8551E-3
-2.73387E-3	-188.329E-12	678.566E-3	5.63630E-3	-190.629E-12	691.558E-3	-37.6619E-3
-2.73887E-3	-189.233E-12	677.244E-3	-8.83388E-3	-190.009E-12	681.709E-3	-30.9828E-3
-2.74387E-3	-190.017E-12	691.675E-3	1.77589E-3	-189.675E-12	678.460E-3	-26.0765E-3
-2.74887E-3	-191.315E-12	695.092E-3	2.58641E-3	-188.642E-12	666.173E-3	-10.8830E-3
-2.75388E-3	-191.723E-12	703.872E-3	-21.4625E-3	-188.552E-12	641.030E-3	3.96256E-3
-2.75888E-3	-193.082E-12	711.906E-3	-10.4400E-3	-188.760E-12	633.346E-3	-26.3935E-3
-2.76388E-3	-193.828E-12	701.608E-3	5.14545E-3	-189.534E-12	647.722E-3	-49.0825E-3
-2.76888E-3	-193.535E-12	692.559E-3	-12.9352E-3	-190.466E-12	660.128E-3	-33.4154E-3
-2.77389E-3	-192.564E-12	684.266E-3	-17.9147E-3	-191.534E-12	673.414E-3	-43.8337E-3
-2.77889E-3	-193.928E-12	674.209E-3	-17.9643E-3	-192.638E-12	690.257E-3	-43.3860E-3
-2.78389E-3	-194.212E-12	679.793E-3	-6.18738E-3	-193.750E-12	696.860E-3	1.93942E-3
-2.78889E-3	-192.569E-12	678.811E-3	19.3504E-3	-195.079E-12	708.210E-3	26.8563E-3
-2.79390E-3	-191.323E-12	668.729E-3	2.53143E-3	-195.994E-12	723.986E-3	18.4019E-3
-2.79890E-3	-191.736E-12	671.636E-3	-32.2349E-3	-196.664E-12	714.444E-3	2.96357E-3
-2.80390E-3	-191.539E-12	656.173E-3	-22.2799E-3	-198.304E-12	691.364E-3	-16.0515E-3
-2.80890E-3	-189.384E-12	631.574E-3	-18.3334E-3	-197.824E-12	682.736E-3	-24.4274E-3
-2.81391E-3	-189.248E-12	644.394E-3	-38.1552E-3	-198.836E-12	688.723E-3	-23.8318E-3
-2.81891E-3	-189.620E-12	670.795E-3	-27.1663E-3	-198.897E-12	694.257E-3	-44.9715E-3
-2.82391E-3	-191.068E-12	680.537E-3	4.68305E-3	-199.009E-12	683.319E-3	-69.5226E-3
-2.82891E-3	-191.308E-12	673.584E-3	19.2561E-3	-197.909E-12	684.689E-3	-54.0872E-3
-2.83392E-3	-192.310E-12	656.036E-3	13.1718E-3	-198.407E-12	696.206E-3	-14.1076E-3
-2.83892E-3	-193.562E-12	640.935E-3	14.0963E-3	-197.307E-12	672.070E-3	806.999E-6
-2.84392E-3	-195.440E-12	644.344E-3	-3.98528E-3	-196.583E-12	654.884E-3	1.38840E-3
-2.84892E-3	-197.639E-12	663.567E-3	-33.2100E-3	-196.157E-12	688.190E-3	-2.85073E-3
-2.85393E-3	-198.666E-12	694.803E-3	-21.8813E-3	-195.184E-12	711.889E-3	-9.07172E-3
-2.85893E-3	-199.239E-12	731.591E-3	-27.3649E-3	-194.164E-12	702.645E-3	-2.71936E-3
-2.86393E-3	-200.493E-12	733.401E-3	-60.1849E-3	-193.542E-12	690.135E-3	-11.2953E-3
-2.86893E-3	-201.228E-12	700.821E-3	-60.5988E-3	-193.696E-12	671.605E-3	-29.5623E-3
-2.87394E-3	-200.766E-12	686.621E-3	-44.9943E-3	-192.902E-12	669.361E-3	-17.8849E-3
-2.87894E-3	-199.250E-12	706.721E-3	-24.0336E-3	-192.258E-12	696.412E-3	-6.69925E-3
-2.88394E-3	-198.530E-12	719.319E-3	1.64856E-3	-192.194E-12	700.390E-3	-27.5031E-3
-2.88894E-3	-197.569E-12	705.995E-3	5.74560E-3	-193.436E-12	684.150E-3	-48.9188E-3
-2.89395E-3	-197.109E-12	688.044E-3	-2.47557E-3	-193.968E-12	678.347E-3	-56.3922E-3
-2.89895E-3	-194.875E-12	670.396E-3	3.87544E-3	-194.547E-12	670.351E-3	-60.1759E-3
-2.90395E-3	-193.778E-12	670.667E-3	14.0475E-3	-195.403E-12	687.241E-3	-51.8227E-3
-2.90895E-3	-194.556E-12	693.263E-3	16.8633E-3	-196.733E-12	717.499E-3	-33.5409E-3
-2.91396E-3	-195.003E-12	712.300E-3	19.9878E-3	-198.178E-12	710.618E-3	-30.2103E-3
-2.91896E-3	-194.183E-12	703.529E-3	14.5263E-3	-199.166E-12	698.120E-3	-19.9109E-3
-2.92396E-3	-195.422E-12	679.362E-3	-6.28153E-3	-199.919E-12	698.722E-3	-10.2684E-3
-2.92896E-3	-196.863E-12	667.089E-3	-31.7889E-3	-200.958E-12	673.646E-3	-28.8176E-3
-2.93397E-3	-197.477E-12	660.441E-3	-38.0853E-3	-201.163E-12	653.796E-3	-31.5466E-3
-2.93897E-3	-198.986E-12	681.584E-3	-33.1708E-3	-200.705E-12	678.180E-3	-11.6108E-3
-2.94397E-3	-200.163E-12	713.180E-3	-14.5661E-3	-199.845E-12	691.048E-3	-722.046E-6
-2.94897E-3	-200.753E-12	703.641E-3	2.79649E-3	-198.819E-12	670.203E-3	9.54316E-3
-2.95398E-3	-202.009E-12	685.769E-3	-31.8038E-3	-198.071E-12	669.236E-3	5.25528E-3
-2.95898E-3	-202.649E-12	680.180E-3	-71.3568E-3	-197.056E-12	682.522E-3	-9.44706E-3
-2.96398E-3	-204.258E-12	677.427E-3	-60.7581E-3	-196.448E-12	673.167E-3	17.5002E-3
-2.96898E-3	-203.093E-12	700.458E-3	-42.2944E-3	-195.286E-12	674.093E-3	31.3569E-3
-2.97399E-3	-203.316E-12	723.350E-3	-44.3111E-3	-194.931E-12	672.149E-3	-7.98873E-3
-2.97899E-3	-202.937E-12	710.763E-3	-31.1645E-3	-194.794E-12	643.447E-3	-17.4244E-3
-2.98399E-3	-203.178E-12	698.830E-3	7.29608E-3	-194.941E-12	651.684E-3	-3.18257E-3
-2.98899E-3	-201.869E-12	714.171E-3	45.5989E-3	-196.030E-12	674.575E-3	-14.5925E-3
-2.99400E-3	-201.001E-12	729.214E-3	35.8142E-3	-196.668E-12	671.027E-3	-27.2480E-3
-2.99900E-3	-200.676E-12	700.935E-3	-11.0492E-3	-198.022E-12	698.843E-3	-27.0137E-3
-3.00400E-3	-201.111E-12	660.440E-3	-38.8520E-3	-199.557E-12	727.243E-3	-27.0020E-3
-3.00900E-3	-200.998E-12	662.576E-3	-42.0689E-3	-202.040E-12	702.522E-3	-23.2747E-3
-3.01401E-3	-200.240E-12	686.885E-3	-38.0446E-3	-203.930E-12	692.489E-3	-7.27689E-3
-3.01901E-3	-201.100E-12	698.798E-3	-24.8230E-3	-206.303E-12	689.830E-3	-16.5728E-3
-3.02401E-3	-202.181E-12	694.532E-3	-27.0336E-3	-207.090E-12	660.816E-3	-34.8667E-3
-3.02901E-3	-202.464E-12	692.145E-3	-57.2593E-3	-208.616E-12	672.882E-3	-11.2403E-3
-3.03402E-3	-203.119E-12	693.543E-3	-52.6533E-3	-209.791E-12	729.844E-3	-377.912E-6
-3.03902E-3	-203.290E-12	671.257E-3	-4.09234E-3	-210.091E-12	756.560E-3	-9.16769E-3
-3.04402E-3	-205.594E-12	655.438E-3	19.2554E-3	-209.350E-12	731.350E-3	-6.52630E-3
-3.04902E-3	-205.821E-12	683.690E-3	8.06553E-3	-208.958E-12	700.467E-3	-23.7955E-3
-3.05403E-3	-206.889E-12	694.972E-3	-2.32284E-3	-208.070E-12	683.113E-3	-35.4046E-3
-3.05903E-3	-207.422E-12	678.531E-3	-16.6644E-3	-206.951E-12	681.861E-3	-17.6507E-3
-3.06403E-3	-207.831E-12	690.960E-3	-30.2542E-3	-205.434E-12	659.607E-3	-16.7153E-3
-3.06903E-3	-208.040E-12	712.607E-3	-19.0773E-3	-204.605E-12	609.569E-3	-52.3118E-3
-3.07404E-3	-208.384E-12	707.831E-3	3.28058E-3	-203.292E-12	617.653E-3	-74.1625E-3
-3.07904E-3	-207.980E-12	679.401E-3	11.4223E-3	-203.104E-12	664.998E-3	-63.6312E-3
-3.08404E-3	-207.823E-12	668.568E-3	6.85941E-3	-203.316E-12	666.640E-3	-53.8688E-3
-3.08904E-3	-207.977E-12	698.599E-3	7.91137E-3	-203.517E-12	653.496E-3	-37.8208E-3
-3.09405E-3	-207.631E-12	707.907E-3	18.2052E-3	-203.938E-12	669.260E-3	-21.3995E-3
-3.09905E-3	-207.460E-12	689.244E-3	12.0432E-3	-206.061E-12	682.758E-3	-13.0414E-3
-3.10405E-3	-207.216E-12	692.048E-3	-6.48648E-3	-208.010E-12	685.283E-3	6.39408E-3
-3.10905E-3	-206.251E-12	706.669E-3	-29.0145E-3	-209.824E-12	686.573E-3	4.04814E-3
-3.11406E-3	-206.960E-12	702.914E-3	-48.5610E-3	-210.838E-12	679.216E-3	-23.9448E-3
-3.11906E-3	-207.081E-12	686.750E-3	-26.0453E-3	-213.054E-12	693.575E-3	-24.6265E-3
-3.12406E-3	-206.641E-12	676.564E-3	5.51491E-3	-215.084E-12	706.376E-3	4.15915E-6
-3.12906E-3	-206.118E-12	666.518E-3	-14.3519E-3	-215.322E-12	695.970E-3	6.00978E-3
-3.13407E-3	-206.461E-12	667.206E-3	-39.7378E-3	-216.591E-12	699.220E-3	10.4476E-3
-3.13907E-3	-206.970E-12	676.820E-3	-24.0110E-3	-216.327E-12	702.751E-3	-452.045E-6
-3.14407E-3	-206.599E-12	688.142E-3	-2.41086E-3	-216.521E-12	701.930E-3	-43.2676E-3
-3.14907E-3	-206.732E-12	707.909E-3	-4.97126E-3	-214.222E-12	697.954E-3	-50.2811E-3
-3.15408E-3	-207.056E-12	719.674E-3	-23.4004E-3	-213.227E-12	672.587E-3	-44.9860E-3
-3.15908E-3	-207.869E-12	712.674E-3	-27.9829E-3	-211.797E-12	640.705E-3	-65.2397E-3
-3.16408E-3	-208.761E-12	695.759E-3	-17.1836E-3	-209.988E-12	634.650E-3	-54.9412E-3
-3.16908E-3	-209.622E-12	701.737E-3	-12.3190E-3	-208.471E-12	656.460E-3	-10.6539E-3
-3.17409E-3	-210.197E-12	700.427E-3	-25.0055E-3	-206.808E-12	679.977E-3	-6.73384E-3
-3.17909E-3	-210.858E-12	666.126E-3	-32.3512E-3	-206.445E-12	685.735E-3	-48.4800E-3
-3.18409E-3	-212.208E-12	683.790E-3	-17.0892E-3	-206.143E-12	681.370E-3	-80.7297E-3
-3.18909E-3	-211.839E-12	725.059E-3	-5.56771E-3	-206.934E-12	668.514E-3	-95.6366E-3
-3.19410E-3	-212.918E-12	695.868E-3	-7.37652E-3	-206.800E-12	652.345E-3	-78.9953E-3
-3.19910E-3	-212.555E-12	660.474E-3	-17.9981E-3	-207.408E-12	660.007E-3	-38.3381E-3
-3.20410E-3	-213.105E-12	680.534E-3	-34.8998E-3	-208.328E-12	685.788E-3	-13.3920E-3
-3.20910E-3	-212.880E-12	715.029E-3	-51.2613E-3	-208.988E-12	708.702E-3	-361.354E-6
-3.21411E-3	-212.336E-12	719.039E-3	-62.7062E-3	-209.896E-12	711.736E-3	804.348E-6
-3.21911E-3	-211.386E-12	694.774E-3	-60.0010E-3	-210.458E-12	694.393E-3	-4.38527E-3
-3.22411E-3	-210.001E-12	669.020E-3	-31.8351E-3	-211.827E-12	667.768E-3	1.69929E-3
-3.22911E-3	-209.445E-12	645.810E-3	-11.9153E-3	-211.813E-12	660.166E-3	-2.79566E-3
-3.23412E-3	-209.605E-12	652.715E-3	-10.8971E-3	-213.332E-12	692.665E-3	-29.8272E-3
-3.23912E-3	-208.706E-12	695.094E-3	2.84433E-3	-213.302E-12	715.472E-3	-37.9066E-3
-3.24412E-3	-207.829E-12	694.735E-3	-1.42938E-3	-213.818E-12	700.779E-3	-26.1318E-3
-3.24912E-3	-209.094E-12	658.124E-3	-10.6775E-3	-213.846E-12	692.124E-3	-26.6058E-3
-3.25413E-3	-209.460E-12	669.970E-3	12.6969E-3	-214.284E-12	688.473E-3	-16.3227E-3
-3.25913E-3	-210.254E-12	697.535E-3	20.8482E-3	-213.913E-12	673.389E-3	-6.93685E-3
-3.26413E-3	-211.020E-12	688.339E-3	-5.14893E-3	-213.677E-12	667.304E-3	-28.4668E-3
-3.26913E-3	-213.081E-12	669.336E-3	-26.6351E-3	-212.679E-12	668.719E-3	-39.8850E-3
-3.27414E-3	-215.425E-12	670.493E-3	-24.8306E-3	-211.893E-12	687.378E-3	-13.4525E-3
-3.27914E-3	-215.710E-12	685.203E-3	-25.2866E-3	-210.869E-12	697.950E-3	-7.30260E-3
-3.28414E-3	-217.524E-12	690.187E-3	-46.3167E-3	-211.335E-12	689.603E-3	-19.4144E-3
-3.28914E-3	-219.250E-12	686.913E-3	-58.1172E-3	-210.745E-12	687.218E-3	1.39241E-3
-3.29415E-3	-219.713E-12	697.497E-3	-28.9546E-3	-210.644E-12	660.151E-3	22.9600E-3
-3.29915E-3	-219.132E-12	706.247E-3	2.02277E-3	-210.955E-12	637.844E-3	19.0211E-3
-3.30415E-3	-218.941E-12	707.461E-3	8.40351E-3	-211.495E-12	649.300E-3	-6.16778E-3
-3.30915E-3	-218.865E-12	707.317E-3	22.1281E-3	-212.027E-12	654.853E-3	-31.0283E-3
-3.31416E-3	-217.760E-12	690.760E-3	9.28150E-3	-212.120E-12	676.690E-3	-27.6909E-3
-3.31916E-3	-216.672E-12	691.873E-3	-26.1702E-3	-213.983E-12	705.650E-3	-6.76156E-3
-3.32416E-3	-214.862E-12	704.798E-3	-35.6759E-3	-215.986E-12	686.664E-3	8.62234E-3
-3.32916E-3	-215.385E-12	702.322E-3	-31.2723E-3	-216.872E-12	673.253E-3	6.98564E-3
-3.33417E-3	-214.044E-12	714.279E-3	-25.4949E-3	-218.195E-12	696.118E-3	2.53816E-3
-3.33917E-3	-212.921E-12	724.682E-3	-24.9806E-3	-220.323E-12	710.162E-3	342.050E-6
-3.34417E-3	-212.029E-12	718.100E-3	-39.9395E-3	-221.827E-12	698.092E-3	-10.8210E-3
-3.34917E-3	-212.888E-12	698.824E-3	-51.1784E-3	-222.386E-12	682.407E-3	-10.5357E-3
-3.35418E-3	-214.534E-12	643.244E-3	-44.2093E-3	-223.697E-12	690.792E-3	-2.98302E-3
-3.35918E-3	-214.673E-12	608.612E-3	-42.6598E-3	-224.033E-12	697.083E-3	-13.7333E-3
-3.36418E-3	-216.690E-12	641.354E-3	-41.3227E-3	-224.475E-12	695.432E-3	-49.5897E-3
-3.36918E-3	-217.446E-12	678.166E-3	-11.3408E-3	-224.288E-12	701.320E-3	-70.0763E-3
-3.37419E-3	-220.131E-12	688.023E-3	21.8861E-3	-224.676E-12	693.205E-3	-46.5967E-3
-3.37919E-3	-220.278E-12	706.448E-3	14.1077E-3	-223.415E-12	674.318E-3	-24.4493E-3
-3.38419E-3	-222.896E-12	724.025E-3	-4.68830E-3	-221.513E-12	670.041E-3	-37.1667E-3
-3.38919E-3	-223.629E-12	721.562E-3	2.49962E-3	-219.595E-12	663.409E-3	-56.4959E-3
-3.39420E-3	-225.412E-12	710.519E-3	6.17228E-3	-219.714E-12	648.568E-3	-34.5209E-3
-3.39920E-3	-223.640E-12	687.786E-3	11.2766E-3	-219.340E-12	663.653E-3	-6.47952E-3
-3.40420E-3	-224.443E-12	674.479E-3	17.1982E-3	-218.614E-12	667.736E-3	-5.30469E-3
-3.40920E-3	-223.854E-12	675.057E-3	-22.1423E-3	-218.254E-12	653.264E-3	11.8169E-3
-3.41421E-3	-222.463E-12	675.596E-3	-63.7034E-3	-218.830E-12	679.422E-3	6.77408E-3
-3.41921E-3	-221.506E-12	699.875E-3	-67.4770E-3	-220.172E-12	704.687E-3	-43.9367E-3
-3.42421E-3	-220.573E-12	723.815E-3	-51.9044E-3	-221.094E-12	714.926E-3	-58.0947E-3
-3.42921E-3	-219.999E-12	711.346E-3	-29.8211E-3	-221.231E-12	721.712E-3	-10.3673E-3
-3.43422E-3	-219.278E-12	688.281E-3	-25.7669E-3	-223.061E-12	690.164E-3	5.25967E-3
-3.43922E-3	-218.861E-12	662.344E-3	-19.7657E-3	-224.662E-12	654.073E-3	-19.2506E-3
-3.44422E-3	-218.834E-12	644.837E-3	-2.68553E-3	-225.862E-12	664.783E-3	-19.6853E-3
-3.44922E-3	-219.186E-12	643.411E-3	-5.26852E-3	-227.536E-12	699.138E-3	-24.4263E-3
-3.45423E-3	-220.096E-12	660.738E-3	-8.11872E-3	-228.637E-12	698.586E-3	-26.9890E-3
-3.45923E-3	-221.331E-12	684.784E-3	6.35351E-3	-227.844E-12	707.382E-3	-21.6584E-3
-3.46423E-3	-223.219E-12	684.205E-3	12.1794E-3	-228.041E-12	746.288E-3	-31.7897E-3
-3.46923E-3	-224.671E-12	674.796E-3	-18.2679E-3	-228.669E-12	735.090E-3	-42.3484E-3
-3.47424E-3	-226.185E-12	673.675E-3	-65.3053E-3	-228.163E-12	713.147E-3	-41.1391E-3
-3.47924E-3	-227.374E-12	662.868E-3	-72.2289E-3	-225.969E-12	726.725E-3	-17.6110E-3
-3.48424E-3	-229.166E-12	645.190E-3	-42.2690E-3	-224.349E-12	727.121E-3	-14.5262E-3
-3.48924E-3	-230.530E-12	640.540E-3	-27.8949E-3	-223.832E-12	713.964E-3	-42.4321E-3
-3.49425E-3	-229.925E-12	646.031E-3	-27.9163E-3	-222.239E-12	705.395E-3	-52.7359E-3
-3.49925E-3	-229.524E-12	668.543E-3	-22.1244E-3	-220.495E-12	660.706E-3	-35.5805E-3
-3.50425E-3	-228.849E-12	696.299E-3	-30.5896E-3	-219.447E-12	621.095E-3	-19.1335E-3
-3.50925E-3	-228.547E-12	711.334E-3	-62.2279E-3	-219.543E-12	652.395E-3	-17.7075E-3
-3.51426E-3	-227.686E-12	712.464E-3	-69.3878E-3	-218.913E-12	677.554E-3	-8.74933E-3
-3.51926E-3	-226.736E-12	694.377E-3	-36.5001E-3	-219.293E-12	669.268E-3	-12.5650E-3
-3.52426E-3	-225.655E-12	676.051E-3	-10.0121E-3	-219.271E-12	677.465E-3	-36.8127E-3
-3.52926E-3	-224.887E-12	669.286E-3	-24.7488E-3	-219.966E-12	690.940E-3	-16.2112E-3
-3.53427E-3	-225.005E-12	662.832E-3	-59.7944E-3	-221.550E-12	702.717E-3	24.6806E-3
-3.53927E-3	-224.759E-12	658.152E-3	-82.3367E-3	-223.077E-12	705.616E-3	20.7256E-3
-3.54427E-3	-224.496E-12	668.433E-3	-101.638E-3	-224.742E-12	692.160E-3	-2.53502E-3
-3.54927E-3	-224.155E-12	687.602E-3	-86.7003E-3	-226.032E-12	676.240E-3	-12.8243E-3
-3.55428E-3	-225.424E-12	679.383E-3	-39.8886E-3	-227.494E-12	662.610E-3	-16.9414E-3
-3.55928E-3	-226.201E-12	679.717E-3	-10.0317E-3	-229.183E-12	680.170E-3	-33.3769E-3
-3.56428E-3	-226.820E-12	697.744E-3	-5.73510E-3	-230.248E-12	682.854E-3	-46.9030E-3
-3.56928E-3	-227.285E-12	667.691E-3	-21.8638E-3	-230.583E-12	669.292E-3	-45.6933E-3
-3.57429E-3	-228.807E-12	649.493E-3	-32.1362E-3	-230.580E-12	689.964E-3	-29.8667E-3
-3.57929E-3	-228.746E-12	692.848E-3	-29.0386E-3	-231.078E-12	686.933E-3	-14.5548E-3
-3.58429E-3	-229.774E-12	700.971E-3	-19.2932E-3	-230.954E-12	661.683E-3	-19.2660E-3
-3.58929E-3	-229.582E-12	661.416E-3	-22.7352E-3	-230.344E-12	649.458E-3	-27.0986E-3
-3.59430E-3	-230.006E-12	672.232E-3	-45.2852E-3	-228.208E-12	677.261E-3	-11.5690E-3
-3.59930E-3	-230.535E-12	716.613E-3	-49.2657E-3	-227.172E-12	709.044E-3	15.1209E-3
-3.60430E-3	-231.150E-12	730.532E-3	-39.5532E-3	-227.643E-12	678.638E-3	-430.559E-6
-3.60930E-3	-230.690E-12	719.659E-3	-20.4189E-3	-226.848E-12	660.170E-3	-29.4654E-3
-3.61431E-3	-230.342E-12	698.057E-3	-28.4402E-3	-225.559E-12	678.864E-3	-32.0775E-3
-3.61931E-3	-230.701E-12	678.165E-3	-61.3079E-3	-225.143E-12	687.185E-3	-40.6982E-3
-3.62431E-3	-230.171E-12	668.134E-3	-25.5512E-3	-225.908E-12	685.058E-3	-58.1041E-3
-3.62931E-3	-228.797E-12	657.098E-3	17.6602E-3	-228.265E-12	680.025E-3	-83.1002E-3
-3.63432E-3	-228.299E-12	667.186E-3	-8.04253E-3	-227.955E-12	674.473E-3	-84.7503E-3
-3.63932E-3	-227.916E-12	677.823E-3	-35.5101E-3	-229.147E-12	676.914E-3	-58.9292E-3
-3.64432E-3	-227.942E-12	662.445E-3	-30.4642E-3	-230.283E-12	686.056E-3	-51.7938E-3
-3.64932E-3	-227.088E-12	662.732E-3	-40.0535E-3	-233.786E-12	678.004E-3	-70.4819E-3
-3.65433E-3	-227.046E-12	676.519E-3	-61.7394E-3	-233.446E-12	672.565E-3	-89.6990E-3
-3.65933E-3	-227.716E-12	689.720E-3	-53.3016E-3	-235.300E-12	684.227E-3	-84.6624E-3
-3.66433E-3	-228.515E-12	689.225E-3	-44.3728E-3	-236.517E-12	688.903E-3	-55.9923E-3
-3.66933E-3	-228.485E-12	671.762E-3	-26.0300E-3	-237.653E-12	668.308E-3	-28.3485E-3
-3.67434E-3	-228.379E-12	660.691E-3	18.2674E-3	-236.558E-12	655.593E-3	-35.9695E-3
-3.67934E-3	-229.675E-12	654.032E-3	20.7653E-3	-237.774E-12	665.674E-3	-41.9842E-3
-3.68434E-3	-230.660E-12	677.642E-3	-15.9236E-3	-237.250E-12	661.478E-3	-36.6514E-3
-3.68934E-3	-231.356E-12	717.811E-3	-22.3074E-3	-236.612E-12	656.371E-3	-41.6745E-3
-3.69435E-3	-232.234E-12	710.534E-3	-9.55257E-3	-236.490E-12	656.745E-3	-26.0978E-3
-3.69935E-3	-234.137E-12	677.400E-3	-12.3994E-3	-235.932E-12	661.951E-3	4.87239E-3
-3.70435E-3	-236.151E-12	661.164E-3	-17.8014E-3	-234.524E-12	692.182E-3	20.2190E-3
-3.70935E-3	-236.324E-12	668.759E-3	-22.5380E-3	-232.880E-12	715.186E-3	25.0311E-3
-3.71436E-3	-237.292E-12	688.194E-3	-32.6906E-3	-232.061E-12	702.245E-3	26.1034E-3
-3.71936E-3	-238.621E-12	694.846E-3	-24.6103E-3	-231.755E-12	696.899E-3	3.43838E-3
-3.72436E-3	-239.473E-12	687.489E-3	-25.9265E-3	-231.591E-12	698.865E-3	-19.6893E-3
-3.72936E-3	-239.724E-12	702.618E-3	-46.2232E-3	-232.303E-12	695.706E-3	-5.34379E-3
-3.73437E-3	-239.011E-12	738.270E-3	-24.9716E-3	-233.121E-12	681.936E-3	-9.73430E-3
-3.73937E-3	-238.708E-12	730.443E-3	-4.39307E-3	-233.979E-12	654.513E-3	-51.7824E-3
-3.74437E-3	-236.752E-12	697.887E-3	-17.4305E-3	-234.146E-12	650.207E-3	-38.7341E-3
-3.74937E-3	-237.323E-12	679.288E-3	-15.2191E-3	-235.149E-12	661.296E-3	-9.76780E-3
-3.75438E-3	-236.155E-12	667.105E-3	-2.86086E-3	-235.694E-12	665.915E-3	-23.7311E-3
-3.75938E-3	-235.838E-12	667.961E-3	-21.6835E-3	-237.199E-12	668.250E-3	-10.1137E-3
-3.76438E-3	-234.742E-12	668.923E-3	-41.4052E-3	-237.876E-12	671.131E-3	7.91774E-3
-3.76938E-3	-234.806E-12	660.905E-3	-31.6437E-3	-237.989E-12	678.042E-3	-16.9687E-3
-3.77439E-3	-235.038E-12	657.849E-3	-20.0305E-3	-238.083E-12	678.999E-3	-20.9405E-3
-3.77939E-3	-234.873E-12	665.461E-3	5.91026E-3	-239.243E-12	683.085E-3	4.44439E-3
-3.78439E-3	-235.569E-12	672.882E-3	11.0511E-3	-238.865E-12	678.674E-3	4.45422E-3
-3.78939E-3	-236.797E-12	673.427E-3	-19.5862E-3	-238.180E-12	648.680E-3	-817.619E-6
-3.79440E-3	-239.556E-12	664.086E-3	-18.8154E-3	-238.681E-12	647.756E-3	12.3180E-3
-3.79940E-3	-241.019E-12	664.059E-3	2.38967E-3	-238.244E-12	658.190E-3	387.564E-6
-3.80440E-3	-242.835E-12	684.645E-3	-1.91364E-3	-237.531E-12	635.730E-3	3.36913E-3
-3.80940E-3	-244.898E-12	692.908E-3	2.81779E-3	-236.665E-12	646.225E-3	27.1961E-3
-3.81441E-3	-246.253E-12	680.993E-3	28.9990E-3	-236.939E-12	691.734E-3	19.8204E-3
-3.81941E-3	-247.051E-12	690.039E-3	18.6260E-3	-235.446E-12	672.657E-3	24.2680E-3
-3.82441E-3	-247.527E-12	702.804E-3	-29.8246E-3	-235.940E-12	606.626E-3	32.0170E-3
-3.82941E-3	-246.347E-12	698.809E-3	-45.6554E-3	-235.407E-12	608.897E-3	5.23974E-3
-3.83442E-3	-245.757E-12	714.747E-3	-14.5401E-3	-235.620E-12	669.483E-3	-24.4496E-3
-3.83942E-3	-244.770E-12	730.712E-3	6.34094E-3	-234.954E-12	712.210E-3	-42.5206E-3
-3.84442E-3	-242.861E-12	724.461E-3	927.115E-6	-235.876E-12	704.967E-3	-55.2909E-3
-3.84942E-3	-241.481E-12	724.617E-3	-182.872E-6	-236.089E-12	673.359E-3	-54.3358E-3
-3.85443E-3	-239.969E-12	724.130E-3	12.5911E-3	-235.819E-12	663.007E-3	-13.6437E-3
-3.85943E-3	-238.291E-12	711.097E-3	39.4372E-3	-235.655E-12	645.323E-3	22.8655E-3
-3.86443E-3	-236.433E-12	693.931E-3	57.2630E-3	-235.934E-12	622.665E-3	18.5593E-3
-3.86943E-3	-236.432E-12	678.036E-3	25.6361E-3	-237.613E-12	632.166E-3	7.38581E-3
-3.87444E-3	-236.200E-12	685.877E-3	-10.2796E-3	-239.079E-12	686.709E-3	-7.99568E-3
-3.87944E-3	-235.976E-12	705.642E-3	-16.4776E-3	-240.159E-12	737.328E-3	-18.7392E-3
-3.88444E-3	-236.265E-12	691.574E-3	-12.9864E-3	-239.988E-12	710.734E-3	-20.4242E-3
-3.88944E-3	-238.956E-12	660.150E-3	6.49745E-3	-241.832E-12	650.104E-3	-21.2602E-3
-3.89445E-3	-240.392E-12	656.070E-3	24.3621E-3	-243.924E-12	660.584E-3	-24.8199E-3
-3.89945E-3	-242.630E-12	662.285E-3	29.5187E-3	-244.033E-12	729.186E-3	-14.5915E-3
-3.90445E-3	-243.892E-12	665.209E-3	10.7746E-3	-244.168E-12	762.022E-3	6.13752E-3
-3.90945E-3	-246.318E-12	698.817E-3	-15.0240E-3	-243.969E-12	730.428E-3	984.751E-6
-3.91446E-3	-246.476E-12	752.445E-3	-1.88375E-3	-245.361E-12	712.017E-3	15.0005E-3
-3.91946E-3	-248.124E-12	754.551E-3	-3.36953E-3	-244.438E-12	726.305E-3	29.6299E-3
-3.92446E-3	-247.813E-12	724.864E-3	-26.9689E-3	-243.644E-12	693.084E-3	6.59449E-3
-3.92946E-3	-247.037E-12	725.206E-3	-22.0315E-3	-242.475E-12	651.123E-3	-900.931E-6
-3.93447E-3	-245.661E-12	732.593E-3	-20.2446E-3	-243.961E-12	668.950E-3	-9.89556E-3
-3.93947E-3	-244.416E-12	736.746E-3	-26.4191E-3	-243.433E-12	677.552E-3	-33.1371E-3
-3.94447E-3	-243.154E-12	725.312E-3	-20.7000E-3	-242.266E-12	659.258E-3	-33.5127E-3
-3.94947E-3	-241.236E-12	686.689E-3	-30.3944E-3	-242.124E-12	682.414E-3	-6.14826E-3
-3.95448E-3	-239.513E-12	666.846E-3	-54.4930E-3	-242.680E-12	708.902E-3	22.3086E-3
-3.95948E-3	-238.521E-12	677.418E-3	-41.5835E-3	-244.036E-12	713.708E-3	33.1558E-3
-3.96448E-3	-238.229E-12	698.530E-3	-60.3643E-6	-244.082E-12	712.149E-3	33.8093E-3
-3.96948E-3	-237.559E-12	709.967E-3	-9.75219E-3	-245.931E-12	688.157E-3	24.1918E-3
-3.97449E-3	-237.214E-12	716.840E-3	-33.7354E-3	-247.723E-12	669.929E-3	11.6047E-3
-3.97949E-3	-238.490E-12	705.417E-3	-5.08071E-3	-249.756E-12	681.691E-3	5.03807E-3
-3.98449E-3	-241.088E-12	683.074E-3	27.7939E-3	-251.965E-12	701.867E-3	11.1608E-3
-3.98949E-3	-243.406E-12	695.868E-3	14.8655E-3	-252.787E-12	730.164E-3	42.8155E-3
-3.99450E-3	-245.105E-12	710.259E-3	-14.3728E-3	-252.943E-12	756.725E-3	54.7064E-3
-3.99950E-3	-246.529E-12	717.287E-3	-37.4592E-3	-253.323E-12	752.730E-3	22.1618E-3
-4.00450E-3	-249.093E-12	718.123E-3	-39.6692E-3	-254.770E-12	726.010E-3	802.315E-6
-4.00950E-3	-250.919E-12	705.788E-3	-6.51091E-3	-254.100E-12	708.530E-3	-20.9361E-3
-4.01451E-3	-252.259E-12	722.978E-3	15.5464E-3	-253.548E-12	706.647E-3	-40.6426E-3
-4.01951E-3	-252.114E-12	756.224E-3	7.64897E-3	-252.839E-12	699.027E-3	-31.3868E-3
-4.02451E-3	-252.230E-12	754.081E-3	-10.9459E-3	-251.704E-12	701.885E-3	-26.1429E-3
-4.02951E-3	-253.036E-12	723.726E-3	-21.7574E-3	-251.016E-12	731.111E-3	-40.2847E-3
-4.03452E-3	-252.829E-12	713.985E-3	-14.9158E-3	-249.409E-12	731.220E-3	-61.0127E-3
-4.03952E-3	-251.784E-12	724.675E-3	-3.52440E-3	-248.387E-12	691.826E-3	-50.1570E-3
-4.04452E-3	-251.082E-12	734.072E-3	-1.98118E-3	-248.388E-12	665.863E-3	-14.9837E-3
-4.04952E-3	-250.059E-12	741.326E-3	-8.00721E-3	-248.312E-12	668.065E-3	1.82968E-3
-4.05453E-3	-250.150E-12	712.539E-3	-24.7539E-3	-247.718E-12	686.380E-3	-12.5943E-3
-4.05953E-3	-249.651E-12	656.934E-3	-45.0260E-3	-248.477E-12	705.725E-3	-43.6545E-3
-4.06453E-3	-249.269E-12	626.298E-3	-62.0793E-3	-250.131E-12	716.519E-3	-57.7353E-3
-4.06953E-3	-249.956E-12	629.980E-3	-47.3811E-3	-251.556E-12	719.586E-3	-74.0648E-3
-4.07454E-3	-251.571E-12	660.438E-3	-20.3619E-3	-251.351E-12	726.095E-3	-94.1926E-3
-4.07954E-3	-253.067E-12	703.107E-3	-18.0490E-3	-252.513E-12	712.524E-3	-77.1560E-3
-4.08454E-3	-253.132E-12	714.561E-3	-3.06673E-3	-254.339E-12	681.426E-3	-55.7655E-3
-4.08954E-3	-253.701E-12	692.459E-3	29.1171E-3	-256.440E-12	659.703E-3	-47.9072E-3
-4.09455E-3	-254.657E-12	689.289E-3	53.9911E-3	-256.863E-12	640.109E-3	-21.4678E-3
-4.09955E-3	-256.462E-12	696.993E-3	43.3780E-3	-255.960E-12	651.471E-3	-7.12444E-3
-4.10455E-3	-256.236E-12	695.812E-3	7.00285E-3	-254.982E-12	702.989E-3	7.79160E-3
-4.10955E-3	-255.240E-12	707.056E-3	-16.0567E-3	-255.908E-12	728.034E-3	30.9245E-3
-4.11456E-3	-255.569E-12	707.320E-3	-25.2055E-3	-254.982E-12	719.676E-3	12.9850E-3
-4.11956E-3	-256.923E-12	671.597E-3	-20.0910E-3	-253.618E-12	713.727E-3	-25.7884E-3
-4.12456E-3	-256.735E-12	654.076E-3	-2.68761E-3	-251.447E-12	702.663E-3	-61.8491E-3
-4.12956E-3	-254.459E-12	681.181E-3	25.0068E-3	-251.164E-12	690.136E-3	-87.2807E-3
-4.13457E-3	-255.412E-12	694.611E-3	21.8437E-3	-251.193E-12	681.387E-3	-64.3776E-3
-4.13957E-3	-257.163E-12	694.193E-3	-14.6753E-3	-249.857E-12	673.323E-3	-27.9001E-3
-4.14457E-3	-257.072E-12	721.340E-3	-22.8264E-3	-248.989E-12	658.452E-3	-30.3594E-3
-4.14957E-3	-256.215E-12	744.074E-3	-12.9378E-3	-249.445E-12	649.823E-3	-34.1441E-3
-4.15458E-3	-255.631E-12	733.830E-3	-3.04087E-3	-249.280E-12	673.617E-3	-33.2635E-3
-4.15958E-3	-256.357E-12	703.456E-3	10.5291E-3	-249.921E-12	714.419E-3	-26.0556E-3
-4.16458E-3	-256.285E-12	664.914E-3	23.5523E-3	-251.348E-12	729.485E-3	-2.53843E-3
-4.16958E-3	-256.614E-12	646.187E-3	34.4129E-3	-251.657E-12	706.971E-3	6.18243E-3
-4.17459E-3	-255.809E-12	647.897E-3	47.6278E-3	-252.741E-12	680.263E-3	10.6501E-3
-4.17959E-3	-255.434E-12	640.561E-3	39.8002E-3	-255.220E-12	692.668E-3	13.1917E-3
-4.18459E-3	-255.541E-12	647.353E-3	-14.7367E-3	-256.703E-12	728.466E-3	7.25937E-3
-4.18959E-3	-254.883E-12	671.135E-3	-44.6292E-3	-256.557E-12	735.269E-3	8.98805E-3
-4.19460E-3	-254.416E-12	691.426E-3	-21.6037E-3	-256.891E-12	719.029E-3	21.0299E-3
-4.19960E-3	-253.836E-12	718.057E-3	-10.0569E-3	-258.678E-12	715.102E-3	12.1366E-3
-4.20460E-3	-253.758E-12	712.990E-3	-24.3595E-3	-259.249E-12	713.591E-3	-20.8665E-3
-4.20960E-3	-253.229E-12	680.150E-3	-45.2386E-3	-258.487E-12	689.697E-3	-20.0906E-3
-4.21461E-3	-253.381E-12	672.924E-3	-44.1429E-3	-256.734E-12	669.922E-3	1.11371E-3
-4.21961E-3	-253.499E-12	675.939E-3	-24.2251E-3	-257.278E-12	670.540E-3	-4.19307E-3
-4.22461E-3	-254.934E-12	667.010E-3	-15.3192E-3	-257.905E-12	682.920E-3	-30.4791E-3
-4.22961E-3	-256.471E-12	681.243E-3	-2.02632E-3	-257.407E-12	722.454E-3	-37.1784E-3
-4.23462E-3	-257.470E-12	723.251E-3	8.46590E-3	-255.364E-12	739.248E-3	4.05175E-3
-4.23962E-3	-258.616E-12	733.699E-3	-3.25071E-3	-256.862E-12	700.401E-3	31.3758E-3
-4.24462E-3	-258.425E-12	690.458E-3	-17.9089E-3	-256.750E-12	672.345E-3	14.0622E-3
-4.24962E-3	-260.763E-12	656.197E-3	-22.1166E-3	-258.223E-12	670.287E-3	15.3333E-3
-4.25463E-3	-260.945E-12	665.012E-3	-13.1583E-3	-258.153E-12	664.891E-3	23.3446E-3
-4.25963E-3	-261.365E-12	691.139E-3	-21.2561E-3	-258.690E-12	662.866E-3	3.97545E-3
-4.26463E-3	-259.839E-12	714.796E-3	-39.5311E-3	-258.881E-12	683.852E-3	-10.7000E-3
-4.26963E-3	-260.071E-12	722.893E-3	-27.3508E-3	-259.849E-12	708.366E-3	2.84032E-3
-4.27464E-3	-258.635E-12	730.673E-3	4.49886E-3	-260.926E-12	695.299E-3	22.2628E-3
-4.27964E-3	-257.953E-12	739.404E-3	41.4696E-3	-259.687E-12	666.740E-3	18.5872E-3
-4.28464E-3	-255.959E-12	701.334E-3	47.1962E-3	-258.769E-12	665.687E-3	4.56426E-3
-4.28964E-3	-255.870E-12	661.525E-3	20.5825E-3	-259.908E-12	693.141E-3	-12.5783E-3
-4.29465E-3	-255.541E-12	675.840E-3	2.00312E-3	-260.630E-12	714.691E-3	-11.3835E-3
-4.29965E-3	-254.978E-12	699.158E-3	-28.7362E-3	-260.878E-12	716.019E-3	3.34016E-3
-4.30465E-3	-255.141E-12	700.338E-3	-49.9519E-3	-259.631E-12	703.140E-3	1.52339E-3
-4.30965E-3	-255.561E-12	688.591E-3	-8.08887E-3	-260.299E-12	674.503E-3	-16.3906E-3
-4.31466E-3	-258.116E-12	674.217E-3	35.8343E-3	-261.812E-12	653.291E-3	-37.1756E-3
-4.31966E-3	-260.138E-12	663.578E-3	19.7206E-3	-261.806E-12	671.292E-3	-43.6569E-3
-4.32466E-3	-261.598E-12	648.976E-3	-17.8676E-3	-262.051E-12	711.794E-3	-28.5041E-3
-4.32966E-3	-263.500E-12	642.564E-3	-12.4088E-3	-261.960E-12	708.338E-3	-5.56118E-3
-4.33467E-3	-266.868E-12	650.355E-3	-817.312E-6	-262.710E-12	686.146E-3	4.63916E-3
-4.33967E-3	-269.066E-12	646.640E-3	-20.0055E-3	-263.754E-12	693.262E-3	18.4805E-3
-4.34467E-3	-271.091E-12	650.327E-3	-12.3812E-3	-264.621E-12	693.334E-3	42.6903E-3
-4.34967E-3	-271.469E-12	667.165E-3	4.35407E-3	-264.469E-12	691.595E-3	34.0874E-3
-4.35468E-3	-271.478E-12	682.648E-3	-7.10353E-3	-264.442E-12	699.722E-3	-941.598E-6
-4.35968E-3	-271.490E-12	688.206E-3	-6.73725E-3	-265.109E-12	700.931E-3	-18.9570E-3
-4.36468E-3	-269.078E-12	692.566E-3	7.94086E-3	-265.755E-12	700.232E-3	-10.8830E-3
-4.36968E-3	-267.370E-12	718.916E-3	4.70976E-3	-265.494E-12	686.629E-3	6.05383E-3
-4.37469E-3	-265.627E-12	725.242E-3	-10.1074E-3	-265.136E-12	664.133E-3	24.7415E-3
-4.37969E-3	-264.153E-12	696.950E-3	-15.1471E-3	-264.044E-12	650.000E-3	47.9595E-3
-4.38469E-3	-263.687E-12	678.754E-3	-15.7925E-3	-264.154E-12	652.448E-3	62.8792E-3
-4.38969E-3	-262.210E-12	679.794E-3	-23.1090E-3	-264.807E-12	670.714E-3	62.5394E-3
-4.39470E-3	-262.618E-12	668.339E-3	-19.5519E-3	-264.637E-12	703.157E-3	32.7510E-3
-4.39970E-3	-262.592E-12	646.398E-3	-6.19272E-3	-265.436E-12	715.862E-3	5.63369E-3
-4.40470E-3	-264.609E-12	639.900E-3	-2.85230E-3	-265.519E-12	671.230E-3	1.80327E-3
-4.40970E-3	-266.241E-12	642.552E-3	-1.20194E-3	-267.216E-12	648.678E-3	-18.2003E-3
-4.41471E-3	-268.497E-12	665.477E-3	5.63446E-3	-268.908E-12	676.177E-3	-39.9203E-3
-4.41971E-3	-270.560E-12	692.088E-3	-5.51017E-3	-270.064E-12	688.043E-3	-28.7160E-3
-4.42471E-3	-273.545E-12	675.412E-3	-36.9422E-3	-270.101E-12	679.670E-3	4.81205E-3
-4.42971E-3	-275.879E-12	684.525E-3	-67.7504E-3	-271.307E-12	656.531E-3	26.1744E-3
-4.43472E-3	-276.880E-12	723.472E-3	-72.6858E-3	-272.127E-12	640.433E-3	22.0326E-3
-4.43972E-3	-275.923E-12	703.120E-3	-39.6628E-3	-272.710E-12	665.054E-3	14.5488E-3
-4.44472E-3	-276.923E-12	668.702E-3	-23.5777E-3	-273.677E-12	711.489E-3	-6.26046E-3
-4.44972E-3	-277.013E-12	654.586E-3	-20.8760E-3	-272.717E-12	729.979E-3	-45.5061E-3
-4.45473E-3	-274.957E-12	656.620E-3	-7.23901E-3	-272.685E-12	710.431E-3	-46.4045E-3
-4.45973E-3	-272.153E-12	681.318E-3	-19.2702E-3	-273.005E-12	693.813E-3	-30.9458E-3
-4.46473E-3	-270.632E-12	685.141E-3	-29.2473E-3	-271.912E-12	664.277E-3	-30.3076E-3
-4.46973E-3	-268.732E-12	661.532E-3	-9.96872E-3	-269.930E-12	617.863E-3	-7.67069E-3
-4.47474E-3	-266.376E-12	647.695E-3	-2.39877E-3	-269.800E-12	622.790E-3	11.2409E-3
-4.47974E-3	-263.939E-12	649.341E-3	-22.0196E-3	-269.485E-12	677.086E-3	-5.27948E-3
-4.48474E-3	-264.840E-12	637.128E-3	-23.9408E-3	-269.935E-12	712.175E-3	-26.8382E-3
-4.48974E-3	-263.979E-12	621.107E-3	-9.27005E-3	-269.560E-12	704.707E-3	-43.4647E-3
-4.49475E-3	-263.910E-12	602.729E-3	-14.2491E-3	-270.793E-12	669.875E-3	-49.3915E-3
-4.49975E-3	-264.585E-12	582.436E-3	-10.5810E-3	-271.564E-12	638.216E-3	2.03778E-3
-4.50475E-3	-266.430E-12	605.027E-3	-7.56784E-3	-273.145E-12	646.382E-3	34.0059E-3
-4.50975E-3	-266.814E-12	644.097E-3	-26.2399E-3	-274.724E-12	679.891E-3	2.12041E-3
-4.51476E-3	-268.115E-12	667.702E-3	-30.3753E-3	-275.868E-12	701.097E-3	-10.7944E-3
-4.51976E-3	-269.187E-12	679.210E-3	-5.86373E-3	-275.330E-12	724.537E-3	-9.10166E-3
-4.52476E-3	-271.616E-12	667.971E-3	9.19667E-3	-276.512E-12	723.641E-3	-16.7058E-3
-4.52976E-3	-272.392E-12	650.081E-3	-3.57696E-3	-276.540E-12	699.838E-3	-16.1539E-3
-4.53477E-3	-272.568E-12	659.192E-3	-14.9190E-3	-275.989E-12	703.045E-3	-4.39754E-3
-4.53977E-3	-272.675E-12	697.485E-3	2.83594E-3	-274.778E-12	685.806E-3	-9.03061E-3
-4.54477E-3	-273.347E-12	701.858E-3	31.5709E-3	-273.734E-12	630.844E-3	-20.6174E-3
-4.54977E-3	-271.809E-12	674.303E-3	17.2025E-3	-273.423E-12	592.161E-3	-17.8405E-3
-4.55478E-3	-270.158E-12	676.433E-3	-28.6254E-3	-272.450E-12	618.739E-3	-18.8021E-3
-4.55978E-3	-268.901E-12	690.931E-3	-35.6908E-3	-271.151E-12	691.251E-3	-9.82324E-3
-4.56478E-3	-268.594E-12	681.554E-3	-2.26314E-3	-270.236E-12	712.161E-3	-5.76377E-3
-4.56978E-3	-267.598E-12	672.568E-3	5.72522E-3	-269.724E-12	678.958E-3	-36.9987E-3
-4.57479E-3	-266.691E-12	687.419E-3	-18.2518E-3	-270.045E-12	661.004E-3	-51.2245E-3
-4.57979E-3	-267.178E-12	698.263E-3	-30.2979E-3	-270.234E-12	662.391E-3	-38.3425E-3
-4.58479E-3	-267.195E-12	669.624E-3	-2.48363E-3	-272.027E-12	671.760E-3	-21.9150E-3
-4.58979E-3	-268.448E-12	626.428E-3	14.1808E-3	-273.454E-12	682.446E-3	12.5252E-3
-4.59480E-3	-269.571E-12	629.233E-3	-13.1567E-3	-275.021E-12	690.040E-3	32.4788E-3
-4.59980E-3	-271.118E-12	660.246E-3	-25.1290E-3	-276.662E-12	677.572E-3	24.2951E-3
-4.60480E-3	-271.447E-12	665.410E-3	-17.2608E-3	-278.535E-12	655.026E-3	2.93830E-3
-4.60980E-3	-274.050E-12	626.648E-3	-13.3772E-3	-279.705E-12	655.040E-3	-19.0382E-3
-4.61481E-3	-275.684E-12	595.569E-3	-16.1797E-3	-278.973E-12	687.633E-3	-26.2096E-3
-4.61981E-3	-275.816E-12	613.526E-3	-24.5323E-3	-279.864E-12	712.327E-3	-15.2516E-3
-4.62481E-3	-276.981E-12	644.061E-3	-19.2476E-3	-279.497E-12	690.274E-3	-15.4771E-3
-4.62981E-3	-277.673E-12	662.077E-3	-8.29936E-3	-278.899E-12	681.557E-3	-61.2870E-3
-4.63482E-3	-278.797E-12	634.433E-3	-7.40459E-3	-277.057E-12	678.675E-3	-69.4610E-3
-4.63982E-3	-278.165E-12	591.559E-3	-15.9669E-3	-276.200E-12	659.620E-3	-2.94952E-3
-4.64482E-3	-279.728E-12	599.803E-3	-19.0179E-3	-275.527E-12	655.366E-3	45.7261E-3
-4.64982E-3	-280.272E-12	634.850E-3	-229.937E-6	-273.394E-12	655.503E-3	41.6877E-3
-4.65483E-3	-280.790E-12	657.646E-3	801.740E-6	-272.482E-12	665.611E-3	38.0292E-3
-4.65983E-3	-282.064E-12	663.831E-3	-10.4042E-3	-272.358E-12	674.417E-3	53.8345E-3
-4.66483E-3	-283.262E-12	672.643E-3	-2.40721E-3	-274.196E-12	660.255E-3	31.7114E-3
-4.66983E-3	-284.066E-12	673.718E-3	18.7342E-3	-274.690E-12	666.763E-3	-22.2221E-3
-4.67484E-3	-283.607E-12	648.015E-3	5.33945E-3	-275.097E-12	685.198E-3	-44.1223E-3
-4.67984E-3	-285.812E-12	658.259E-3	-41.9902E-3	-275.443E-12	669.072E-3	-31.4813E-3
-4.68484E-3	-285.725E-12	700.331E-3	-56.1081E-3	-278.886E-12	645.549E-3	-18.1741E-3
-4.68984E-3	-285.323E-12	684.873E-3	-46.3442E-3	-281.850E-12	657.623E-3	-39.9329E-3
-4.69485E-3	-284.122E-12	645.556E-3	-28.7126E-3	-282.263E-12	687.823E-3	-82.9560E-3
-4.69985E-3	-283.660E-12	656.072E-3	-7.93076E-3	-283.544E-12	684.894E-3	-100.795E-3
-4.70485E-3	-284.155E-12	697.075E-3	-215.036E-6	-284.218E-12	643.500E-3	-92.9522E-3
-4.70985E-3	-282.233E-12	702.848E-3	-17.5686E-3	-285.731E-12	605.449E-3	-61.5031E-3
-4.71486E-3	-281.450E-12	672.324E-3	-57.9292E-3	-285.179E-12	626.793E-3	953.446E-6
-4.71986E-3	-281.781E-12	646.871E-3	-74.9744E-3	-282.963E-12	665.536E-3	40.2721E-3
-4.72486E-3	-282.001E-12	626.231E-3	-49.4286E-3	-282.586E-12	655.735E-3	16.9147E-3
-4.72986E-3	-281.603E-12	613.576E-3	-42.8180E-3	-281.660E-12	654.027E-3	-20.4515E-3
-4.73487E-3	-280.721E-12	641.113E-3	-41.6890E-3	-280.940E-12	679.708E-3	-39.0282E-3
-4.73987E-3	-281.888E-12	681.957E-3	-7.95197E-3	-278.567E-12	700.311E-3	-28.8547E-3
-4.74487E-3	-282.391E-12	680.756E-3	-17.3782E-3	-277.529E-12	700.922E-3	-5.99185E-3
-4.74988E-3	-284.125E-12	681.879E-3	-69.2909E-3	-276.229E-12	655.826E-3	-22.6734E-3
-4.75488E-3	-285.066E-12	707.451E-3	-65.1644E-3	-278.695E-12	612.011E-3	-39.9925E-3
-4.75988E-3	-286.177E-12	690.057E-3	-52.6225E-3	-278.008E-12	612.289E-3	-19.0581E-3
-4.76488E-3	-288.256E-12	636.607E-3	-56.8535E-3	-278.755E-12	651.846E-3	20.3035E-3
-4.76988E-3	-288.312E-12	638.428E-3	-21.0203E-3	-278.933E-12	684.334E-3	38.3276E-3
-4.77489E-3	-289.106E-12	677.602E-3	-4.07940E-3	-281.637E-12	683.110E-3	9.62110E-3
-4.77989E-3	-288.331E-12	702.945E-3	-38.0131E-3	-283.363E-12	697.743E-3	-19.7329E-3
-4.78489E-3	-287.260E-12	726.462E-3	-51.8721E-3	-284.557E-12	684.973E-3	-37.8472E-3
-4.78989E-3	-286.094E-12	719.428E-3	-23.0258E-3	-284.569E-12	631.594E-3	-34.3677E-3
-4.79490E-3	-283.701E-12	670.060E-3	-22.9732E-3	-286.649E-12	598.781E-3	-12.0530E-3
-4.79990E-3	-281.097E-12	640.532E-3	-38.5845E-3	-286.840E-12	598.837E-3	-25.8951E-3
-4.80490E-3	-278.375E-12	642.307E-3	-17.5657E-3	-287.122E-12	619.100E-3	-56.5443E-3
-4.80990E-3	-277.505E-12	647.300E-3	-32.1391E-3	-284.885E-12	623.373E-3	-42.6516E-3
-4.81491E-3	-276.953E-12	657.072E-3	-51.4560E-3	-285.351E-12	620.204E-3	12.7498E-3
-4.81991E-3	-274.917E-12	671.732E-3	-6.78486E-3	-285.095E-12	614.525E-3	24.1990E-3
-4.82491E-3	-274.681E-12	667.279E-3	35.8699E-3	-284.598E-12	584.538E-3	-15.0824E-3
-4.82991E-3	-276.444E-12	641.919E-3	58.4900E-3	-283.004E-12	582.746E-3	-26.4203E-3
-4.83492E-3	-278.748E-12	630.182E-3	53.3481E-3	-282.846E-12	624.726E-3	-12.8959E-3
-4.83992E-3	-279.425E-12	644.255E-3	17.2102E-3	-284.596E-12	649.585E-3	2.85186E-3
-4.84492E-3	-282.712E-12	689.468E-3	-272.522E-6	-284.840E-12	649.771E-3	1.94471E-3
-4.84992E-3	-285.513E-12	706.168E-3	6.78116E-3	-284.180E-12	643.692E-3	-12.1006E-3
-4.85493E-3	-288.153E-12	669.200E-3	-4.97972E-3	-284.526E-12	641.899E-3	-5.44954E-3
-4.85993E-3	-289.879E-12	637.022E-3	-39.1667E-3	-287.064E-12	640.418E-3	-913.775E-6
-4.86493E-3	-291.808E-12	637.548E-3	-43.7342E-3	-287.084E-12	625.849E-3	-12.6304E-3
-4.86993E-3	-292.957E-12	631.942E-3	-16.1042E-3	-286.148E-12	653.895E-3	-22.3070E-3
-4.87494E-3	-292.170E-12	620.254E-3	29.1312E-3	-287.687E-12	707.475E-3	-24.7607E-3
-4.87994E-3	-291.116E-12	669.445E-3	61.2614E-3	-288.016E-12	700.727E-3	-30.2244E-3
-4.88494E-3	-289.737E-12	719.759E-3	48.4642E-3	-288.226E-12	656.319E-3	-21.8807E-3
-4.88995E-3	-288.659E-12	703.141E-3	28.3785E-3	-286.621E-12	620.116E-3	-9.38134E-3
-4.89495E-3	-286.000E-12	668.866E-3	16.3350E-3	-287.403E-12	609.452E-3	-27.3808E-3
-4.89995E-3	-284.343E-12	649.860E-3	19.2360E-3	-286.195E-12	627.197E-3	-49.9581E-3
-4.90495E-3	-283.520E-12	649.276E-3	24.3204E-3	-287.725E-12	629.880E-3	-61.4216E-3
-4.90995E-3	-283.285E-12	639.751E-3	-10.1159E-3	-287.777E-12	599.288E-3	-36.6950E-3
-4.91496E-3	-282.939E-12	618.186E-3	-30.0532E-3	-287.831E-12	608.024E-3	20.0578E-3
-4.91996E-3	-282.733E-12	620.157E-3	-18.8229E-3	-288.484E-12	667.154E-3	31.8779E-3
-4.92496E-3	-285.349E-12	628.143E-3	-21.2373E-3	-289.467E-12	714.195E-3	8.48950E-3
-4.92996E-3	-287.855E-12	650.284E-3	-6.29645E-3	-291.560E-12	735.418E-3	-22.1770E-3
-4.93497E-3	-289.474E-12	682.429E-3	-4.23160E-3	-292.699E-12	716.705E-3	-50.5195E-3
-4.93997E-3	-292.017E-12	683.020E-3	-41.6692E-3	-293.080E-12	662.873E-3	-51.1928E-3
-4.94497E-3	-294.968E-12	697.185E-3	-49.8447E-3	-291.847E-12	631.702E-3	-37.9606E-3
-4.94997E-3	-297.056E-12	735.442E-3	-11.2691E-3	-293.537E-12	622.273E-3	-21.4709E-3
-4.95498E-3	-298.572E-12	754.282E-3	7.00671E-3	-295.264E-12	622.162E-3	-33.7525E-3
-4.95998E-3	-300.602E-12	746.784E-3	11.3698E-3	-294.368E-12	650.670E-3	-60.5953E-3
-4.96498E-3	-300.800E-12	721.483E-3	20.5214E-3	-293.221E-12	673.597E-3	-56.4766E-3
-4.96998E-3	-300.081E-12	684.807E-3	-11.8562E-3	-292.735E-12	678.344E-3	-65.0377E-3
-4.97499E-3	-299.197E-12	657.962E-3	-18.4882E-3	-293.798E-12	688.931E-3	-79.3002E-3
-4.97999E-3	-297.916E-12	660.922E-3	-761.369E-6	-291.259E-12	679.300E-3	-60.8601E-3
-4.98499E-3	-295.991E-12	664.143E-3	-26.2770E-3	-289.909E-12	654.757E-3	-22.5654E-3
-4.98999E-3	-294.422E-12	670.057E-3	-16.3036E-3	-288.825E-12	635.176E-3	-3.58957E-3
-4.99500E-3	-293.186E-12	685.539E-3	6.79736E-3	-289.853E-12	630.303E-3	-44.5365E-3
-5.00000E-3	-291.553E-12	676.501E-3	-30.7339E-3	-290.464E-12	651.104E-3	-69.7012E-3
