Experiment	bias spectroscopy	
Date	19.01.2016 21:05:12	
User		
X (m)	50.1997E-9	
Y (m)	257.298E-9	
Z (m)	-132.551E-9	
Z offset (m)	0E+0	
Settling time (s)	200E-6	
Integration time (s)	5E-3	
Z-Ctrl hold	TRUE	
Final Z (m)	N/A	
Filter type	None	
Order		
Cutoff frq		
Comment01	MnPc/Pb(111)	
Comment02	dz =00pm	
Comment03	7 Sweeps	
Comment04	MagField =0.T	
Comment05	Divider 1:10	
Comment06	Setpoint:5mV,200 pA	
Comment07	Lockin: 50uVrms,5ms,5mV	
Comment08	Gain:9; 912Hz modulation	
Comment09	T=1.06K	
Bias>Bias (V)	5E-3	
Bias>Calibration (V/V)	81.475E-3	
Bias>Offset (V)	1.046E-3	
Bias Spectroscopy>Sweep Start (V)	5E-3	
Bias Spectroscopy>Sweep End (V)	-5E-3	
Bias Spectroscopy>Num Pixel	2000	
Bias Spectroscopy>Z Avg time (s)	500E-3	
Bias Spectroscopy>Z offset (m)	0E+0	
Bias Spectroscopy>1st Settling time (s)	500E-3	
Bias Spectroscopy>Settling time (s)	200E-6	
Bias Spectroscopy>Integration time (s)	5E-3	
Bias Spectroscopy>End Settling time (s)	500E-3	
Bias Spectroscopy>Z control time (s)	500E-3	
Bias Spectroscopy>Max Slew rate (V/s)	Inf	
Bias Spectroscopy>backward sweep	TRUE	
Bias Spectroscopy>Z-controller hold	TRUE	
Bias Spectroscopy>Number of sweeps	7	
Bias Spectroscopy>Channels	Current (A);X% LockIn (V);Y% LockIn (V)	
Bias Spectroscopy>Reset Bias	TRUE	
Bias Spectroscopy>Record final Z	FALSE	
Bias Spectroscopy>Lock-In run	FALSE	
Bias Spectroscopy>Sweep mode	Linear	
Bias Spectroscopy>MultiLine Settings : Segment Start (V), Segment End (V), Settling (s), Integration (s), Steps (xn)	100E-3,3.3E-3,100E-6,10E-3,2500;3.3E-3,-3.3E-3,100E-6,10E-3,10;-3.3E-3,-100E-3,100E-6,10E-3,2500	
Current>Current (A)	200.155E-12	
Current>Calibration (A/V)	999.99900E-12	
Current>Offset (A)	-455.429E-15	
Current>Gain	LN 10^9	
Z-Controller>Z (m)	-132.551E-9	
Z-Controller>Controller name	log Current	
Z-Controller>Controller status	ON	
Z-Controller>Setpoint	200E-12	
Z-Controller>Setpoint unit	A	
Z-Controller>P gain	2.96994E-12	
Z-Controller>I gain	67.0321E-9	
Z-Controller>Time const (s)	44.3062E-6	
Z-Controller>TipLift (m)	0E+0	
Z-Controller>Switch off delay (s)	50E-3	
Current (A)	199.832E-12	
Z (m)	-132.551E-9	

[DATA]
Bias calc (V)	Current (A)	X% LockIn (V)	Y% LockIn (V)	Current [bwd] (A)	X% LockIn [bwd] (V)	Y% LockIn [bwd] (V)
5.00000E-3	203.887E-12	602.600E-3	-33.4746E-3	198.713E-12	548.931E-3	20.8806E-3
4.99500E-3	205.783E-12	587.608E-3	-16.8807E-3	199.225E-12	581.069E-3	-37.4806E-3
4.98999E-3	203.495E-12	560.557E-3	-5.99425E-3	200.107E-12	605.616E-3	-64.6250E-3
4.98499E-3	203.934E-12	570.564E-3	10.4622E-3	200.058E-12	556.271E-3	-16.4419E-3
4.97999E-3	203.720E-12	583.613E-3	12.3291E-3	201.018E-12	517.801E-3	17.8171E-3
4.97499E-3	203.190E-12	564.376E-3	19.0326E-3	199.131E-12	543.687E-3	-22.7850E-3
4.96998E-3	201.271E-12	560.503E-3	32.9996E-3	199.630E-12	561.435E-3	-84.1905E-3
4.96498E-3	199.559E-12	572.806E-3	9.10767E-3	199.375E-12	557.735E-3	-80.8674E-3
4.95998E-3	200.060E-12	564.859E-3	5.89894E-3	198.984E-12	542.360E-3	-53.0228E-3
4.95498E-3	199.362E-12	549.531E-3	34.3860E-3	198.345E-12	525.690E-3	-44.8160E-3
4.94997E-3	196.949E-12	531.830E-3	29.8806E-3	198.127E-12	538.807E-3	-26.8954E-3
4.94497E-3	196.478E-12	520.185E-3	-3.32268E-3	198.395E-12	569.502E-3	-30.1008E-3
4.93997E-3	197.017E-12	513.706E-3	-30.4628E-3	197.311E-12	588.336E-3	-43.8204E-3
4.93497E-3	197.281E-12	501.944E-3	-35.2865E-3	196.221E-12	578.479E-3	-21.7528E-3
4.92996E-3	195.932E-12	523.864E-3	-8.02421E-3	196.814E-12	566.613E-3	-8.62405E-3
4.92496E-3	194.815E-12	568.634E-3	12.1575E-3	196.679E-12	580.294E-3	-17.0607E-3
4.91996E-3	195.969E-12	569.449E-3	6.69166E-3	196.252E-12	580.231E-3	-4.75230E-3
4.91496E-3	195.484E-12	542.656E-3	-13.5219E-3	195.815E-12	570.382E-3	7.33698E-3
4.90995E-3	196.217E-12	541.806E-3	-37.3442E-3	197.403E-12	554.383E-3	-2.68472E-3
4.90495E-3	195.927E-12	559.054E-3	-36.2795E-3	197.732E-12	533.214E-3	-18.4228E-3
4.89995E-3	197.352E-12	542.036E-3	-15.1570E-3	197.855E-12	554.042E-3	-24.3868E-3
4.89495E-3	197.452E-12	510.234E-3	-7.77359E-3	196.813E-12	593.794E-3	-25.4815E-3
4.88995E-3	197.095E-12	503.052E-3	-33.3911E-3	197.569E-12	580.430E-3	-3.35585E-3
4.88494E-3	198.387E-12	505.580E-3	-52.1376E-3	197.324E-12	542.836E-3	35.4062E-3
4.87994E-3	198.334E-12	532.339E-3	-51.0597E-3	197.592E-12	541.311E-3	28.5748E-3
4.87494E-3	199.027E-12	581.114E-3	-44.9493E-3	197.967E-12	544.126E-3	26.7904E-3
4.86993E-3	199.018E-12	576.324E-3	-37.0802E-3	196.678E-12	558.686E-3	34.3016E-3
4.86493E-3	198.406E-12	531.054E-3	-38.7379E-3	196.235E-12	593.606E-3	-14.5230E-3
4.85993E-3	198.651E-12	537.803E-3	-20.5313E-3	196.952E-12	583.554E-3	-28.6210E-3
4.85493E-3	197.401E-12	552.509E-3	-5.81232E-3	196.125E-12	535.443E-3	16.8209E-3
4.84992E-3	196.240E-12	542.025E-3	-38.6776E-3	196.786E-12	516.657E-3	7.38527E-3
4.84492E-3	195.352E-12	572.376E-3	-46.5716E-3	195.852E-12	528.197E-3	-37.8997E-3
4.83992E-3	194.526E-12	585.300E-3	-4.28021E-3	195.708E-12	551.542E-3	-50.6174E-3
4.83492E-3	192.488E-12	528.296E-3	2.99262E-3	194.434E-12	571.489E-3	-45.2274E-3
4.82991E-3	192.662E-12	525.734E-3	-27.6942E-3	195.483E-12	555.911E-3	-18.2762E-3
4.82491E-3	190.944E-12	578.867E-3	-41.3971E-3	195.649E-12	514.618E-3	7.24123E-3
4.81991E-3	190.280E-12	585.656E-3	-49.3500E-3	194.209E-12	517.848E-3	-13.6491E-3
4.81491E-3	189.156E-12	547.713E-3	-51.0222E-3	194.902E-12	547.758E-3	-28.0990E-3
4.80990E-3	189.040E-12	520.273E-3	-21.0727E-3	193.631E-12	546.539E-3	-16.0549E-3
4.80490E-3	189.228E-12	551.057E-3	20.4770E-3	193.254E-12	534.787E-3	-21.1735E-3
4.79990E-3	188.415E-12	603.379E-3	42.4201E-3	193.506E-12	518.610E-3	-17.6956E-3
4.79490E-3	191.272E-12	615.067E-3	20.3479E-3	192.887E-12	524.666E-3	-24.2575E-3
4.78989E-3	191.040E-12	577.147E-3	-17.4827E-3	191.546E-12	561.638E-3	-57.3994E-3
4.78489E-3	191.466E-12	551.708E-3	-22.7365E-3	191.997E-12	563.305E-3	-54.8966E-3
4.77989E-3	192.497E-12	564.591E-3	-2.90699E-3	192.944E-12	550.053E-3	-18.1857E-3
4.77489E-3	195.761E-12	571.413E-3	-2.27567E-3	191.840E-12	563.910E-3	-25.8762E-3
4.76988E-3	193.932E-12	577.443E-3	-38.4525E-3	191.111E-12	562.343E-3	-64.2275E-3
4.76488E-3	194.360E-12	579.185E-3	-49.8815E-3	191.283E-12	547.959E-3	-74.7190E-3
4.75988E-3	195.289E-12	562.803E-3	-35.5368E-3	192.632E-12	537.476E-3	-55.6385E-3
4.75488E-3	194.991E-12	575.263E-3	-34.0424E-3	191.392E-12	524.674E-3	-21.1286E-3
4.74988E-3	194.185E-12	590.163E-3	-18.1334E-3	191.163E-12	524.572E-3	-7.85643E-3
4.74487E-3	192.148E-12	568.106E-3	128.662E-6	191.865E-12	529.656E-3	-21.5700E-3
4.73987E-3	191.453E-12	579.677E-3	-1.85136E-3	191.357E-12	524.091E-3	-21.8960E-3
4.73487E-3	189.134E-12	608.771E-3	13.8657E-3	190.855E-12	527.418E-3	-7.60205E-3
4.72986E-3	188.049E-12	588.346E-3	19.4239E-3	190.418E-12	536.375E-3	-2.84783E-3
4.72486E-3	188.574E-12	562.749E-3	-20.7345E-3	191.065E-12	528.721E-3	-15.5544E-3
4.71986E-3	185.843E-12	563.702E-3	-35.3901E-3	189.562E-12	532.441E-3	-31.6694E-3
4.71486E-3	184.492E-12	535.638E-3	-16.8289E-3	189.101E-12	559.284E-3	-37.9897E-3
4.70985E-3	185.170E-12	503.517E-3	-20.2186E-3	188.780E-12	561.199E-3	-41.0907E-3
4.70485E-3	185.704E-12	519.341E-3	-25.0642E-3	188.116E-12	540.098E-3	-26.2246E-3
4.69985E-3	186.625E-12	554.111E-3	-19.0768E-3	187.386E-12	545.096E-3	6.39141E-3
4.69485E-3	186.750E-12	588.041E-3	-32.3384E-3	187.563E-12	573.259E-3	7.32451E-3
4.68984E-3	188.091E-12	595.164E-3	-35.6334E-3	187.281E-12	569.150E-3	-23.2433E-3
4.68484E-3	189.149E-12	568.595E-3	-24.7617E-3	187.255E-12	542.450E-3	-39.0277E-3
4.67984E-3	193.211E-12	545.224E-3	-25.7239E-3	187.083E-12	532.821E-3	-34.8041E-3
4.67484E-3	192.234E-12	569.253E-3	-37.8616E-3	186.365E-12	533.935E-3	-14.3112E-3
4.66983E-3	191.549E-12	591.524E-3	-36.2288E-3	187.089E-12	550.390E-3	-19.1222E-6
4.66483E-3	192.854E-12	576.072E-3	-30.1744E-3	187.027E-12	542.459E-3	-12.6110E-3
4.65983E-3	192.831E-12	583.207E-3	-37.1834E-3	187.478E-12	522.184E-3	-19.9594E-3
4.65483E-3	190.893E-12	603.276E-3	-24.2068E-3	188.339E-12	556.059E-3	-8.62904E-3
4.64982E-3	190.586E-12	579.933E-3	-16.6740E-3	188.161E-12	602.858E-3	-8.53257E-3
4.64482E-3	190.557E-12	554.751E-3	-32.6464E-3	189.136E-12	594.582E-3	-21.6065E-3
4.63982E-3	187.492E-12	570.934E-3	-45.3495E-3	189.745E-12	560.481E-3	-23.9107E-3
4.63482E-3	186.915E-12	586.184E-3	-71.8266E-3	188.292E-12	551.418E-3	-16.5219E-3
4.62981E-3	185.480E-12	587.512E-3	-86.7470E-3	189.010E-12	554.174E-3	15.0762E-3
4.62481E-3	183.572E-12	575.516E-3	-46.7430E-3	188.884E-12	563.985E-3	46.9188E-3
4.61981E-3	183.124E-12	556.122E-3	-23.0116E-3	187.412E-12	561.036E-3	17.9131E-3
4.61481E-3	184.108E-12	549.172E-3	-23.7942E-3	185.742E-12	545.532E-3	-25.7828E-3
4.60980E-3	183.588E-12	537.689E-3	-19.2196E-3	184.756E-12	564.210E-3	-31.6416E-3
4.60480E-3	182.521E-12	527.197E-3	-39.0235E-3	183.384E-12	572.206E-3	-28.2554E-3
4.59980E-3	183.878E-12	522.869E-3	-45.1759E-3	183.740E-12	538.533E-3	-16.8147E-3
4.59480E-3	183.762E-12	519.862E-3	-16.2614E-3	183.963E-12	513.209E-3	17.4809E-3
4.58979E-3	184.543E-12	539.695E-3	-6.72166E-3	181.623E-12	517.332E-3	19.8146E-3
4.58479E-3	186.530E-12	559.678E-3	-17.4689E-3	182.799E-12	550.563E-3	-17.0065E-3
4.57979E-3	186.924E-12	564.675E-3	8.42867E-3	184.537E-12	558.444E-3	-28.9195E-3
4.57479E-3	186.759E-12	556.443E-3	9.32010E-3	184.987E-12	531.925E-3	-28.2989E-3
4.56978E-3	188.515E-12	561.653E-3	-36.6035E-3	184.033E-12	533.873E-3	-35.8501E-3
4.56478E-3	189.244E-12	598.012E-3	-52.4292E-3	187.027E-12	534.146E-3	-49.9989E-3
4.55978E-3	188.048E-12	588.957E-3	-41.5764E-3	187.438E-12	529.328E-3	-67.6478E-3
4.55478E-3	187.252E-12	566.696E-3	-43.5788E-3	186.656E-12	549.230E-3	-59.5596E-3
4.54977E-3	187.640E-12	584.863E-3	-54.4167E-3	188.271E-12	561.662E-3	-42.6239E-3
4.54477E-3	186.683E-12	570.952E-3	-41.2052E-3	189.326E-12	555.263E-3	-44.5738E-3
4.53977E-3	185.001E-12	557.499E-3	-38.9752E-3	187.060E-12	541.700E-3	-41.0197E-3
4.53477E-3	182.795E-12	597.689E-3	-41.9108E-3	186.183E-12	532.033E-3	-18.6948E-3
4.52976E-3	181.454E-12	618.798E-3	-31.1510E-3	186.643E-12	534.960E-3	-915.484E-6
4.52476E-3	180.327E-12	586.018E-3	-41.9470E-3	184.211E-12	555.291E-3	-21.3760E-3
4.51976E-3	180.001E-12	541.214E-3	-29.0119E-3	182.422E-12	581.084E-3	-50.6644E-3
4.51476E-3	178.482E-12	527.201E-3	8.37041E-3	181.789E-12	574.824E-3	-34.6972E-3
4.50975E-3	177.550E-12	541.168E-3	6.10445E-3	181.131E-12	543.671E-3	-21.3986E-3
4.50475E-3	178.442E-12	566.284E-3	-12.7448E-3	179.301E-12	538.078E-3	-36.3771E-3
4.49975E-3	178.775E-12	587.346E-3	-16.0140E-3	178.813E-12	566.714E-3	-37.6684E-3
4.49475E-3	177.844E-12	589.044E-3	-3.16458E-3	178.184E-12	572.418E-3	-12.5095E-3
4.48974E-3	178.078E-12	595.472E-3	13.2234E-3	177.791E-12	549.583E-3	2.20224E-3
4.48474E-3	179.061E-12	615.361E-3	-2.41432E-3	178.148E-12	534.053E-3	-20.3082E-3
4.47974E-3	180.083E-12	611.996E-3	-24.5661E-3	178.180E-12	529.625E-3	-31.2167E-3
4.47474E-3	180.619E-12	575.226E-3	-23.2289E-3	178.828E-12	549.991E-3	-32.0197E-3
4.46973E-3	181.046E-12	559.490E-3	-28.8105E-3	179.174E-12	559.978E-3	-37.2302E-3
4.46473E-3	181.772E-12	575.931E-3	-21.4665E-3	180.781E-12	555.685E-3	-18.0233E-3
4.45973E-3	183.160E-12	564.642E-3	27.4395E-3	181.731E-12	555.019E-3	-18.8007E-3
4.45473E-3	182.895E-12	524.068E-3	56.1345E-3	182.721E-12	531.312E-3	-35.7038E-3
4.44972E-3	182.144E-12	524.231E-3	39.2348E-3	182.513E-12	525.500E-3	-24.5436E-3
4.44472E-3	181.346E-12	564.621E-3	9.31859E-3	182.301E-12	575.968E-3	-18.9206E-3
4.43972E-3	181.748E-12	581.446E-3	1.07148E-3	181.466E-12	618.900E-3	-23.8697E-3
4.43472E-3	181.007E-12	577.671E-3	6.86401E-3	182.776E-12	599.913E-3	-29.4296E-3
4.42971E-3	179.023E-12	574.301E-3	-1.04101E-3	181.940E-12	563.859E-3	-31.2443E-3
4.42471E-3	178.607E-12	563.233E-3	-5.29921E-3	180.120E-12	570.815E-3	-28.9909E-3
4.41971E-3	178.939E-12	564.855E-3	-11.0811E-3	179.772E-12	591.574E-3	-50.0718E-3
4.41471E-3	178.210E-12	576.770E-3	-19.7753E-3	180.053E-12	574.547E-3	-64.2868E-3
4.40970E-3	176.898E-12	570.603E-3	-14.8680E-3	177.593E-12	551.564E-3	-32.6028E-3
4.40470E-3	176.472E-12	557.891E-3	-23.9066E-3	176.427E-12	543.558E-3	7.19563E-3
4.39970E-3	174.924E-12	536.107E-3	-55.3392E-3	178.068E-12	543.268E-3	6.43079E-3
4.39470E-3	175.047E-12	531.106E-3	-66.1703E-3	176.753E-12	559.531E-3	-25.7848E-3
4.38969E-3	175.284E-12	552.500E-3	-73.7525E-3	176.285E-12	566.676E-3	-33.8655E-3
4.38469E-3	174.680E-12	542.812E-3	-69.3817E-3	177.099E-12	557.578E-3	-23.3323E-3
4.37969E-3	175.123E-12	526.812E-3	-22.5772E-3	177.553E-12	562.181E-3	-43.4078E-3
4.37469E-3	176.229E-12	522.675E-3	4.45411E-3	175.849E-12	564.749E-3	-56.0333E-3
4.36968E-3	176.039E-12	527.704E-3	14.4265E-3	176.026E-12	568.695E-3	-29.0516E-3
4.36468E-3	177.064E-12	549.078E-3	14.4500E-3	176.669E-12	576.932E-3	-10.9332E-3
4.35968E-3	178.124E-12	570.830E-3	1.33845E-3	177.054E-12	550.476E-3	-24.6301E-3
4.35468E-3	178.072E-12	591.823E-3	-3.11475E-3	176.808E-12	518.076E-3	-24.0223E-3
4.34967E-3	179.115E-12	609.603E-3	-3.40076E-3	176.518E-12	524.691E-3	-10.0449E-3
4.34467E-3	179.783E-12	611.378E-3	13.3813E-3	176.719E-12	518.556E-3	-17.1283E-3
4.33967E-3	178.601E-12	596.980E-3	22.2347E-3	176.644E-12	488.894E-3	-6.18822E-3
4.33467E-3	178.635E-12	588.878E-3	-11.2875E-3	176.174E-12	509.242E-3	1.95370E-3
4.32966E-3	179.379E-12	602.193E-3	-27.0073E-3	176.352E-12	555.296E-3	-21.9858E-3
4.32466E-3	178.067E-12	616.478E-3	-12.6437E-3	176.463E-12	556.575E-3	-29.0029E-3
4.31966E-3	176.660E-12	594.978E-3	-15.9867E-3	176.116E-12	533.078E-3	-13.1719E-3
4.31466E-3	176.506E-12	558.193E-3	-27.1057E-3	175.830E-12	527.775E-3	4.66020E-3
4.30965E-3	174.637E-12	570.466E-3	-29.8879E-3	176.650E-12	538.481E-3	-2.81667E-3
4.30465E-3	172.970E-12	600.587E-3	-26.5942E-3	176.222E-12	543.565E-3	-30.8016E-3
4.29965E-3	173.019E-12	581.532E-3	-22.0795E-3	175.386E-12	560.325E-3	-56.8399E-3
4.29465E-3	171.587E-12	541.266E-3	-13.2225E-3	174.774E-12	580.301E-3	-61.8352E-3
4.28964E-3	169.958E-12	525.606E-3	-12.1917E-3	175.466E-12	576.177E-3	-49.7750E-3
4.28464E-3	170.815E-12	543.370E-3	-19.7230E-3	173.620E-12	553.339E-3	-60.9576E-3
4.27964E-3	170.392E-12	558.339E-3	-25.5615E-3	173.256E-12	529.530E-3	-68.8116E-3
4.27464E-3	170.603E-12	565.866E-3	-12.4672E-3	172.977E-12	519.572E-3	-31.4947E-3
4.26963E-3	171.086E-12	571.374E-3	-27.6222E-3	172.386E-12	521.636E-3	4.98709E-3
4.26463E-3	173.004E-12	549.731E-3	-60.2603E-3	170.356E-12	543.269E-3	9.61039E-3
4.25963E-3	173.394E-12	541.546E-3	-34.6755E-3	170.419E-12	559.175E-3	-7.58197E-3
4.25463E-3	173.613E-12	561.566E-3	-24.3224E-3	171.799E-12	564.621E-3	-38.6109E-3
4.24962E-3	175.236E-12	570.063E-3	-52.6442E-3	171.364E-12	569.269E-3	-42.1710E-3
4.24462E-3	174.706E-12	561.336E-3	-50.0102E-3	171.264E-12	558.127E-3	-3.36154E-3
4.23962E-3	175.209E-12	553.352E-3	-35.0253E-3	170.816E-12	560.761E-3	24.4670E-3
4.23462E-3	176.755E-12	561.016E-3	-16.8820E-3	172.393E-12	566.324E-3	6.93332E-3
4.22961E-3	174.887E-12	578.740E-3	25.1786E-3	171.995E-12	547.855E-3	-21.4062E-3
4.22461E-3	173.130E-12	570.722E-3	34.3244E-3	173.973E-12	532.882E-3	-35.1023E-3
4.21961E-3	173.844E-12	552.567E-3	1.94000E-3	173.866E-12	536.830E-3	-45.1327E-3
4.21461E-3	172.182E-12	547.684E-3	1.95413E-3	175.362E-12	534.144E-3	-46.0419E-3
4.20960E-3	169.831E-12	539.846E-3	10.1263E-3	174.454E-12	536.948E-3	-51.9432E-3
4.20460E-3	169.021E-12	541.927E-3	-34.2590E-3	174.494E-12	552.135E-3	-56.8950E-3
4.19960E-3	168.015E-12	538.729E-3	-58.7540E-3	174.075E-12	560.843E-3	-57.8810E-3
4.19460E-3	164.939E-12	511.809E-3	-32.8706E-3	172.731E-12	579.931E-3	-49.5769E-3
4.18959E-3	165.298E-12	500.804E-3	-24.7537E-3	171.119E-12	571.053E-3	-25.2178E-3
4.18459E-3	165.403E-12	536.917E-3	-23.8065E-3	169.659E-12	542.076E-3	-23.0195E-3
4.17959E-3	164.356E-12	574.008E-3	4.11435E-3	170.089E-12	563.848E-3	-12.2762E-3
4.17459E-3	165.408E-12	580.360E-3	21.3588E-3	166.974E-12	586.011E-3	5.51583E-3
4.16958E-3	166.245E-12	585.237E-3	10.4747E-3	166.115E-12	566.969E-3	-2.48857E-3
4.16458E-3	167.456E-12	574.014E-3	9.76598E-3	165.785E-12	572.550E-3	-9.09886E-3
4.15958E-3	167.509E-12	527.968E-3	6.29414E-3	165.043E-12	580.897E-3	-36.5722E-3
4.15458E-3	169.256E-12	501.756E-3	-10.3252E-3	165.578E-12	558.584E-3	-50.5816E-3
4.14957E-3	169.294E-12	521.372E-3	-3.42999E-3	164.648E-12	554.338E-3	-32.9759E-3
4.14457E-3	170.425E-12	545.193E-3	23.1579E-3	166.774E-12	567.433E-3	-30.3678E-3
4.13957E-3	172.423E-12	555.168E-3	34.2663E-3	167.449E-12	590.709E-3	-10.5537E-3
4.13457E-3	171.878E-12	552.123E-3	17.8552E-3	169.408E-12	609.270E-3	12.6827E-3
4.12956E-3	171.033E-12	544.288E-3	-15.0026E-3	169.205E-12	596.548E-3	5.81926E-3
4.12456E-3	171.152E-12	561.714E-3	-32.8521E-3	171.272E-12	562.472E-3	-15.7770E-3
4.11956E-3	170.114E-12	585.653E-3	-19.7624E-3	171.299E-12	559.225E-3	-49.0342E-3
4.11456E-3	168.707E-12	571.446E-3	-12.2880E-3	171.893E-12	605.058E-3	-54.5335E-3
4.10955E-3	167.660E-12	554.050E-3	-4.16820E-3	172.059E-12	632.597E-3	-9.64964E-3
4.10455E-3	164.819E-12	551.725E-3	23.9206E-3	171.290E-12	613.500E-3	12.3688E-3
4.09955E-3	163.650E-12	548.937E-3	42.7241E-3	170.758E-12	587.151E-3	-39.8056E-3
4.09455E-3	162.417E-12	563.330E-3	36.5348E-3	167.909E-12	584.126E-3	-77.8764E-3
4.08954E-3	161.474E-12	570.874E-3	19.9230E-3	167.594E-12	594.304E-3	-41.4891E-3
4.08454E-3	161.627E-12	547.920E-3	14.4496E-3	166.043E-12	598.244E-3	-12.3355E-3
4.07954E-3	162.138E-12	528.785E-3	-4.12430E-3	164.223E-12	597.265E-3	-9.58635E-3
4.07454E-3	161.361E-12	534.628E-3	-29.1189E-3	162.375E-12	590.723E-3	-17.9431E-3
4.06953E-3	163.289E-12	547.197E-3	-37.8099E-3	163.427E-12	582.707E-3	-50.5644E-3
4.06453E-3	163.407E-12	538.182E-3	-43.3273E-3	161.218E-12	574.221E-3	-71.2100E-3
4.05953E-3	164.395E-12	527.836E-3	-28.4007E-3	161.357E-12	570.908E-3	-56.9127E-3
4.05453E-3	164.832E-12	539.793E-3	-9.80289E-3	162.217E-12	581.573E-3	-27.0131E-3
4.04952E-3	166.505E-12	551.902E-3	-32.8620E-3	162.372E-12	563.139E-3	3.05621E-3
4.04452E-3	167.329E-12	577.209E-3	-49.1780E-3	163.667E-12	534.778E-3	-4.99149E-3
4.03952E-3	167.604E-12	594.945E-3	-11.6054E-3	164.263E-12	549.534E-3	-32.1132E-3
4.03452E-3	168.837E-12	580.303E-3	18.5664E-3	164.987E-12	572.479E-3	-29.1325E-3
4.02951E-3	167.596E-12	575.216E-3	4.48278E-3	165.726E-12	563.247E-3	-17.9927E-3
4.02451E-3	168.075E-12	560.912E-3	-22.8998E-3	167.992E-12	552.892E-3	-24.4256E-3
4.01951E-3	166.942E-12	559.215E-3	-44.4176E-3	168.286E-12	579.571E-3	-33.4660E-3
4.01451E-3	167.113E-12	598.139E-3	-43.1698E-3	167.265E-12	597.360E-3	-30.1250E-3
4.00950E-3	164.424E-12	616.487E-3	-21.1937E-3	167.029E-12	584.982E-3	-18.1435E-3
4.00450E-3	164.363E-12	609.899E-3	-34.5934E-3	166.237E-12	580.859E-3	-7.92079E-3
3.99950E-3	163.233E-12	590.432E-3	-77.8188E-3	166.114E-12	596.669E-3	-11.1379E-3
3.99450E-3	162.587E-12	589.193E-3	-70.4806E-3	164.922E-12	592.397E-3	-18.1129E-3
3.98949E-3	161.840E-12	599.974E-3	-47.3578E-3	163.656E-12	551.732E-3	-20.8551E-3
3.98449E-3	162.862E-12	578.641E-3	-36.8353E-3	161.963E-12	534.460E-3	-37.5263E-3
3.97949E-3	161.151E-12	571.522E-3	5.14484E-3	161.645E-12	559.096E-3	-30.5792E-3
3.97449E-3	160.522E-12	560.360E-3	24.9109E-3	161.057E-12	570.079E-3	4.35826E-3
3.96948E-3	161.906E-12	525.746E-3	-5.96643E-3	159.774E-12	540.835E-3	2.79911E-3
3.96448E-3	161.356E-12	523.157E-3	-34.2203E-3	160.300E-12	511.210E-3	-11.1209E-3
3.95948E-3	162.307E-12	539.587E-3	-40.4702E-3	160.871E-12	524.101E-3	-12.4086E-3
3.95448E-3	161.242E-12	544.842E-3	-31.3102E-3	159.276E-12	558.720E-3	-29.5985E-3
3.94947E-3	161.306E-12	554.602E-3	-17.8522E-3	159.900E-12	561.891E-3	-36.5372E-3
3.94447E-3	161.110E-12	572.453E-3	815.370E-6	161.424E-12	551.197E-3	-27.6037E-3
3.93947E-3	161.680E-12	561.311E-3	11.7890E-3	161.339E-12	567.921E-3	-43.3498E-3
3.93447E-3	161.801E-12	537.208E-3	1.59632E-3	160.115E-12	591.990E-3	-60.8547E-3
3.92946E-3	160.807E-12	555.732E-3	-24.4430E-3	161.139E-12	595.204E-3	-56.2080E-3
3.92446E-3	161.413E-12	589.440E-3	-36.8375E-3	161.409E-12	584.415E-3	-39.0173E-3
3.91946E-3	161.349E-12	590.420E-3	-26.9663E-3	159.612E-12	575.593E-3	-10.5387E-3
3.91446E-3	160.651E-12	577.114E-3	-16.4626E-3	160.186E-12	571.121E-3	6.26610E-3
3.90945E-3	160.528E-12	564.051E-3	-519.888E-6	159.612E-12	575.176E-3	11.7488E-3
3.90445E-3	159.594E-12	566.630E-3	21.5279E-3	158.435E-12	584.777E-3	15.1532E-3
3.89945E-3	158.567E-12	580.587E-3	26.8945E-3	159.302E-12	580.933E-3	1.46274E-3
3.89445E-3	157.977E-12	567.463E-3	5.11266E-3	158.432E-12	544.326E-3	-13.5527E-3
3.88944E-3	157.422E-12	556.761E-3	-23.5812E-3	158.632E-12	517.877E-3	-17.3557E-3
3.88444E-3	157.168E-12	579.973E-3	-38.5570E-3	158.731E-12	544.479E-3	-22.1770E-3
3.87944E-3	157.339E-12	596.951E-3	-38.3204E-3	157.204E-12	567.652E-3	-43.3854E-3
3.87444E-3	156.524E-12	597.239E-3	-36.5662E-3	157.547E-12	557.702E-3	-61.5791E-3
3.86943E-3	155.117E-12	595.581E-3	-44.9522E-3	158.568E-12	558.379E-3	-53.2423E-3
3.86443E-3	155.652E-12	594.703E-3	-42.1122E-3	157.116E-12	565.105E-3	-34.3480E-3
3.85943E-3	154.932E-12	583.007E-3	-22.3325E-3	155.894E-12	566.298E-3	-33.5075E-3
3.85443E-3	154.589E-12	564.410E-3	-19.7523E-3	157.330E-12	592.435E-3	-37.4887E-3
3.84942E-3	154.965E-12	559.327E-3	-17.1081E-3	156.364E-12	607.042E-3	-30.0845E-3
3.84442E-3	155.064E-12	563.904E-3	4.39293E-3	156.293E-12	576.849E-3	-26.5732E-3
3.83942E-3	154.718E-12	581.093E-3	9.91093E-3	156.007E-12	559.623E-3	-29.9042E-3
3.83442E-3	155.077E-12	589.082E-3	892.490E-6	155.232E-12	557.135E-3	-25.3557E-3
3.82941E-3	156.496E-12	546.327E-3	2.77331E-3	154.812E-12	552.207E-3	-15.2540E-3
3.82441E-3	156.805E-12	515.410E-3	10.6585E-3	154.676E-12	573.908E-3	-15.9416E-3
3.81941E-3	156.748E-12	558.172E-3	2.99159E-3	155.472E-12	594.787E-3	-28.4150E-3
3.81441E-3	156.764E-12	588.633E-3	-33.7362E-3	154.749E-12	593.604E-3	-16.5693E-3
3.80940E-3	157.492E-12	555.919E-3	-58.3742E-3	155.271E-12	598.725E-3	18.2294E-3
3.80440E-3	157.110E-12	532.976E-3	-40.7896E-3	155.165E-12	605.051E-3	14.1891E-3
3.79940E-3	156.291E-12	542.507E-3	-18.1375E-3	156.107E-12	596.766E-3	-29.6736E-3
3.79440E-3	157.662E-12	554.300E-3	-11.7048E-3	156.296E-12	595.637E-3	-47.4437E-3
3.78939E-3	155.794E-12	567.186E-3	-10.3977E-3	157.658E-12	596.792E-3	-17.0137E-3
3.78439E-3	154.695E-12	576.038E-3	-10.6376E-3	157.223E-12	550.253E-3	12.5057E-3
3.77939E-3	154.184E-12	581.442E-3	-2.65398E-3	157.996E-12	507.502E-3	17.8712E-3
3.77439E-3	154.183E-12	589.961E-3	5.43839E-3	157.208E-12	544.042E-3	17.8667E-3
3.76938E-3	152.384E-12	590.441E-3	4.31658E-3	155.588E-12	582.832E-3	10.4135E-3
3.76438E-3	151.340E-12	565.644E-3	-8.10876E-3	156.050E-12	575.339E-3	-2.93548E-3
3.75938E-3	150.412E-12	543.515E-3	-29.6307E-3	154.881E-12	546.297E-3	-21.7580E-3
3.75438E-3	150.236E-12	536.543E-3	-36.9408E-3	152.760E-12	526.973E-3	-12.6476E-3
3.74937E-3	151.824E-12	520.157E-3	-28.5376E-3	152.692E-12	545.653E-3	16.6772E-3
3.74437E-3	151.163E-12	518.383E-3	-4.24225E-3	151.319E-12	578.754E-3	13.9866E-3
3.73937E-3	151.862E-12	525.490E-3	16.1880E-3	151.362E-12	582.357E-3	-6.04974E-3
3.73437E-3	153.369E-12	517.872E-3	-1.77985E-3	150.209E-12	551.870E-3	-18.1519E-3
3.72936E-3	154.170E-12	531.913E-3	-27.8952E-3	149.757E-12	540.313E-3	-17.1610E-3
3.72436E-3	154.484E-12	583.399E-3	-47.4802E-3	150.576E-12	555.091E-3	-33.0294E-3
3.71936E-3	154.186E-12	610.205E-3	-60.1067E-3	150.716E-12	570.223E-3	-39.0416E-3
3.71436E-3	155.330E-12	610.870E-3	-48.6276E-3	151.340E-12	602.538E-3	1.56328E-3
3.70935E-3	156.410E-12	618.206E-3	-26.3116E-3	151.973E-12	631.688E-3	12.4814E-3
3.70435E-3	155.415E-12	609.850E-3	-25.1834E-3	153.522E-12	622.313E-3	-6.57747E-3
3.69935E-3	154.429E-12	601.499E-3	-30.9618E-3	153.935E-12	607.134E-3	-12.1036E-3
3.69435E-3	154.095E-12	609.312E-3	-14.3549E-3	154.743E-12	610.076E-3	-20.5548E-3
3.68934E-3	154.134E-12	613.831E-3	-25.8904E-3	155.664E-12	600.160E-3	-20.3974E-3
3.68434E-3	151.456E-12	608.255E-3	-58.3182E-3	154.762E-12	568.638E-3	-12.1139E-3
3.67934E-3	149.790E-12	601.732E-3	-64.2607E-3	155.617E-12	579.012E-3	-22.9003E-3
3.67434E-3	148.746E-12	584.487E-3	-55.3520E-3	155.744E-12	612.168E-3	-36.6540E-3
3.66933E-3	148.877E-12	556.565E-3	-41.9265E-3	154.342E-12	589.961E-3	-34.3585E-3
3.66433E-3	146.983E-12	549.079E-3	-29.6068E-3	151.643E-12	539.461E-3	-23.5919E-3
3.65933E-3	146.848E-12	555.103E-3	-12.5815E-3	151.134E-12	504.730E-3	-18.3420E-3
3.65433E-3	146.439E-12	557.868E-3	-5.32581E-3	150.145E-12	512.479E-3	-22.0672E-3
3.64932E-3	147.476E-12	552.939E-3	-12.5619E-3	147.909E-12	550.430E-3	-26.6823E-3
3.64432E-3	148.383E-12	557.715E-3	-7.74999E-3	147.320E-12	571.493E-3	-31.5448E-3
3.63932E-3	148.109E-12	590.178E-3	-10.0903E-3	146.482E-12	567.873E-3	-28.0921E-3
3.63432E-3	149.356E-12	606.889E-3	-19.7732E-3	146.069E-12	548.556E-3	-33.2785E-3
3.62931E-3	149.390E-12	603.756E-3	-14.8913E-3	146.900E-12	526.915E-3	-53.7647E-3
3.62431E-3	149.942E-12	589.448E-3	-6.15279E-3	147.000E-12	534.297E-3	-58.3875E-3
3.61931E-3	149.632E-12	557.406E-3	15.9551E-3	146.216E-12	560.521E-3	-31.3404E-3
3.61431E-3	150.001E-12	543.827E-3	27.9922E-3	148.408E-12	578.088E-3	6.52247E-3
3.60930E-3	149.176E-12	550.384E-3	3.71745E-3	149.365E-12	576.437E-3	15.0630E-3
3.60430E-3	149.170E-12	563.194E-3	-15.8167E-3	149.240E-12	555.980E-3	5.62733E-3
3.59930E-3	148.741E-12	567.007E-3	-6.65603E-3	149.641E-12	553.935E-3	-4.68327E-3
3.59430E-3	147.553E-12	575.661E-3	11.1051E-3	151.117E-12	582.080E-3	-29.3194E-3
3.58929E-3	146.839E-12	588.507E-3	29.0975E-3	149.629E-12	582.904E-3	-32.8121E-3
3.58429E-3	145.413E-12	581.878E-3	46.2128E-3	149.099E-12	557.909E-3	-10.1477E-3
3.57929E-3	144.520E-12	588.299E-3	37.4094E-3	149.731E-12	568.990E-3	-8.79566E-3
3.57429E-3	143.636E-12	593.689E-3	9.97425E-3	148.665E-12	579.752E-3	-35.8042E-3
3.56928E-3	143.609E-12	574.385E-3	-11.7019E-3	146.344E-12	567.644E-3	-44.8171E-3
3.56428E-3	143.186E-12	572.344E-3	-21.9231E-3	147.222E-12	570.853E-3	-26.0441E-3
3.55928E-3	142.923E-12	581.100E-3	-19.3117E-3	146.224E-12	568.587E-3	-11.4255E-3
3.55428E-3	144.254E-12	571.136E-3	-12.3254E-3	143.832E-12	542.147E-3	9.49857E-3
3.54927E-3	144.371E-12	561.556E-3	-20.5495E-3	142.887E-12	528.740E-3	28.7003E-3
3.54427E-3	143.973E-12	559.351E-3	-34.6387E-3	142.939E-12	533.852E-3	27.5103E-3
3.53927E-3	144.650E-12	553.197E-3	-36.3477E-3	141.780E-12	544.974E-3	13.5164E-3
3.53427E-3	145.114E-12	549.545E-3	-25.1080E-3	142.455E-12	556.019E-3	-5.44639E-3
3.52926E-3	145.565E-12	572.619E-3	-16.1073E-3	142.742E-12	550.200E-3	-7.97948E-3
3.52426E-3	145.036E-12	598.358E-3	-14.9361E-3	143.738E-12	532.671E-3	-2.44186E-3
3.51926E-3	145.214E-12	579.809E-3	-15.9967E-3	142.897E-12	530.220E-3	-11.4155E-3
3.51426E-3	144.793E-12	552.009E-3	-17.2564E-3	143.845E-12	540.489E-3	-12.1504E-3
3.50925E-3	144.055E-12	553.223E-3	9.96527E-3	144.426E-12	541.081E-3	4.06315E-3
3.50425E-3	144.852E-12	559.260E-3	21.7964E-3	143.973E-12	538.654E-3	15.8205E-3
3.49925E-3	143.042E-12	565.137E-3	-3.87813E-3	144.174E-12	557.995E-3	21.8360E-3
3.49425E-3	142.415E-12	572.792E-3	777.824E-6	144.195E-12	583.348E-3	12.8857E-3
3.48924E-3	143.219E-12	546.942E-3	11.7668E-3	143.955E-12	583.198E-3	566.894E-6
3.48424E-3	142.054E-12	520.110E-3	-3.11346E-3	143.207E-12	572.752E-3	14.0044E-3
3.47924E-3	141.317E-12	539.875E-3	-9.09277E-3	143.696E-12	557.791E-3	23.3008E-3
3.47424E-3	142.091E-12	562.335E-3	-12.3426E-3	142.460E-12	568.722E-3	-2.96661E-3
3.46923E-3	141.109E-12	583.465E-3	-14.6028E-3	140.773E-12	594.200E-3	-25.4973E-3
3.46423E-3	139.606E-12	616.889E-3	1.11825E-3	142.418E-12	566.118E-3	-21.7304E-3
3.45923E-3	140.790E-12	614.497E-3	12.9771E-3	140.975E-12	530.006E-3	-21.0345E-3
3.45423E-3	140.738E-12	582.528E-3	8.71410E-3	139.982E-12	538.131E-3	-25.3218E-3
3.44922E-3	140.852E-12	555.044E-3	-3.31988E-3	139.090E-12	564.866E-3	-38.2762E-3
3.44422E-3	140.904E-12	551.439E-3	-14.9468E-3	139.997E-12	584.312E-3	-61.1751E-3
3.43922E-3	141.588E-12	555.440E-3	-23.2778E-3	138.788E-12	585.636E-3	-53.5719E-3
3.43422E-3	140.307E-12	543.548E-3	-23.6370E-3	139.457E-12	578.874E-3	-22.1187E-3
3.42921E-3	140.549E-12	537.310E-3	-23.3865E-3	140.012E-12	585.392E-3	-6.96066E-3
3.42421E-3	141.081E-12	552.484E-3	-19.0653E-3	140.205E-12	582.503E-3	-3.79863E-3
3.41921E-3	140.960E-12	575.594E-3	-16.3284E-3	140.133E-12	565.724E-3	-18.3551E-3
3.41421E-3	140.975E-12	581.087E-3	-23.6326E-3	140.640E-12	562.513E-3	-39.8678E-3
3.40920E-3	140.165E-12	578.988E-3	-12.4692E-3	140.013E-12	562.459E-3	-32.2863E-3
3.40420E-3	139.802E-12	578.965E-3	-3.66377E-3	140.170E-12	560.480E-3	-17.7101E-3
3.39920E-3	139.805E-12	570.995E-3	-32.5529E-3	140.563E-12	565.663E-3	-11.5934E-3
3.39420E-3	139.771E-12	562.235E-3	-60.6148E-3	140.047E-12	568.406E-3	-9.06489E-3
3.38919E-3	139.517E-12	554.744E-3	-50.9539E-3	139.336E-12	584.487E-3	-16.6294E-3
3.38419E-3	139.249E-12	548.133E-3	-33.4563E-3	139.439E-12	617.428E-3	-38.8247E-3
3.37919E-3	139.243E-12	556.372E-3	-19.9278E-3	140.272E-12	612.211E-3	-43.2237E-3
3.37419E-3	138.448E-12	581.724E-3	-9.55457E-3	139.421E-12	578.229E-3	-20.3994E-3
3.36918E-3	138.093E-12	577.777E-3	-11.0617E-3	139.913E-12	568.691E-3	-2.06340E-3
3.36418E-3	137.993E-12	554.212E-3	-7.87556E-3	139.646E-12	570.589E-3	18.3821E-3
3.35918E-3	137.869E-12	575.597E-3	12.1694E-3	139.584E-12	565.435E-3	19.1193E-3
3.35418E-3	137.297E-12	596.263E-3	31.4756E-3	138.989E-12	568.016E-3	-5.13190E-3
3.34917E-3	137.573E-12	580.256E-3	35.5569E-3	139.622E-12	588.422E-3	-15.8309E-3
3.34417E-3	137.285E-12	574.250E-3	15.7778E-3	139.864E-12	610.621E-3	-4.64076E-3
3.33917E-3	137.050E-12	580.623E-3	-11.8993E-3	138.599E-12	619.175E-3	2.30222E-3
3.33417E-3	135.752E-12	567.546E-3	5.32274E-3	138.187E-12	620.611E-3	-5.20338E-3
3.32916E-3	136.015E-12	544.285E-3	30.4611E-3	137.962E-12	598.966E-3	-827.654E-6
3.32416E-3	136.527E-12	537.389E-3	22.3888E-3	136.855E-12	563.305E-3	11.8955E-3
3.31916E-3	136.080E-12	542.435E-3	-7.09454E-3	136.116E-12	547.513E-3	4.73917E-3
3.31416E-3	135.407E-12	555.432E-3	-24.9645E-3	136.183E-12	549.509E-3	-25.4488E-3
3.30915E-3	135.746E-12	574.518E-3	-13.7612E-3	136.013E-12	573.657E-3	-38.9875E-3
3.30415E-3	136.134E-12	594.449E-3	-17.6069E-3	134.620E-12	584.046E-3	-23.4807E-3
3.29915E-3	136.182E-12	622.316E-3	-32.1605E-3	134.112E-12	569.891E-3	-7.81432E-3
3.29415E-3	135.219E-12	632.300E-3	-35.2372E-3	134.305E-12	567.218E-3	15.8967E-3
3.28914E-3	135.733E-12	620.822E-3	-23.7664E-3	133.708E-12	577.353E-3	18.8226E-3
3.28414E-3	136.295E-12	627.497E-3	-14.2201E-3	133.812E-12	588.464E-3	-7.63465E-3
3.27914E-3	135.023E-12	625.686E-3	2.74586E-3	134.224E-12	586.783E-3	-4.86461E-3
3.27414E-3	134.978E-12	588.118E-3	2.95175E-3	135.540E-12	578.007E-3	2.21533E-3
3.26913E-3	135.085E-12	564.411E-3	-18.0084E-3	135.853E-12	578.563E-3	-11.5088E-3
3.26413E-3	134.291E-12	577.550E-3	-6.14118E-3	137.047E-12	590.150E-3	-22.1837E-3
3.25913E-3	134.521E-12	587.690E-3	9.68337E-3	137.054E-12	592.147E-3	-27.6555E-3
3.25413E-3	133.473E-12	586.031E-3	5.12750E-3	136.465E-12	576.911E-3	-29.5951E-3
3.24912E-3	132.459E-12	594.387E-3	-1.37396E-3	137.303E-12	579.806E-3	-15.5392E-3
3.24412E-3	132.639E-12	582.399E-3	8.60295E-3	136.061E-12	604.502E-3	-13.5930E-3
3.23912E-3	131.990E-12	560.165E-3	22.0876E-3	135.203E-12	601.791E-3	-26.6396E-3
3.23412E-3	131.912E-12	572.476E-3	25.6747E-3	134.376E-12	573.721E-3	-14.4404E-3
3.22911E-3	131.997E-12	571.024E-3	21.2185E-3	134.887E-12	568.015E-3	-7.35088E-3
3.22411E-3	131.843E-12	556.356E-3	-7.18173E-3	132.111E-12	582.902E-3	2.46764E-3
3.21911E-3	131.527E-12	557.098E-3	-24.2791E-3	131.385E-12	584.879E-3	8.35103E-3
3.21411E-3	132.073E-12	550.544E-3	-15.6223E-3	131.272E-12	575.219E-3	-14.7027E-3
3.20910E-3	132.277E-12	560.173E-3	-20.4220E-3	130.418E-12	576.243E-3	-35.3024E-3
3.20410E-3	132.478E-12	575.558E-3	-20.2177E-3	129.136E-12	575.224E-3	-45.8109E-3
3.19910E-3	132.651E-12	565.589E-3	-12.9723E-3	129.104E-12	551.509E-3	-48.5509E-3
3.19410E-3	132.859E-12	562.995E-3	-10.6113E-3	130.435E-12	524.068E-3	-37.1219E-3
3.18909E-3	132.902E-12	574.835E-3	4.64559E-3	129.935E-12	534.695E-3	-14.7791E-3
3.18409E-3	132.266E-12	572.935E-3	12.5966E-3	131.220E-12	574.992E-3	-18.1083E-3
3.17909E-3	132.450E-12	573.901E-3	6.44237E-3	131.569E-12	589.156E-3	-21.3564E-3
3.17409E-3	131.792E-12	578.833E-3	9.87515E-3	132.751E-12	573.267E-3	13.3755E-3
3.16908E-3	131.727E-12	577.467E-3	18.2702E-3	134.030E-12	563.866E-3	28.4886E-3
3.16408E-3	131.061E-12	588.780E-3	14.7818E-3	134.291E-12	571.065E-3	-6.02189E-3
3.15908E-3	130.476E-12	603.603E-3	-5.35185E-3	134.115E-12	577.528E-3	-37.0319E-3
3.15408E-3	129.674E-12	601.948E-3	-23.4597E-3	134.360E-12	595.303E-3	-31.5063E-3
3.14907E-3	129.081E-12	577.366E-3	-28.1078E-3	134.334E-12	623.992E-3	-29.7864E-3
3.14407E-3	128.863E-12	559.330E-3	-30.6817E-3	132.360E-12	619.537E-3	-31.7829E-3
3.13907E-3	127.847E-12	563.203E-3	-27.3590E-3	131.659E-12	591.791E-3	-4.53095E-3
3.13407E-3	128.240E-12	564.295E-3	-6.46342E-3	130.783E-12	585.712E-3	-1.19926E-3
3.12906E-3	127.880E-12	576.748E-3	8.59688E-3	128.880E-12	617.803E-3	-18.9935E-3
3.12406E-3	128.445E-12	581.592E-3	4.10541E-3	128.423E-12	638.713E-3	-7.48176E-3
3.11906E-3	129.329E-12	564.536E-3	-6.59606E-3	127.546E-12	615.937E-3	-2.62242E-3
3.11406E-3	128.620E-12	560.192E-3	-5.05473E-3	126.897E-12	584.776E-3	-27.9298E-3
3.10905E-3	128.933E-12	570.698E-3	-4.56663E-3	126.191E-12	562.249E-3	-32.2756E-3
3.10405E-3	129.067E-12	591.523E-3	-11.5244E-3	126.493E-12	582.564E-3	-6.17448E-3
3.09905E-3	130.399E-12	599.470E-3	-16.1667E-3	127.156E-12	611.767E-3	-5.63252E-3
3.09405E-3	130.876E-12	594.993E-3	-14.9646E-3	126.796E-12	602.611E-3	-38.1896E-3
3.08904E-3	130.058E-12	596.554E-3	9.17372E-3	127.763E-12	587.249E-3	-45.6656E-3
3.08404E-3	130.003E-12	590.235E-3	18.6669E-3	127.826E-12	589.055E-3	-25.8300E-3
3.07904E-3	129.278E-12	585.301E-3	752.032E-6	128.964E-12	610.737E-3	-26.3369E-3
3.07404E-3	128.381E-12	598.282E-3	-5.06392E-3	129.720E-12	608.827E-3	-20.8439E-3
3.06903E-3	127.373E-12	603.566E-3	4.00589E-3	130.419E-12	587.931E-3	-10.3025E-3
3.06403E-3	126.987E-12	586.944E-3	1.35534E-3	129.688E-12	582.740E-3	-20.6462E-3
3.05903E-3	126.050E-12	584.653E-3	-35.0709E-3	130.212E-12	592.260E-3	-31.4887E-3
3.05403E-3	124.825E-12	595.673E-3	-58.2272E-3	129.652E-12	595.672E-3	-34.7134E-3
3.04902E-3	124.081E-12	586.602E-3	-30.3804E-3	128.419E-12	580.980E-3	-21.6557E-3
3.04402E-3	123.748E-12	560.826E-3	-2.21287E-3	128.866E-12	589.512E-3	-490.514E-6
3.03902E-3	123.006E-12	549.436E-3	-9.85811E-3	127.346E-12	592.940E-3	6.31049E-3
3.03402E-3	123.191E-12	555.346E-3	-22.1990E-3	125.735E-12	569.030E-3	-3.52673E-3
3.02901E-3	124.031E-12	560.939E-3	-21.0295E-3	126.110E-12	566.658E-3	-4.01469E-3
3.02401E-3	123.907E-12	574.887E-3	-29.1727E-3	125.065E-12	580.096E-3	2.01907E-3
3.01901E-3	124.371E-12	589.071E-3	-21.9192E-3	123.675E-12	589.280E-3	4.27578E-3
3.01401E-3	124.645E-12	601.733E-3	-6.61570E-3	124.082E-12	576.479E-3	5.47711E-3
3.00900E-3	124.261E-12	617.950E-3	-14.2908E-3	124.285E-12	560.520E-3	-15.8290E-3
3.00400E-3	125.077E-12	620.237E-3	-6.95653E-3	123.428E-12	576.127E-3	-42.0405E-3
2.99900E-3	125.573E-12	617.505E-3	-6.11401E-3	123.901E-12	581.449E-3	-52.1064E-3
2.99400E-3	125.096E-12	629.102E-3	-32.8216E-3	125.597E-12	575.917E-3	-46.7530E-3
2.98899E-3	124.619E-12	623.604E-3	-44.2718E-3	124.469E-12	595.560E-3	-20.6091E-3
2.98399E-3	125.975E-12	596.638E-3	-40.6731E-3	124.922E-12	599.253E-3	7.60443E-3
2.97899E-3	124.529E-12	596.202E-3	-50.7007E-3	124.547E-12	581.084E-3	13.4928E-3
2.97399E-3	123.744E-12	602.439E-3	-43.0920E-3	126.483E-12	591.041E-3	-4.36262E-3
2.96898E-3	122.426E-12	602.024E-3	-15.5131E-3	123.346E-12	595.933E-3	-19.7352E-3
2.96398E-3	122.880E-12	618.835E-3	-19.3369E-3	123.310E-12	585.313E-3	-12.8401E-3
2.95898E-3	121.921E-12	620.202E-3	-31.5835E-3	123.058E-12	576.122E-3	-9.49608E-3
2.95398E-3	121.316E-12	590.228E-3	-37.5621E-3	123.606E-12	556.311E-3	-22.9323E-3
2.94897E-3	120.751E-12	567.696E-3	-43.3751E-3	122.626E-12	586.988E-3	-34.3951E-3
2.94397E-3	121.092E-12	567.077E-3	-27.9732E-3	122.208E-12	632.551E-3	-24.7885E-3
2.93897E-3	121.161E-12	573.682E-3	3.98390E-3	122.673E-12	612.872E-3	-14.6107E-3
2.93397E-3	120.851E-12	583.061E-3	11.5126E-3	121.679E-12	589.470E-3	-9.60746E-3
2.92896E-3	121.066E-12	590.731E-3	-18.7732E-3	121.944E-12	585.809E-3	-2.72025E-3
2.92396E-3	120.229E-12	581.582E-3	-36.4850E-3	122.011E-12	578.142E-3	-2.84875E-3
2.91896E-3	121.418E-12	570.683E-3	-24.9019E-3	122.081E-12	591.357E-3	-4.72519E-3
2.91396E-3	121.620E-12	574.138E-3	-10.5190E-3	120.883E-12	621.062E-3	-13.9586E-3
2.90895E-3	120.667E-12	589.493E-3	-7.33289E-3	120.819E-12	618.054E-3	-990.147E-6
2.90395E-3	120.609E-12	610.564E-3	-17.1363E-3	121.335E-12	587.562E-3	18.3266E-3
2.89895E-3	120.279E-12	614.584E-3	-29.8753E-3	120.126E-12	589.531E-3	-6.57510E-3
2.89395E-3	120.277E-12	598.701E-3	-33.1430E-3	118.731E-12	607.241E-3	-34.8791E-3
2.88894E-3	119.450E-12	580.132E-3	-39.8231E-3	118.483E-12	587.846E-3	-38.6361E-3
2.88394E-3	119.565E-12	573.625E-3	-40.6649E-3	118.592E-12	547.341E-3	-32.4596E-3
2.87894E-3	118.428E-12	586.155E-3	-11.8998E-3	117.589E-12	529.455E-3	-25.9290E-3
2.87394E-3	118.860E-12	589.077E-3	1.10593E-3	115.979E-12	538.686E-3	-16.4320E-3
2.86893E-3	118.711E-12	578.221E-3	-17.0397E-3	116.236E-12	554.090E-3	-10.1646E-3
2.86393E-3	117.402E-12	590.332E-3	-33.9485E-3	116.571E-12	575.169E-3	-24.8257E-3
2.85893E-3	117.551E-12	603.866E-3	-46.6997E-3	116.285E-12	585.323E-3	-30.7257E-3
2.85393E-3	117.394E-12	584.680E-3	-24.1012E-3	116.393E-12	567.348E-3	-22.9833E-3
2.84892E-3	118.152E-12	579.225E-3	12.3784E-3	117.628E-12	564.405E-3	-26.4415E-3
2.84392E-3	117.286E-12	600.638E-3	20.0016E-3	118.353E-12	603.058E-3	-27.2809E-3
2.83892E-3	117.543E-12	588.322E-3	14.6217E-3	118.846E-12	632.004E-3	-30.2546E-3
2.83392E-3	117.513E-12	565.536E-3	198.818E-6	118.226E-12	625.064E-3	-30.4932E-3
2.82891E-3	117.558E-12	573.230E-3	-1.81771E-3	119.844E-12	599.082E-3	-7.43136E-3
2.82391E-3	117.439E-12	575.832E-3	24.4879E-3	119.828E-12	584.205E-3	-2.75897E-3
2.81891E-3	117.389E-12	568.708E-3	42.8947E-3	120.153E-12	606.233E-3	-22.2439E-3
2.81391E-3	117.345E-12	583.097E-3	37.3066E-3	119.628E-12	622.002E-3	-37.0084E-3
2.80890E-3	116.515E-12	610.025E-3	18.0263E-3	119.626E-12	608.388E-3	-35.3577E-3
2.80390E-3	116.246E-12	603.020E-3	-14.2267E-3	118.514E-12	595.017E-3	-6.83694E-3
2.79890E-3	116.823E-12	590.495E-3	-26.8610E-3	118.306E-12	583.919E-3	5.97137E-3
2.79390E-3	116.384E-12	613.118E-3	-23.4157E-3	116.410E-12	576.857E-3	-18.7938E-3
2.78889E-3	116.298E-12	621.442E-3	-30.9743E-3	115.097E-12	576.427E-3	-36.3211E-3
2.78389E-3	115.711E-12	598.413E-3	-27.1092E-3	114.985E-12	575.678E-3	-19.1009E-3
2.77889E-3	116.355E-12	584.678E-3	-16.0306E-3	113.548E-12	589.306E-3	6.53738E-3
2.77389E-3	115.619E-12	584.383E-3	-15.3571E-3	112.911E-12	619.250E-3	7.73663E-3
2.76888E-3	116.157E-12	583.288E-3	-18.9876E-3	112.822E-12	624.545E-3	-21.2525E-3
2.76388E-3	115.652E-12	582.694E-3	-20.1281E-3	113.548E-12	604.121E-3	-35.7017E-3
2.75888E-3	116.341E-12	568.362E-3	-18.5830E-3	113.160E-12	609.654E-3	-11.1939E-3
2.75388E-3	115.412E-12	566.486E-3	-12.4765E-3	114.317E-12	618.511E-3	4.92480E-3
2.74887E-3	114.922E-12	601.117E-3	-5.50156E-3	114.261E-12	590.371E-3	-19.4211E-3
2.74387E-3	115.601E-12	616.265E-3	-12.4433E-3	115.024E-12	580.030E-3	-65.2999E-3
2.73887E-3	114.772E-12	605.628E-3	-28.7875E-3	116.511E-12	597.514E-3	-63.3961E-3
2.73387E-3	114.219E-12	599.689E-3	-31.4091E-3	116.954E-12	593.973E-3	-11.8179E-3
2.72886E-3	113.581E-12	601.148E-3	-30.8732E-3	116.544E-12	592.713E-3	17.0646E-3
2.72386E-3	113.334E-12	598.647E-3	-18.7636E-3	116.048E-12	597.014E-3	16.0407E-3
2.71886E-3	112.543E-12	580.127E-3	6.19550E-3	117.126E-12	594.588E-3	12.3705E-3
2.71386E-3	111.831E-12	566.268E-3	13.2502E-3	115.534E-12	609.845E-3	-2.35671E-3
2.70885E-3	111.600E-12	564.247E-3	-453.883E-6	114.023E-12	632.716E-3	-26.4592E-3
2.70385E-3	110.892E-12	566.024E-3	-9.73399E-3	113.683E-12	628.393E-3	-20.0395E-3
2.69885E-3	111.595E-12	580.622E-3	985.953E-6	113.195E-12	596.354E-3	5.26021E-3
2.69385E-3	110.831E-12	586.244E-3	-353.751E-6	112.346E-12	582.927E-3	3.19680E-3
2.68884E-3	111.069E-12	580.463E-3	-11.1553E-3	110.891E-12	595.250E-3	-6.44040E-3
2.68384E-3	111.105E-12	595.504E-3	-1.59422E-3	109.905E-12	597.131E-3	-10.0007E-3
2.67884E-3	111.682E-12	616.578E-3	-4.66703E-3	109.713E-12	590.838E-3	-21.6269E-3
2.67384E-3	112.176E-12	616.938E-3	-32.3264E-3	109.543E-12	590.121E-3	-26.8949E-3
2.66883E-3	112.098E-12	593.382E-3	-28.7334E-3	108.456E-12	580.125E-3	-33.9306E-3
2.66383E-3	111.325E-12	572.087E-3	-10.1060E-3	109.605E-12	569.461E-3	-43.1948E-3
2.65883E-3	111.098E-12	569.791E-3	-14.0681E-3	109.839E-12	576.740E-3	-35.6125E-3
2.65383E-3	111.316E-12	572.980E-3	-12.7665E-3	110.281E-12	584.691E-3	-16.0880E-3
2.64882E-3	111.042E-12	557.592E-3	-1.84546E-3	111.225E-12	579.199E-3	-15.6313E-3
2.64382E-3	110.204E-12	545.986E-3	3.18116E-3	111.784E-12	576.911E-3	-26.6521E-3
2.63882E-3	109.611E-12	576.364E-3	6.88867E-3	111.839E-12	601.944E-3	-22.6901E-3
2.63382E-3	109.238E-12	602.654E-3	18.0616E-3	111.487E-12	637.332E-3	-27.0431E-3
2.62881E-3	108.663E-12	587.925E-3	22.9539E-3	112.147E-12	631.412E-3	-34.0637E-3
2.62381E-3	107.707E-12	572.362E-3	1.58381E-3	111.559E-12	596.645E-3	-37.7922E-3
2.61881E-3	107.259E-12	576.777E-3	-23.2691E-3	111.333E-12	582.601E-3	-46.6629E-3
2.61381E-3	106.775E-12	591.807E-3	-29.7639E-3	109.983E-12	577.563E-3	-43.2924E-3
2.60880E-3	106.500E-12	607.525E-3	-35.6821E-3	109.358E-12	571.235E-3	-38.0331E-3
2.60380E-3	106.586E-12	593.863E-3	-55.5546E-3	108.091E-12	571.138E-3	-32.4186E-3
2.59880E-3	106.944E-12	563.874E-3	-76.0763E-3	107.542E-12	563.318E-3	-10.5695E-3
2.59380E-3	107.069E-12	574.527E-3	-61.4230E-3	107.874E-12	554.958E-3	6.56074E-3
2.58879E-3	106.737E-12	588.619E-3	-31.7791E-3	106.818E-12	565.813E-3	-11.6599E-3
2.58379E-3	108.311E-12	583.345E-3	-41.7524E-3	105.530E-12	575.084E-3	-38.5493E-3
2.57879E-3	108.307E-12	602.008E-3	-52.7298E-3	105.321E-12	580.947E-3	-19.7955E-3
2.57379E-3	108.402E-12	630.436E-3	-28.7076E-3	106.080E-12	588.517E-3	22.1578E-3
2.56878E-3	108.634E-12	644.449E-3	-13.8743E-3	105.300E-12	574.130E-3	31.1611E-3
2.56378E-3	108.272E-12	638.909E-3	-24.4537E-3	105.908E-12	558.994E-3	-1.13417E-3
2.55878E-3	108.532E-12	613.602E-3	-30.0612E-3	105.721E-12	584.890E-3	-39.2788E-3
2.55378E-3	108.527E-12	586.756E-3	-26.1631E-3	106.123E-12	628.207E-3	-44.3225E-3
2.54877E-3	106.793E-12	594.659E-3	-16.0228E-3	105.748E-12	639.956E-3	-19.7111E-3
2.54377E-3	106.040E-12	614.145E-3	-3.47559E-3	106.606E-12	614.386E-3	-575.823E-6
2.53877E-3	105.922E-12	607.903E-3	5.68481E-3	106.584E-12	599.922E-3	-5.07304E-3
2.53377E-3	104.458E-12	610.397E-3	6.58168E-3	105.929E-12	629.605E-3	-9.53672E-3
2.52876E-3	103.688E-12	618.628E-3	6.40881E-3	106.205E-12	645.426E-3	1.73818E-3
2.52376E-3	103.161E-12	600.210E-3	986.468E-6	105.847E-12	627.723E-3	20.1853E-3
2.51876E-3	102.834E-12	582.823E-3	-22.8368E-3	105.469E-12	610.106E-3	18.5542E-3
2.51376E-3	103.124E-12	591.273E-3	-37.6357E-3	105.052E-12	598.564E-3	-11.1016E-3
2.50875E-3	103.058E-12	600.467E-3	-24.8930E-3	104.864E-12	592.497E-3	-31.1060E-3
2.50375E-3	103.471E-12	600.058E-3	-13.7146E-3	104.323E-12	591.427E-3	-34.1520E-3
2.49875E-3	103.531E-12	614.998E-3	-12.6070E-3	104.846E-12	597.517E-3	-29.1802E-3
2.49375E-3	103.426E-12	631.621E-3	7.90192E-3	103.670E-12	605.732E-3	-15.9651E-3
2.48874E-3	104.489E-12	627.627E-3	23.0186E-3	102.970E-12	609.159E-3	-13.4058E-3
2.48374E-3	104.548E-12	606.329E-3	10.2649E-3	103.657E-12	615.238E-3	-31.3413E-3
2.47874E-3	104.241E-12	590.588E-3	7.29089E-3	103.119E-12	613.124E-3	-38.5838E-3
2.47374E-3	104.455E-12	595.837E-3	14.0184E-3	102.512E-12	582.329E-3	-24.8452E-3
2.46873E-3	104.587E-12	601.148E-3	-10.8604E-3	102.198E-12	568.344E-3	-17.2025E-3
2.46373E-3	104.145E-12	593.408E-3	-41.6331E-3	101.525E-12	596.057E-3	-20.1467E-3
2.45873E-3	103.360E-12	583.584E-3	-32.5987E-3	101.212E-12	618.500E-3	-24.4718E-3
2.45373E-3	102.570E-12	595.129E-3	-17.2649E-3	102.518E-12	623.140E-3	-21.3960E-3
2.44872E-3	102.066E-12	615.945E-3	-15.0241E-3	100.402E-12	627.478E-3	1.04135E-3
2.44372E-3	101.726E-12	613.434E-3	-7.77761E-3	100.509E-12	624.039E-3	23.6650E-3
2.43872E-3	100.890E-12	611.476E-3	-17.4020E-3	100.785E-12	594.767E-3	15.3527E-3
2.43372E-3	100.177E-12	629.187E-3	-26.4915E-3	100.698E-12	568.998E-3	-2.97314E-3
2.42871E-3	100.096E-12	629.864E-3	-22.0047E-3	100.408E-12	593.027E-3	-12.9158E-3
2.42371E-3	100.176E-12	610.854E-3	-34.2428E-3	100.653E-12	627.167E-3	-31.5921E-3
2.41871E-3	100.267E-12	611.810E-3	-31.5524E-3	101.535E-12	624.546E-3	-43.5912E-3
2.41371E-3	99.6191E-12	606.344E-3	-16.5289E-3	101.202E-12	612.543E-3	-35.8044E-3
2.40870E-3	99.0646E-12	575.903E-3	-32.0004E-3	101.868E-12	611.399E-3	-8.61126E-3
2.40370E-3	99.7848E-12	565.541E-3	-39.2758E-3	101.694E-12	622.135E-3	6.04382E-3
2.39870E-3	99.8938E-12	581.076E-3	-26.8483E-3	101.729E-12	641.635E-3	-22.5620E-3
2.39370E-3	100.038E-12	593.204E-3	-24.4316E-3	102.798E-12	643.161E-3	-49.9751E-3
2.38869E-3	100.082E-12	604.586E-3	-14.3772E-3	101.774E-12	632.063E-3	-45.8947E-3
2.38369E-3	99.7707E-12	624.509E-3	-4.51094E-3	101.764E-12	627.936E-3	-32.7544E-3
2.37869E-3	100.648E-12	616.080E-3	-27.2523E-3	101.148E-12	619.829E-3	-15.1783E-3
2.37369E-3	100.656E-12	597.475E-3	-50.0426E-3	101.133E-12	602.001E-3	7.99592E-3
2.36868E-3	100.020E-12	601.058E-3	-33.7321E-3	100.295E-12	588.612E-3	6.95605E-3
2.36368E-3	99.6939E-12	594.376E-3	-7.60917E-3	99.1076E-12	578.425E-3	-22.2797E-3
2.35868E-3	99.1506E-12	589.246E-3	-14.2785E-3	98.5423E-12	557.288E-3	-35.3544E-3
2.35368E-3	98.9689E-12	598.212E-3	-30.9847E-3	97.7188E-12	575.506E-3	-30.0117E-3
2.34867E-3	98.7626E-12	608.868E-3	-22.5049E-3	97.6306E-12	630.737E-3	-28.3404E-3
2.34367E-3	98.1146E-12	610.583E-3	-11.0839E-3	96.3689E-12	637.901E-3	-8.28381E-3
2.33867E-3	98.3495E-12	603.858E-3	-6.61529E-3	96.4230E-12	619.486E-3	6.76231E-3
2.33367E-3	97.5642E-12	591.769E-3	-8.81364E-3	96.4651E-12	607.008E-3	-24.1924E-3
2.32866E-3	98.0513E-12	572.829E-3	-12.0453E-3	96.3881E-12	578.506E-3	-63.5513E-3
2.32366E-3	97.2040E-12	574.674E-3	-1.96974E-3	96.4347E-12	576.739E-3	-58.6153E-3
2.31866E-3	98.3556E-12	590.420E-3	5.26299E-3	96.5810E-12	600.601E-3	-28.5969E-3
2.31366E-3	97.0900E-12	607.013E-3	1.72146E-3	97.3170E-12	590.715E-3	-14.7436E-3
2.30865E-3	97.1608E-12	626.625E-3	-2.14793E-3	97.2943E-12	577.687E-3	-8.48670E-3
2.30365E-3	97.2432E-12	625.233E-3	55.6291E-6	97.5079E-12	600.846E-3	5.18722E-3
2.29865E-3	97.0202E-12	610.766E-3	9.66820E-3	97.7319E-12	617.359E-3	15.6239E-3
2.29365E-3	96.2145E-12	617.604E-3	11.1506E-3	97.7477E-12	600.193E-3	20.6302E-3
2.28864E-3	94.9380E-12	628.703E-3	-2.79416E-3	97.5463E-12	587.386E-3	23.9317E-3
2.28364E-3	95.7069E-12	624.560E-3	-3.11754E-3	96.6933E-12	590.810E-3	7.91950E-3
2.27864E-3	95.4054E-12	628.642E-3	-237.880E-6	96.3301E-12	589.150E-3	-15.7056E-3
2.27364E-3	93.7466E-12	627.373E-3	-7.86633E-3	94.8159E-12	600.652E-3	-24.5875E-3
2.26863E-3	94.4822E-12	602.629E-3	-8.80191E-3	94.6015E-12	625.009E-3	-25.3412E-3
2.26363E-3	94.3369E-12	589.796E-3	-14.4561E-3	93.6252E-12	621.087E-3	-19.5151E-3
2.25863E-3	94.4722E-12	593.206E-3	-15.5367E-3	93.3413E-12	600.350E-3	-39.5594E-6
2.25363E-3	94.5211E-12	584.607E-3	-14.5935E-3	92.7826E-12	586.569E-3	166.259E-6
2.24862E-3	94.4440E-12	584.714E-3	-25.1863E-3	91.7448E-12	565.174E-3	-13.5592E-3
2.24362E-3	94.8687E-12	608.431E-3	-20.6054E-3	91.7440E-12	553.775E-3	-1.94499E-3
2.23862E-3	94.8994E-12	625.178E-3	-2.91237E-3	92.1240E-12	567.159E-3	8.75793E-3
2.23362E-3	95.6564E-12	618.742E-3	6.51543E-3	91.6100E-12	563.830E-3	6.53843E-3
2.22861E-3	94.8614E-12	613.640E-3	21.0065E-3	91.8215E-12	556.012E-3	9.00998E-3
2.22361E-3	94.2531E-12	621.990E-3	34.2416E-3	92.7849E-12	591.279E-3	-6.19147E-3
2.21861E-3	94.7851E-12	627.751E-3	13.2977E-3	92.7987E-12	631.829E-3	-44.7160E-3
2.21361E-3	93.9246E-12	631.236E-3	-25.2958E-3	92.2297E-12	629.069E-3	-53.1968E-3
2.20860E-3	93.3426E-12	628.686E-3	-25.0021E-3	93.4939E-12	602.366E-3	-42.2097E-3
2.20360E-3	92.3476E-12	613.006E-3	-13.3997E-3	93.5678E-12	600.107E-3	-39.2679E-3
2.19860E-3	91.2546E-12	597.120E-3	-30.3904E-3	93.6940E-12	617.083E-3	-22.1443E-3
2.19360E-3	90.3669E-12	595.562E-3	-34.6459E-3	93.3613E-12	635.643E-3	5.88944E-3
2.18859E-3	89.7841E-12	594.185E-3	-27.2426E-3	93.1158E-12	641.922E-3	20.2951E-3
2.18359E-3	89.2148E-12	593.986E-3	-30.2756E-3	92.4643E-12	613.103E-3	13.6165E-3
2.17859E-3	88.5136E-12	594.918E-3	-39.6983E-3	92.0110E-12	582.250E-3	-864.781E-6
2.17359E-3	89.2442E-12	575.955E-3	-42.5605E-3	91.3805E-12	580.561E-3	-5.56658E-3
2.16858E-3	89.9328E-12	561.262E-3	-26.7945E-3	90.3700E-12	600.305E-3	-3.92020E-3
2.16358E-3	89.4922E-12	579.511E-3	-23.4437E-3	90.2019E-12	612.854E-3	-6.40881E-3
2.15858E-3	90.3641E-12	599.800E-3	-28.4607E-3	88.9668E-12	608.073E-3	-2.40620E-3
2.15358E-3	90.7410E-12	596.839E-3	-16.1466E-3	89.1866E-12	605.392E-3	-9.35625E-3
2.14857E-3	91.2452E-12	597.718E-3	-16.2631E-3	88.9463E-12	601.457E-3	-25.3423E-3
2.14357E-3	91.1738E-12	610.779E-3	-16.0609E-3	88.1287E-12	601.424E-3	-13.9707E-3
2.13857E-3	92.1369E-12	630.553E-3	-10.5828E-3	87.4519E-12	622.590E-3	-2.13024E-3
2.13357E-3	91.1842E-12	644.962E-3	-14.8552E-3	88.1984E-12	636.529E-3	-14.4872E-3
2.12856E-3	91.2471E-12	652.024E-3	-15.5242E-3	88.4689E-12	625.004E-3	-22.6674E-3
2.12356E-3	91.3623E-12	648.825E-3	-23.7362E-3	88.2745E-12	607.383E-3	-19.9235E-3
2.11856E-3	90.5392E-12	629.207E-3	-33.2164E-3	89.1364E-12	606.528E-3	-24.9283E-3
2.11356E-3	88.8713E-12	623.641E-3	-27.3490E-3	89.1204E-12	630.269E-3	-11.2181E-3
2.10855E-3	87.9955E-12	636.765E-3	-24.5614E-3	89.5968E-12	646.466E-3	9.07718E-3
2.10355E-3	87.4831E-12	641.624E-3	-26.6806E-3	90.0656E-12	638.670E-3	498.204E-6
2.09855E-3	86.0602E-12	633.992E-3	-11.1035E-3	91.3627E-12	632.337E-3	-17.0050E-3
2.09355E-3	85.0637E-12	622.999E-3	1.78309E-3	90.0220E-12	633.578E-3	-35.7791E-3
2.08854E-3	84.3165E-12	604.520E-3	-12.4125E-3	89.1850E-12	632.764E-3	-44.9591E-3
2.08354E-3	84.4571E-12	591.659E-3	-37.3115E-3	89.5002E-12	627.662E-3	-33.6908E-3
2.07854E-3	84.7505E-12	590.332E-3	-44.9922E-3	89.4069E-12	617.335E-3	-19.9505E-3
2.07354E-3	85.0539E-12	580.410E-3	-36.7646E-3	88.2168E-12	608.501E-3	-34.3678E-3
2.06853E-3	85.0878E-12	581.046E-3	-38.3511E-3	86.7145E-12	609.050E-3	-49.3976E-3
2.06353E-3	85.8947E-12	611.373E-3	-35.3842E-3	87.1778E-12	621.360E-3	-29.4530E-3
2.05853E-3	86.5047E-12	621.345E-3	-23.5464E-3	86.6483E-12	628.051E-3	-23.4507E-3
2.05353E-3	87.1298E-12	603.200E-3	-13.4380E-3	85.7566E-12	603.668E-3	-34.5477E-3
2.04852E-3	87.6790E-12	614.504E-3	-7.24935E-3	85.3801E-12	584.305E-3	-32.5940E-3
2.04352E-3	87.8887E-12	637.513E-3	-9.61181E-3	85.4619E-12	594.484E-3	-31.4281E-3
2.03852E-3	87.7330E-12	645.286E-3	-16.6577E-3	85.0571E-12	604.176E-3	-42.2074E-3
2.03352E-3	88.5284E-12	652.562E-3	-18.3451E-3	84.2657E-12	611.857E-3	-42.1171E-3
2.02851E-3	87.8453E-12	639.880E-3	-7.93446E-3	85.0293E-12	618.595E-3	-26.6317E-3
2.02351E-3	86.1486E-12	627.344E-3	-12.5367E-3	85.0153E-12	629.463E-3	-26.2072E-3
2.01851E-3	85.7685E-12	629.041E-3	-28.0684E-3	83.9610E-12	640.537E-3	-23.5086E-3
2.01351E-3	85.1606E-12	621.435E-3	-27.9081E-3	84.3041E-12	627.310E-3	-21.5591E-3
2.00850E-3	84.3315E-12	615.261E-3	-20.8929E-3	85.2906E-12	607.933E-3	-33.3326E-3
2.00350E-3	82.8749E-12	620.662E-3	-14.9593E-3	85.2296E-12	607.828E-3	-26.2258E-3
1.99850E-3	82.1727E-12	631.821E-3	-16.5735E-3	84.2053E-12	618.801E-3	-21.4300E-3
1.99350E-3	81.6940E-12	617.137E-3	-28.5181E-3	84.2277E-12	626.291E-3	-42.0454E-3
1.98849E-3	82.4379E-12	590.700E-3	-37.6330E-3	84.6507E-12	611.689E-3	-56.4857E-3
1.98349E-3	82.4330E-12	588.461E-3	-32.3203E-3	84.1914E-12	593.900E-3	-29.5202E-3
1.97849E-3	81.9306E-12	593.118E-3	-20.4270E-3	84.2052E-12	597.099E-3	9.39757E-3
1.97349E-3	82.5405E-12	585.344E-3	-19.0944E-3	83.6013E-12	599.593E-3	2.16894E-3
1.96848E-3	83.1309E-12	575.961E-3	-31.5177E-3	83.7770E-12	603.240E-3	-14.0964E-3
1.96348E-3	83.3459E-12	581.951E-3	-44.2388E-3	84.4145E-12	633.393E-3	-2.81608E-3
1.95848E-3	82.5385E-12	604.870E-3	-35.9440E-3	83.2304E-12	662.394E-3	-14.6402E-3
1.95348E-3	83.5414E-12	626.723E-3	-25.9875E-3	82.9301E-12	676.032E-3	-29.3595E-3
1.94847E-3	83.5021E-12	622.757E-3	-32.1380E-3	83.1253E-12	684.188E-3	-15.7914E-3
1.94347E-3	83.3330E-12	608.765E-3	-25.6724E-3	82.8215E-12	653.651E-3	-22.4926E-3
1.93847E-3	83.4130E-12	611.075E-3	-14.0333E-3	81.6441E-12	601.332E-3	-31.0651E-3
1.93347E-3	82.6315E-12	634.751E-3	-13.2685E-3	82.0902E-12	593.160E-3	-18.1340E-3
1.92846E-3	82.3843E-12	663.133E-3	-19.2063E-3	81.6844E-12	611.369E-3	-15.1439E-3
1.92346E-3	82.0545E-12	660.671E-3	-26.2637E-3	80.4502E-12	602.746E-3	-24.1098E-3
1.91846E-3	81.3102E-12	639.527E-3	-29.9832E-3	79.5665E-12	580.645E-3	-23.7667E-3
1.91346E-3	80.2864E-12	635.366E-3	-25.5360E-3	79.3003E-12	580.558E-3	-12.7578E-3
1.90845E-3	80.1917E-12	630.334E-3	-2.33625E-3	79.1716E-12	598.603E-3	-8.98124E-3
1.90345E-3	80.3342E-12	614.518E-3	14.1383E-3	78.9253E-12	603.589E-3	-16.8903E-3
1.89845E-3	80.2738E-12	610.437E-3	10.1953E-3	78.8463E-12	605.077E-3	-17.4210E-3
1.89345E-3	79.9161E-12	624.027E-3	-2.03906E-3	78.1518E-12	612.585E-3	-13.2523E-3
1.88844E-3	79.4772E-12	632.585E-3	-15.1353E-3	77.7510E-12	610.587E-3	-12.9393E-3
1.88344E-3	79.2764E-12	620.629E-3	-18.3191E-3	77.9824E-12	615.116E-3	-18.3407E-3
1.87844E-3	79.3675E-12	617.643E-3	-24.0909E-3	78.9182E-12	628.915E-3	-31.6229E-3
1.87344E-3	79.1553E-12	625.384E-3	-30.4525E-3	78.5669E-12	630.677E-3	-35.1853E-3
1.86843E-3	78.6776E-12	624.748E-3	-23.2593E-3	78.7234E-12	624.011E-3	-21.9088E-3
1.86343E-3	78.7071E-12	630.300E-3	-17.9707E-3	78.7657E-12	617.997E-3	-24.2247E-3
1.85843E-3	78.1062E-12	641.537E-3	-14.8724E-3	79.1159E-12	617.533E-3	-37.3120E-3
1.85343E-3	78.2116E-12	631.774E-3	-5.19883E-3	78.3278E-12	620.325E-3	-23.8925E-3
1.84842E-3	78.1800E-12	612.794E-3	-9.01594E-3	78.2011E-12	615.119E-3	-13.2188E-3
1.84342E-3	77.3207E-12	617.028E-3	-12.1952E-3	77.6154E-12	610.438E-3	-28.5029E-3
1.83842E-3	77.2001E-12	626.425E-3	-7.18272E-3	77.3644E-12	617.591E-3	-22.3115E-3
1.83342E-3	77.2163E-12	620.832E-3	-12.9401E-3	76.8944E-12	630.611E-3	-6.63057E-3
1.82841E-3	77.2776E-12	615.052E-3	-3.44387E-3	76.0419E-12	626.226E-3	-13.6817E-3
1.82341E-3	76.7079E-12	623.057E-3	-88.3611E-6	75.3650E-12	604.777E-3	-5.88280E-3
1.81841E-3	76.8700E-12	624.708E-3	-26.7598E-3	75.1769E-12	599.365E-3	-3.67907E-3
1.81341E-3	76.9685E-12	619.578E-3	-33.9425E-3	75.0339E-12	603.740E-3	-29.0203E-3
1.80840E-3	76.2826E-12	620.781E-3	-10.1873E-3	73.9527E-12	599.865E-3	-38.6477E-3
1.80340E-3	77.0735E-12	606.476E-3	788.287E-6	73.8854E-12	621.612E-3	-26.9489E-3
1.79840E-3	76.4876E-12	600.927E-3	-26.6972E-3	74.3085E-12	653.888E-3	-13.2257E-3
1.79340E-3	75.2695E-12	627.273E-3	-55.9984E-3	74.6529E-12	652.121E-3	-16.0068E-3
1.78839E-3	75.7958E-12	643.507E-3	-46.3478E-3	74.8323E-12	641.406E-3	-28.1527E-3
1.78339E-3	75.3719E-12	641.836E-3	-18.7169E-3	75.1752E-12	639.412E-3	-40.0395E-3
1.77839E-3	74.3124E-12	645.553E-3	-5.70171E-3	75.2756E-12	651.936E-3	-47.7651E-3
1.77339E-3	73.6661E-12	644.073E-3	-10.6204E-3	75.9571E-12	669.846E-3	-27.7121E-3
1.76838E-3	73.9828E-12	631.962E-3	-30.2237E-3	76.8351E-12	676.667E-3	-8.06015E-3
1.76338E-3	72.5219E-12	624.364E-3	-47.7759E-3	76.5952E-12	675.006E-3	-27.0057E-3
1.75838E-3	72.4978E-12	624.324E-3	-37.6364E-3	76.0150E-12	666.393E-3	-53.3488E-3
1.75338E-3	72.5669E-12	614.907E-3	-18.4076E-3	75.8211E-12	662.723E-3	-50.6640E-3
1.74837E-3	72.7352E-12	595.970E-3	-10.7993E-3	75.5570E-12	659.570E-3	-34.8756E-3
1.74337E-3	72.1335E-12	588.854E-3	-16.2010E-3	74.4235E-12	643.654E-3	-13.8277E-3
1.73837E-3	72.4925E-12	608.531E-3	-24.1059E-3	73.3506E-12	633.802E-3	8.90077E-3
1.73337E-3	73.1937E-12	636.319E-3	-13.3247E-3	72.7925E-12	646.214E-3	3.57261E-3
1.72836E-3	73.0006E-12	645.135E-3	-3.77991E-3	72.0072E-12	650.829E-3	-15.3486E-3
1.72336E-3	72.9247E-12	643.511E-3	-12.9437E-3	71.3604E-12	635.509E-3	-12.9967E-3
1.71836E-3	73.8558E-12	634.284E-3	-21.6527E-3	71.1274E-12	629.602E-3	-2.05184E-3
1.71336E-3	74.0266E-12	621.280E-3	-32.8315E-3	70.8571E-12	633.178E-3	-5.80995E-3
1.70835E-3	73.0402E-12	630.167E-3	-46.6945E-3	70.5599E-12	622.276E-3	-19.3552E-3
1.70335E-3	72.8280E-12	660.351E-3	-38.8163E-3	70.8777E-12	615.873E-3	-19.0817E-3
1.69835E-3	73.7028E-12	687.926E-3	-21.1685E-3	71.1484E-12	627.710E-3	-18.8408E-3
1.69335E-3	72.2797E-12	701.482E-3	-22.2325E-3	70.6529E-12	636.701E-3	-31.8674E-3
1.68834E-3	71.6335E-12	696.827E-3	-38.3765E-3	71.2909E-12	647.974E-3	-28.6638E-3
1.68334E-3	71.0933E-12	673.549E-3	-30.1007E-3	71.4161E-12	661.932E-3	-17.0774E-3
1.67834E-3	70.2940E-12	655.887E-3	1.20717E-3	72.2169E-12	663.000E-3	-22.2643E-3
1.67334E-3	68.9670E-12	654.452E-3	-4.85215E-3	72.5608E-12	658.937E-3	-36.5785E-3
1.66833E-3	68.5929E-12	647.616E-3	-41.3437E-3	71.4078E-12	662.175E-3	-37.0885E-3
1.66333E-3	67.9143E-12	635.351E-3	-44.3780E-3	71.2668E-12	660.801E-3	-21.7018E-3
1.65833E-3	67.7541E-12	629.436E-3	-20.5099E-3	71.2809E-12	648.868E-3	-5.15171E-3
1.65333E-3	67.5280E-12	623.962E-3	-12.8546E-3	71.0532E-12	643.385E-3	-4.26011E-3
1.64832E-3	67.6928E-12	623.264E-3	-20.7290E-3	69.4789E-12	651.731E-3	-9.59280E-3
1.64332E-3	68.3673E-12	623.592E-3	-31.1216E-3	69.4156E-12	659.458E-3	1.07389E-3
1.63832E-3	68.8759E-12	628.213E-3	-40.3483E-3	68.9482E-12	654.945E-3	4.20462E-3
1.63332E-3	68.7991E-12	647.134E-3	-42.0622E-3	68.1413E-12	653.300E-3	1.06211E-3
1.62831E-3	69.8576E-12	661.411E-3	-30.7725E-3	67.8459E-12	667.789E-3	10.4537E-3
1.62331E-3	70.1920E-12	665.307E-3	-23.5021E-3	67.1926E-12	670.841E-3	15.3592E-3
1.61831E-3	69.8433E-12	665.569E-3	-28.7697E-3	66.6590E-12	654.759E-3	13.9977E-3
1.61331E-3	70.0572E-12	666.870E-3	-34.4973E-3	66.4845E-12	638.068E-3	9.09460E-3
1.60830E-3	69.9474E-12	669.079E-3	-36.3123E-3	66.7406E-12	630.659E-3	-14.5536E-3
1.60330E-3	69.4378E-12	676.534E-3	-32.4185E-3	65.9510E-12	640.081E-3	-25.9451E-3
1.59830E-3	68.9458E-12	690.903E-3	-21.4972E-3	66.0309E-12	661.508E-3	-13.1364E-3
1.59330E-3	68.5662E-12	683.466E-3	-14.4630E-3	66.2496E-12	666.016E-3	-17.1545E-3
1.58829E-3	67.2169E-12	656.595E-3	-18.0249E-3	66.1333E-12	646.662E-3	-19.3022E-3
1.58329E-3	66.2684E-12	650.046E-3	-23.4880E-3	65.9297E-12	643.318E-3	-11.2111E-3
1.57829E-3	65.5537E-12	655.541E-3	-30.3113E-3	65.4390E-12	660.712E-3	-15.3071E-3
1.57329E-3	64.7837E-12	645.829E-3	-39.9340E-3	65.6087E-12	669.036E-3	-25.3328E-3
1.56828E-3	63.9801E-12	641.026E-3	-33.0874E-3	65.8514E-12	668.138E-3	-33.9266E-3
1.56328E-3	63.6340E-12	649.931E-3	-18.2546E-3	65.6235E-12	672.851E-3	-23.2839E-3
1.55828E-3	63.4935E-12	639.599E-3	-13.5317E-3	65.0698E-12	673.070E-3	-12.2833E-3
1.55328E-3	63.5048E-12	621.772E-3	-11.7249E-3	64.7841E-12	681.620E-3	-18.0352E-3
1.54827E-3	63.5741E-12	620.609E-3	-10.2924E-3	64.7567E-12	692.027E-3	-30.5540E-3
1.54327E-3	63.9581E-12	635.115E-3	-13.7521E-3	64.7249E-12	679.947E-3	-41.3725E-3
1.53827E-3	64.7020E-12	664.040E-3	-14.5037E-3	64.7215E-12	676.779E-3	-23.6172E-3
1.53327E-3	64.7442E-12	682.276E-3	-8.16779E-3	64.6283E-12	678.957E-3	-4.58935E-3
1.52826E-3	64.4612E-12	676.680E-3	-13.1255E-3	64.2941E-12	669.185E-3	-14.7170E-3
1.52326E-3	64.4829E-12	672.495E-3	-27.5751E-3	64.0761E-12	663.332E-3	-34.8180E-3
1.51826E-3	64.7845E-12	673.080E-3	-21.6562E-3	63.8540E-12	649.720E-3	-56.7840E-3
1.51326E-3	64.4688E-12	663.383E-3	-8.31421E-3	64.1106E-12	631.227E-3	-54.4567E-3
1.50825E-3	63.6518E-12	662.312E-3	-12.3295E-3	62.9803E-12	633.465E-3	-26.5004E-3
1.50325E-3	64.0000E-12	677.268E-3	-16.6456E-3	62.7789E-12	644.572E-3	-16.6936E-3
1.49825E-3	63.2947E-12	679.380E-3	-9.82280E-3	62.5605E-12	634.902E-3	-20.3787E-3
1.49325E-3	62.7057E-12	670.983E-3	-2.10754E-3	62.0537E-12	621.910E-3	-20.5452E-3
1.48824E-3	62.0393E-12	669.394E-3	-7.39953E-3	61.5866E-12	620.940E-3	-24.2006E-3
1.48324E-3	61.9996E-12	665.672E-3	-17.8602E-3	61.1444E-12	618.890E-3	-13.9189E-3
1.47824E-3	60.7068E-12	658.446E-3	-25.4140E-3	60.7535E-12	620.540E-3	-1.88279E-3
1.47324E-3	60.5187E-12	664.463E-3	-18.0112E-3	60.2766E-12	621.403E-3	-16.9926E-3
1.46823E-3	60.1610E-12	680.739E-3	4.02248E-3	60.4929E-12	632.004E-3	-33.3870E-3
1.46323E-3	60.0949E-12	670.707E-3	9.49175E-3	60.0754E-12	650.946E-3	-29.4932E-3
1.45823E-3	59.6195E-12	641.451E-3	4.25436E-3	59.9168E-12	656.372E-3	-21.4795E-3
1.45323E-3	59.5111E-12	631.913E-3	-5.60112E-3	60.0434E-12	654.895E-3	-16.5779E-3
1.44822E-3	59.4660E-12	635.038E-3	-13.3465E-3	60.6496E-12	650.680E-3	-13.8404E-3
1.44322E-3	59.7978E-12	640.055E-3	2.95704E-3	60.6124E-12	639.694E-3	-20.5379E-3
1.43822E-3	59.9174E-12	635.772E-3	19.8329E-3	60.9603E-12	620.012E-3	-30.4468E-3
1.43322E-3	59.7742E-12	613.993E-3	10.6810E-3	61.2699E-12	612.442E-3	-23.5535E-3
1.42821E-3	59.1921E-12	606.019E-3	-2.42408E-3	61.3129E-12	627.851E-3	-3.33786E-3
1.42321E-3	59.5138E-12	618.918E-3	-4.40085E-3	60.7829E-12	625.113E-3	7.74927E-3
1.41821E-3	59.0477E-12	625.755E-3	-9.76847E-3	61.2628E-12	602.000E-3	-474.426E-6
1.41321E-3	59.0648E-12	622.080E-3	-8.11956E-3	60.5275E-12	596.074E-3	-12.5352E-3
1.40820E-3	58.5156E-12	622.222E-3	4.65242E-3	59.8407E-12	595.585E-3	-13.7577E-3
1.40320E-3	58.5584E-12	624.504E-3	3.40099E-3	60.1786E-12	575.836E-3	-10.4324E-3
1.39820E-3	58.0884E-12	624.637E-3	-12.4996E-3	59.3762E-12	556.684E-3	-6.99757E-3
1.39320E-3	57.9008E-12	614.737E-3	-18.2542E-3	57.7343E-12	554.024E-3	-10.7832E-3
1.38819E-3	57.8003E-12	600.034E-3	-12.7566E-3	57.6882E-12	552.249E-3	-23.6901E-3
1.38319E-3	57.1631E-12	595.486E-3	-21.8481E-3	57.9708E-12	550.946E-3	-22.6198E-3
1.37819E-3	57.2533E-12	591.452E-3	-37.8824E-3	56.5946E-12	557.856E-3	-3.22974E-3
1.37319E-3	57.1206E-12	591.472E-3	-30.7066E-3	56.4221E-12	557.893E-3	11.8780E-3
1.36818E-3	57.0800E-12	588.143E-3	-9.55503E-3	56.5365E-12	549.218E-3	8.48451E-3
1.36318E-3	56.1978E-12	578.152E-3	-3.51638E-3	56.9930E-12	547.418E-3	-6.23786E-3
1.35818E-3	55.9949E-12	576.868E-3	-16.1120E-3	56.5666E-12	557.309E-3	-22.4242E-3
1.35318E-3	56.0048E-12	573.111E-3	-31.2892E-3	56.9359E-12	559.028E-3	-21.2120E-3
1.34817E-3	55.8309E-12	572.567E-3	-24.6774E-3	56.7112E-12	548.433E-3	-13.1599E-3
1.34317E-3	55.5817E-12	569.794E-3	-17.1229E-3	57.2384E-12	541.882E-3	-23.8025E-3
1.33817E-3	55.1930E-12	539.881E-3	-33.0933E-3	57.2706E-12	536.473E-3	-29.3523E-3
1.33317E-3	55.6156E-12	514.032E-3	-29.2763E-3	57.1075E-12	533.519E-3	-13.6179E-3
1.32816E-3	54.8673E-12	516.422E-3	-13.8959E-3	56.6421E-12	527.225E-3	3.97737E-3
1.32316E-3	55.3530E-12	517.475E-3	-19.5747E-3	57.3374E-12	508.236E-3	-13.8206E-3
1.31816E-3	55.4821E-12	509.803E-3	-7.83790E-3	56.0753E-12	487.939E-3	-37.1377E-3
1.31316E-3	55.0836E-12	513.655E-3	3.86408E-3	55.3049E-12	485.520E-3	-37.1924E-3
1.30815E-3	55.4868E-12	519.675E-3	-9.67091E-3	55.4520E-12	479.628E-3	-44.0577E-3
1.30315E-3	55.6933E-12	512.584E-3	-9.08713E-3	54.4829E-12	443.284E-3	-36.5607E-3
1.29815E-3	55.6306E-12	497.410E-3	-6.17556E-3	54.2765E-12	415.495E-3	-9.72114E-3
1.29315E-3	55.5316E-12	486.061E-3	-24.9892E-3	53.4126E-12	411.750E-3	-2.38086E-3
1.28814E-3	56.0125E-12	476.903E-3	-35.0791E-3	53.4010E-12	406.943E-3	-15.5904E-3
1.28314E-3	56.0277E-12	454.647E-3	-24.8910E-3	52.5948E-12	404.661E-3	-14.1761E-3
1.27814E-3	56.1262E-12	435.454E-3	-18.8776E-3	53.4179E-12	412.284E-3	6.45369E-3
1.27314E-3	55.8540E-12	439.715E-3	-12.3524E-3	52.7636E-12	414.543E-3	14.4274E-3
1.26813E-3	55.3515E-12	441.132E-3	-14.6526E-3	53.1705E-12	405.297E-3	10.7059E-3
1.26313E-3	55.3898E-12	428.006E-3	-25.6481E-3	53.3774E-12	406.169E-3	1.26000E-3
1.25813E-3	54.7224E-12	420.930E-3	-19.3786E-3	53.8660E-12	412.810E-3	-21.4368E-3
1.25313E-3	53.8980E-12	417.575E-3	-12.3104E-3	54.4658E-12	407.623E-3	-30.6174E-3
1.24812E-3	53.1107E-12	405.589E-3	-9.16117E-3	54.3563E-12	410.661E-3	-18.8425E-3
1.24312E-3	53.4304E-12	392.500E-3	-10.8403E-3	54.2624E-12	413.598E-3	-17.3600E-3
1.23812E-3	52.5635E-12	382.558E-3	-31.1495E-3	54.4442E-12	386.845E-3	-17.5591E-3
1.23312E-3	51.9844E-12	373.790E-3	-48.4567E-3	54.9384E-12	366.294E-3	-8.09697E-3
1.22811E-3	51.7950E-12	367.841E-3	-31.9408E-3	54.6076E-12	365.131E-3	-6.62537E-3
1.22311E-3	51.3058E-12	368.487E-3	-8.76709E-3	53.5108E-12	347.978E-3	-2.93625E-3
1.21811E-3	51.7966E-12	374.244E-3	-11.3254E-3	53.4512E-12	324.840E-3	-2.32219E-3
1.21311E-3	51.6508E-12	375.618E-3	-9.94413E-3	52.7675E-12	318.055E-3	-27.0644E-3
1.20810E-3	51.9022E-12	362.274E-3	2.25111E-3	52.4447E-12	328.114E-3	-46.4202E-3
1.20310E-3	51.9986E-12	336.618E-3	1.55277E-3	52.2466E-12	339.231E-3	-28.4390E-3
1.19810E-3	52.5449E-12	309.693E-3	-4.68198E-3	51.7017E-12	317.213E-3	-2.33878E-3
1.19310E-3	52.4507E-12	293.840E-3	5.33308E-3	51.8639E-12	282.457E-3	6.35573E-3
1.18809E-3	53.0464E-12	298.384E-3	22.5409E-3	50.9889E-12	278.421E-3	-148.891E-6
1.18309E-3	53.1769E-12	308.013E-3	20.1115E-3	51.8193E-12	286.052E-3	-19.3570E-3
1.17809E-3	52.9137E-12	295.459E-3	2.19699E-3	51.1850E-12	281.295E-3	-26.4765E-3
1.17309E-3	52.9016E-12	271.368E-3	-10.5008E-3	51.2702E-12	270.231E-3	-16.5962E-3
1.16808E-3	52.5862E-12	273.226E-3	-15.3367E-3	51.4035E-12	261.107E-3	-9.19476E-3
1.16308E-3	51.5465E-12	276.350E-3	-19.9187E-3	51.6411E-12	251.333E-3	-12.7537E-3
1.15808E-3	51.1045E-12	263.606E-3	-24.4860E-3	51.4542E-12	241.467E-3	-11.9772E-3
1.15308E-3	50.7674E-12	266.243E-3	-25.8512E-3	51.5705E-12	236.987E-3	-4.96207E-3
1.14807E-3	50.1243E-12	257.657E-3	-20.2132E-3	51.4847E-12	240.786E-3	-16.5359E-3
1.14307E-3	49.5539E-12	232.396E-3	-14.0122E-3	51.3960E-12	242.206E-3	-34.7252E-3
1.13807E-3	49.8343E-12	225.353E-3	-14.5733E-3	51.8330E-12	230.618E-3	-39.5860E-3
1.13307E-3	49.4604E-12	227.466E-3	-12.6310E-3	51.4318E-12	221.594E-3	-43.8571E-3
1.12806E-3	49.5160E-12	236.195E-3	-13.1878E-3	51.6957E-12	218.695E-3	-38.0004E-3
1.12306E-3	49.4617E-12	233.574E-3	-8.34403E-3	50.9317E-12	210.028E-3	-24.0938E-3
1.11806E-3	49.0603E-12	211.829E-3	5.03136E-3	51.3768E-12	199.581E-3	-25.9228E-3
1.11306E-3	49.4647E-12	202.806E-3	-3.30775E-3	51.0930E-12	191.577E-3	-28.2315E-3
1.10805E-3	50.1261E-12	206.798E-3	-24.9772E-3	51.2712E-12	187.669E-3	-19.7145E-3
1.10305E-3	50.3673E-12	208.442E-3	-29.4527E-3	51.1869E-12	185.017E-3	-9.32049E-3
1.09805E-3	50.3631E-12	194.731E-3	-20.2695E-3	50.6673E-12	176.471E-3	-9.81790E-6
1.09305E-3	51.0000E-12	187.364E-3	-13.6651E-3	50.4179E-12	172.994E-3	6.98505E-3
1.08804E-3	50.7602E-12	191.130E-3	-8.40915E-3	50.4764E-12	177.181E-3	-1.53496E-3
1.08304E-3	50.7708E-12	181.409E-3	-8.49265E-3	50.8306E-12	179.166E-3	-19.8794E-3
1.07804E-3	50.7571E-12	178.238E-3	-16.3889E-3	50.1395E-12	180.934E-3	-29.8218E-3
1.07304E-3	50.5913E-12	182.977E-3	-14.5081E-3	50.0333E-12	180.026E-3	-36.4945E-3
1.06803E-3	50.1792E-12	182.293E-3	-9.36929E-3	50.1346E-12	170.981E-3	-31.0322E-3
1.06303E-3	49.4730E-12	182.441E-3	-6.49938E-3	49.9321E-12	164.784E-3	-27.3984E-3
1.05803E-3	48.9522E-12	179.928E-3	-4.84879E-3	49.6444E-12	151.170E-3	-33.0256E-3
1.05303E-3	49.0170E-12	163.757E-3	-5.87824E-3	49.2024E-12	131.407E-3	-21.9996E-3
1.04802E-3	48.2293E-12	144.801E-3	-1.37976E-3	49.3599E-12	139.653E-3	-7.69754E-3
1.04302E-3	48.4559E-12	136.179E-3	-2.16430E-3	48.4749E-12	150.141E-3	-2.49065E-3
1.03802E-3	48.2656E-12	142.596E-3	-9.21603E-3	48.9906E-12	139.404E-3	525.312E-6
1.03302E-3	48.6765E-12	160.069E-3	-10.7827E-3	49.0902E-12	136.957E-3	-11.9644E-3
1.02801E-3	48.3399E-12	168.388E-3	-6.41575E-3	48.8308E-12	151.220E-3	-37.8409E-3
1.02301E-3	48.5599E-12	161.737E-3	-4.83246E-3	48.8768E-12	165.691E-3	-42.4561E-3
1.01801E-3	48.8410E-12	156.767E-3	-10.6837E-3	49.1737E-12	166.135E-3	-27.4662E-3
1.01301E-3	48.8798E-12	161.006E-3	-20.0888E-3	49.9203E-12	163.571E-3	-15.4375E-3
1.00800E-3	49.3397E-12	158.474E-3	-31.3286E-3	48.7116E-12	168.076E-3	-6.39795E-3
1.00300E-3	49.4482E-12	136.296E-3	-42.8065E-3	50.4232E-12	173.363E-3	-6.85882E-3
997.999E-6	49.5794E-12	120.779E-3	-35.0708E-3	49.8381E-12	175.444E-3	-21.1819E-3
992.997E-6	49.6227E-12	131.206E-3	-10.3504E-3	49.3590E-12	171.550E-3	-18.4211E-3
987.994E-6	50.0864E-12	141.820E-3	-13.4046E-3	50.0319E-12	162.911E-3	-3.67997E-3
982.991E-6	49.8160E-12	146.798E-3	-31.7957E-3	49.8171E-12	151.100E-3	-12.7606E-3
977.989E-6	49.4972E-12	147.351E-3	-27.8090E-3	49.2295E-12	146.711E-3	-29.6202E-3
972.986E-6	49.9339E-12	142.555E-3	-10.3217E-3	49.0807E-12	158.458E-3	-25.5031E-3
967.984E-6	49.7373E-12	143.331E-3	-2.81110E-3	49.3359E-12	168.040E-3	-4.73848E-3
962.981E-6	49.0517E-12	137.514E-3	-6.38955E-3	48.1280E-12	161.762E-3	8.76274E-3
957.979E-6	48.8748E-12	127.969E-3	-1.84929E-3	47.8472E-12	151.880E-3	10.9715E-3
952.976E-6	49.2390E-12	141.782E-3	4.35048E-3	47.7741E-12	155.803E-3	11.7010E-3
947.974E-6	48.4738E-12	165.307E-3	2.77253E-3	47.8195E-12	174.811E-3	12.1550E-3
942.971E-6	48.5951E-12	173.729E-3	-4.17768E-3	47.2623E-12	187.327E-3	16.1337E-3
937.969E-6	48.5785E-12	167.452E-3	-12.1207E-3	48.2371E-12	186.957E-3	6.53160E-3
932.966E-6	48.7380E-12	157.248E-3	-5.32479E-3	47.9381E-12	188.222E-3	-13.6159E-3
927.964E-6	48.9047E-12	158.881E-3	13.5128E-3	48.0260E-12	184.643E-3	-25.3047E-3
922.961E-6	48.0488E-12	172.628E-3	8.68215E-3	48.6225E-12	183.629E-3	-31.7191E-3
917.959E-6	48.2450E-12	178.246E-3	-18.2622E-3	48.8427E-12	196.701E-3	-32.5829E-3
912.956E-6	48.0222E-12	168.027E-3	-27.0174E-3	48.6098E-12	200.438E-3	-32.5064E-3
907.954E-6	48.2221E-12	158.761E-3	-27.5557E-3	49.6920E-12	207.986E-3	-32.6551E-3
902.951E-6	48.1141E-12	167.152E-3	-30.6253E-3	49.0771E-12	230.358E-3	-33.6830E-3
897.949E-6	47.5432E-12	184.460E-3	-24.2515E-3	48.1272E-12	237.470E-3	-40.7758E-3
892.946E-6	47.5270E-12	194.064E-3	-12.3579E-3	48.5783E-12	235.809E-3	-43.6376E-3
887.944E-6	47.4519E-12	199.171E-3	4.08803E-3	48.8376E-12	243.642E-3	-35.1383E-3
882.941E-6	47.4521E-12	197.235E-3	6.68477E-3	47.8876E-12	240.346E-3	-22.8329E-3
877.939E-6	47.4923E-12	191.465E-3	-16.6296E-3	46.9510E-12	230.590E-3	-20.0558E-3
872.936E-6	47.6076E-12	200.526E-3	-42.0821E-3	47.4156E-12	241.044E-3	-25.8852E-3
867.934E-6	47.8858E-12	214.169E-3	-46.6005E-3	46.0111E-12	258.898E-3	-22.3529E-3
862.931E-6	47.9606E-12	222.275E-3	-31.7449E-3	45.9554E-12	281.597E-3	-13.8772E-3
857.929E-6	47.9222E-12	247.154E-3	-21.0869E-3	46.3114E-12	295.579E-3	-18.9702E-3
852.926E-6	48.0439E-12	283.048E-3	-25.5957E-3	46.2257E-12	283.266E-3	-36.6432E-3
847.924E-6	48.3282E-12	292.755E-3	-23.4028E-3	45.3623E-12	277.963E-3	-43.8997E-3
842.921E-6	47.4382E-12	280.339E-3	-19.1252E-3	45.9048E-12	290.215E-3	-35.5379E-3
837.919E-6	47.8438E-12	273.898E-3	-21.2477E-3	46.5077E-12	307.511E-3	-18.0587E-3
832.916E-6	48.4259E-12	279.868E-3	-27.0646E-3	46.6751E-12	330.582E-3	-7.94458E-3
827.914E-6	47.0706E-12	300.022E-3	-34.4080E-3	47.3616E-12	348.998E-3	-14.5081E-3
822.911E-6	46.3186E-12	320.081E-3	-31.9864E-3	47.2191E-12	360.020E-3	-13.9990E-3
817.909E-6	46.2285E-12	330.621E-3	-27.5366E-3	47.5815E-12	374.115E-3	-14.2446E-3
812.906E-6	46.1765E-12	347.157E-3	-19.1541E-3	47.8205E-12	394.059E-3	-13.7204E-3
807.904E-6	44.9993E-12	362.531E-3	-3.01970E-3	47.5622E-12	404.780E-3	-10.3045E-3
802.901E-6	44.5141E-12	355.559E-3	-2.81778E-3	47.0734E-12	402.527E-3	-6.76915E-3
797.899E-6	44.4159E-12	346.514E-3	-14.4744E-3	47.3262E-12	413.801E-3	-3.33902E-3
792.896E-6	44.1963E-12	356.197E-3	-19.7728E-3	46.8606E-12	442.306E-3	-3.61874E-3
787.894E-6	44.6481E-12	375.141E-3	-10.8822E-3	45.9390E-12	467.845E-3	-6.61206E-3
782.891E-6	44.7678E-12	393.774E-3	-116.874E-6	46.0171E-12	487.408E-3	-15.2834E-3
777.889E-6	44.6766E-12	407.175E-3	-10.1852E-3	45.0825E-12	485.005E-3	-21.0270E-3
772.886E-6	45.3371E-12	426.959E-3	-25.6924E-3	44.4568E-12	481.331E-3	-14.7728E-3
767.884E-6	45.9219E-12	437.517E-3	-22.5869E-3	43.8395E-12	504.063E-3	-12.0513E-3
762.881E-6	45.9202E-12	451.077E-3	-12.9692E-3	43.6764E-12	531.236E-3	-14.0762E-3
757.879E-6	46.1485E-12	484.928E-3	-15.2800E-3	43.4860E-12	555.017E-3	-10.2374E-3
752.876E-6	45.8177E-12	504.305E-3	-14.9145E-3	43.7926E-12	577.206E-3	-8.54902E-3
747.874E-6	45.8265E-12	522.094E-3	-20.8748E-3	43.2699E-12	593.045E-3	-16.2131E-3
742.871E-6	45.5456E-12	559.770E-3	-23.0070E-3	43.3537E-12	614.346E-3	-33.3847E-3
737.869E-6	44.8857E-12	594.856E-3	-5.43096E-3	43.5557E-12	648.571E-3	-34.1873E-3
732.866E-6	44.4413E-12	601.562E-3	-3.00126E-3	43.5448E-12	668.442E-3	-10.5204E-3
727.864E-6	43.7824E-12	593.058E-3	-11.6726E-3	43.4136E-12	678.302E-3	7.69539E-3
722.861E-6	42.8084E-12	596.796E-3	-7.99802E-3	43.8397E-12	699.202E-3	1.58309E-3
717.859E-6	42.5814E-12	608.182E-3	-6.79381E-3	43.6693E-12	716.866E-3	-22.8814E-3
712.856E-6	41.9914E-12	628.481E-3	-7.95572E-3	42.9531E-12	731.718E-3	-29.1681E-3
707.854E-6	41.3767E-12	655.626E-3	-15.7517E-3	43.4476E-12	755.300E-3	-13.1938E-3
702.851E-6	41.1184E-12	672.522E-3	-29.4162E-3	43.0648E-12	776.954E-3	-3.18171E-3
697.849E-6	41.1830E-12	690.743E-3	-26.7662E-3	42.1534E-12	797.872E-3	-9.00712E-3
692.846E-6	40.8341E-12	722.581E-3	-15.9229E-3	41.6731E-12	822.944E-3	-27.1056E-3
687.844E-6	40.7249E-12	744.160E-3	-12.6340E-3	41.9873E-12	845.262E-3	-32.1189E-3
682.841E-6	41.4336E-12	748.598E-3	-14.2213E-3	41.5458E-12	870.036E-3	-23.8453E-3
677.839E-6	41.7038E-12	768.609E-3	-7.00973E-3	41.0878E-12	888.636E-3	-20.0315E-3
672.836E-6	41.5498E-12	806.691E-3	-5.11216E-3	40.5431E-12	892.840E-3	-20.7577E-3
667.834E-6	41.7796E-12	833.794E-3	-13.3139E-3	40.2225E-12	899.634E-3	-20.3729E-3
662.831E-6	41.6603E-12	849.030E-3	-13.8466E-3	40.1874E-12	910.483E-3	-18.5787E-3
657.829E-6	41.8041E-12	866.318E-3	-16.1236E-3	39.8332E-12	931.396E-3	-14.6353E-3
652.826E-6	41.3762E-12	895.026E-3	-23.9873E-3	39.1003E-12	975.850E-3	-2.77028E-3
647.824E-6	40.8813E-12	930.049E-3	-11.3261E-3	38.8713E-12	1.01385E+0	-2.44350E-3
642.821E-6	40.7920E-12	952.203E-3	2.24563E-3	38.9412E-12	1.02198E+0	-14.1263E-3
637.819E-6	39.5973E-12	967.614E-3	-4.16612E-3	38.7393E-12	1.03272E+0	-16.4376E-3
632.816E-6	38.8593E-12	979.053E-3	-10.5763E-3	38.6907E-12	1.06643E+0	-15.4635E-3
627.814E-6	37.8027E-12	988.311E-3	-24.4259E-3	37.9377E-12	1.08895E+0	-14.0846E-3
622.811E-6	37.5665E-12	1.00987E+0	-34.9060E-3	37.7377E-12	1.08796E+0	3.73528E-3
617.809E-6	36.6842E-12	1.03033E+0	-24.3954E-3	37.6038E-12	1.09959E+0	10.2955E-3
612.806E-6	36.4697E-12	1.04832E+0	-16.5202E-3	37.0768E-12	1.13058E+0	-20.6298E-3
607.804E-6	35.6663E-12	1.06278E+0	-25.3930E-3	37.0197E-12	1.16998E+0	-28.0042E-3
602.801E-6	35.1595E-12	1.07285E+0	-23.6561E-3	36.5090E-12	1.19808E+0	6.54422E-3
597.799E-6	35.1355E-12	1.09565E+0	-14.1884E-3	35.6403E-12	1.20420E+0	16.4859E-3
592.796E-6	35.3519E-12	1.12029E+0	-21.3692E-3	35.7572E-12	1.21122E+0	-11.7682E-3
587.794E-6	35.5416E-12	1.13957E+0	-34.3587E-3	35.6429E-12	1.22998E+0	-32.5220E-3
582.791E-6	34.4592E-12	1.15861E+0	-32.8146E-3	34.8825E-12	1.25450E+0	-23.1178E-3
577.789E-6	34.4644E-12	1.17858E+0	-19.9496E-3	34.3823E-12	1.28014E+0	-9.12993E-3
572.786E-6	34.1599E-12	1.20511E+0	-5.54408E-3	34.2798E-12	1.29350E+0	-7.55899E-3
567.784E-6	33.9899E-12	1.22691E+0	10.9817E-3	33.9785E-12	1.28093E+0	-21.9641E-3
562.781E-6	33.8884E-12	1.24814E+0	8.54702E-3	33.5903E-12	1.27456E+0	-38.3854E-3
557.779E-6	33.2750E-12	1.26952E+0	-6.73683E-3	32.7678E-12	1.29948E+0	-32.8634E-3
552.776E-6	32.3997E-12	1.28428E+0	-5.76008E-3	32.2658E-12	1.32295E+0	-22.4336E-3
547.774E-6	32.2113E-12	1.29381E+0	3.17544E-3	32.2408E-12	1.33057E+0	-5.92382E-3
542.771E-6	31.8329E-12	1.29788E+0	10.2359E-3	31.3782E-12	1.34264E+0	12.4984E-3
537.769E-6	30.9925E-12	1.30979E+0	2.20663E-3	30.7910E-12	1.35865E+0	12.4978E-3
532.766E-6	30.2558E-12	1.32815E+0	-21.6640E-3	30.4474E-12	1.36988E+0	5.22256E-3
527.764E-6	29.9896E-12	1.34207E+0	-31.8131E-3	30.3691E-12	1.38457E+0	4.01936E-3
522.761E-6	29.3379E-12	1.33986E+0	-28.9826E-3	29.3599E-12	1.39844E+0	4.87075E-3
517.759E-6	28.6271E-12	1.34245E+0	-21.8839E-3	28.9488E-12	1.40900E+0	5.58798E-3
512.756E-6	28.1386E-12	1.35885E+0	-9.03445E-3	28.5648E-12	1.42408E+0	1.71495E-3
507.754E-6	28.1517E-12	1.36122E+0	-4.22806E-3	28.4496E-12	1.42670E+0	-19.6841E-3
502.751E-6	27.6556E-12	1.35747E+0	-8.52900E-3	27.9544E-12	1.41277E+0	-40.6585E-3
497.749E-6	27.0516E-12	1.36835E+0	-15.5938E-3	27.1896E-12	1.40945E+0	-29.5879E-3
492.746E-6	26.6354E-12	1.39343E+0	-19.8658E-3	27.2677E-12	1.41932E+0	-13.3456E-3
487.744E-6	26.4636E-12	1.40291E+0	-21.7690E-3	27.0085E-12	1.42914E+0	-17.7493E-3
482.741E-6	25.8303E-12	1.40022E+0	-21.3555E-3	26.4943E-12	1.44016E+0	-12.4753E-3
477.739E-6	25.2938E-12	1.40881E+0	-13.1299E-3	25.6334E-12	1.45114E+0	2.36957E-3
472.736E-6	25.0071E-12	1.40579E+0	-9.88121E-3	25.3525E-12	1.44776E+0	10.3217E-3
467.734E-6	24.4057E-12	1.39766E+0	-11.5664E-3	25.3482E-12	1.42622E+0	15.4772E-3
462.731E-6	24.1835E-12	1.40890E+0	-2.59450E-3	24.1378E-12	1.40372E+0	2.16612E-3
457.729E-6	23.4974E-12	1.41459E+0	597.202E-6	23.4275E-12	1.39033E+0	-23.0582E-3
452.726E-6	23.3343E-12	1.41154E+0	-9.70997E-3	23.0803E-12	1.39560E+0	-19.4067E-3
447.724E-6	22.7258E-12	1.41813E+0	-18.0470E-3	22.5326E-12	1.40365E+0	2.15131E-3
442.721E-6	22.3677E-12	1.41692E+0	-18.1517E-3	21.8080E-12	1.38264E+0	-2.22406E-3
437.719E-6	21.8382E-12	1.41344E+0	-10.2961E-3	21.2179E-12	1.36200E+0	-13.7890E-3
432.716E-6	21.5273E-12	1.42799E+0	-13.8777E-3	20.8923E-12	1.35940E+0	-8.80259E-3
427.714E-6	21.1050E-12	1.43830E+0	-28.6624E-3	20.2397E-12	1.34576E+0	2.82146E-3
422.711E-6	20.7958E-12	1.42494E+0	-23.4456E-3	19.9467E-12	1.33450E+0	18.1262E-3
417.709E-6	20.1724E-12	1.41299E+0	-6.46620E-3	19.3249E-12	1.34463E+0	12.1257E-3
412.706E-6	19.6368E-12	1.41369E+0	-1.79576E-3	19.0946E-12	1.35934E+0	-17.2272E-3
407.704E-6	19.1919E-12	1.40936E+0	-9.44378E-3	18.7144E-12	1.37175E+0	-32.9349E-3
402.701E-6	18.7410E-12	1.39653E+0	-17.0256E-3	18.4730E-12	1.36753E+0	-31.4346E-3
397.699E-6	18.2840E-12	1.37563E+0	-11.6797E-3	18.1734E-12	1.34156E+0	-23.4134E-3
392.696E-6	17.6058E-12	1.36709E+0	-2.75181E-3	18.0226E-12	1.32973E+0	-12.1696E-3
387.694E-6	16.9905E-12	1.37000E+0	-6.04622E-3	17.2862E-12	1.32953E+0	-13.0613E-3
382.691E-6	16.3464E-12	1.36171E+0	-22.5226E-3	16.9066E-12	1.31244E+0	-17.0327E-3
377.689E-6	16.1854E-12	1.33583E+0	-26.5665E-3	16.7560E-12	1.28941E+0	-4.14339E-3
372.686E-6	15.5410E-12	1.30342E+0	-5.15698E-3	16.3442E-12	1.27074E+0	7.05591E-3
367.684E-6	14.9665E-12	1.27229E+0	15.9678E-3	15.4758E-12	1.24381E+0	-2.06274E-3
362.681E-6	14.6478E-12	1.23901E+0	10.3008E-3	15.1334E-12	1.20961E+0	-20.4765E-3
357.679E-6	14.3811E-12	1.22648E+0	-8.70747E-3	14.9496E-12	1.17701E+0	-24.4552E-3
352.676E-6	14.0506E-12	1.23034E+0	-13.8281E-3	14.2412E-12	1.14993E+0	-16.7237E-3
347.674E-6	13.8004E-12	1.22270E+0	-12.8609E-3	13.7384E-12	1.13092E+0	-20.7581E-3
342.671E-6	13.3962E-12	1.21154E+0	-7.88588E-3	13.1171E-12	1.11381E+0	-33.9617E-3
337.669E-6	13.1944E-12	1.21321E+0	1.68838E-3	12.8563E-12	1.09188E+0	-41.3794E-3
332.666E-6	13.1211E-12	1.20424E+0	-81.6118E-6	12.5702E-12	1.06551E+0	-35.7553E-3
327.664E-6	12.6590E-12	1.17163E+0	-10.6609E-3	11.9148E-12	1.05060E+0	-24.1366E-3
322.661E-6	12.2224E-12	1.15505E+0	-14.9453E-3	11.5650E-12	1.05695E+0	-18.9413E-3
317.659E-6	11.8924E-12	1.15621E+0	-9.18060E-3	11.5044E-12	1.05755E+0	-16.2685E-3
312.656E-6	11.6129E-12	1.14445E+0	-2.53183E-3	11.2037E-12	1.03183E+0	-14.9380E-3
307.654E-6	11.1797E-12	1.12561E+0	-7.94037E-3	10.7276E-12	997.044E-3	-18.8913E-3
302.651E-6	10.7158E-12	1.11075E+0	-16.8091E-3	10.5150E-12	972.067E-3	-19.4012E-3
297.649E-6	10.2016E-12	1.08628E+0	-15.1656E-3	10.4661E-12	965.454E-3	-12.1746E-3
292.646E-6	9.76524E-12	1.04749E+0	-17.0680E-3	10.0089E-12	955.865E-3	-10.2636E-3
287.644E-6	9.41806E-12	1.00459E+0	-20.0491E-3	9.67310E-12	920.533E-3	-18.5277E-3
282.641E-6	8.88095E-12	976.749E-3	-16.8216E-3	9.39220E-12	895.128E-3	-15.5908E-3
277.639E-6	8.58954E-12	961.780E-3	-23.3644E-3	9.15291E-12	895.289E-3	-10.9959E-3
272.636E-6	8.26086E-12	935.118E-3	-37.3023E-3	8.76678E-12	885.093E-3	-12.5319E-3
267.634E-6	7.95879E-12	900.109E-3	-32.2711E-3	8.37169E-12	851.170E-3	-6.67637E-3
262.631E-6	7.63484E-12	873.366E-3	-7.09787E-3	8.02412E-12	808.676E-3	-14.1991E-3
257.629E-6	7.52329E-12	859.673E-3	2.20655E-3	7.80635E-12	777.947E-3	-32.2637E-3
252.626E-6	7.40972E-12	846.615E-3	-5.13788E-3	7.49746E-12	762.376E-3	-32.0496E-3
247.624E-6	7.12231E-12	824.184E-3	-9.25716E-3	7.01592E-12	746.790E-3	-18.8959E-3
242.621E-6	7.08065E-12	795.073E-3	-11.0734E-3	6.89387E-12	714.576E-3	-8.47729E-3
237.619E-6	7.20702E-12	774.948E-3	-15.0409E-3	6.84765E-12	669.989E-3	679.932E-6
232.616E-6	6.69915E-12	776.996E-3	-15.2150E-3	6.41165E-12	648.250E-3	2.91702E-3
227.614E-6	6.31911E-12	783.542E-3	-9.24284E-3	5.99138E-12	643.885E-3	-6.33080E-3
222.611E-6	6.24879E-12	763.291E-3	-9.51047E-3	5.90897E-12	635.338E-3	-5.90089E-3
217.609E-6	6.04971E-12	727.518E-3	-16.6849E-3	5.81806E-12	628.118E-3	10.7769E-3
212.606E-6	5.66350E-12	704.474E-3	-25.8479E-3	5.46999E-12	607.831E-3	23.2304E-3
207.604E-6	5.24374E-12	690.014E-3	-26.4876E-3	5.29074E-12	587.252E-3	10.0082E-3
202.601E-6	5.11548E-12	677.817E-3	-14.3193E-3	5.15014E-12	582.138E-3	-24.8118E-3
197.599E-6	4.94365E-12	651.953E-3	-5.76717E-3	5.04114E-12	568.061E-3	-45.4262E-3
192.596E-6	4.61181E-12	608.703E-3	3.39596E-3	4.71121E-12	548.741E-3	-35.0157E-3
187.594E-6	4.26486E-12	572.080E-3	10.3212E-3	4.50010E-12	533.353E-3	-23.6242E-3
182.591E-6	4.18064E-12	560.017E-3	1.72653E-3	4.41247E-12	505.939E-3	-25.1889E-3
177.589E-6	4.05976E-12	556.108E-3	-2.57046E-3	4.24653E-12	472.894E-3	-19.1731E-3
172.586E-6	3.87338E-12	532.539E-3	-3.51452E-3	3.92929E-12	452.634E-3	-12.2371E-3
167.584E-6	3.61315E-12	504.665E-3	-20.4690E-3	3.72006E-12	437.567E-3	-14.7302E-3
162.581E-6	3.52312E-12	489.104E-3	-28.2997E-3	3.65745E-12	425.930E-3	-18.6501E-3
157.579E-6	3.48173E-12	475.496E-3	-10.8547E-3	3.51459E-12	422.555E-3	-23.9431E-3
152.576E-6	3.32264E-12	470.673E-3	1.54224E-3	3.15287E-12	413.739E-3	-30.3631E-3
147.574E-6	3.15196E-12	472.996E-3	-2.87835E-3	2.99911E-12	399.478E-3	-32.0878E-3
142.571E-6	3.02980E-12	459.716E-3	-8.93213E-3	3.02525E-12	389.007E-3	-34.5739E-3
137.569E-6	2.94296E-12	441.031E-3	-19.3364E-3	2.86515E-12	378.209E-3	-31.9952E-3
132.566E-6	2.78868E-12	425.851E-3	-22.4933E-3	2.59185E-12	363.332E-3	-17.1627E-3
127.564E-6	2.64461E-12	412.363E-3	-8.67555E-3	2.51659E-12	350.684E-3	-17.1543E-3
122.561E-6	2.54584E-12	407.862E-3	-4.70470E-3	2.44909E-12	336.411E-3	-34.8035E-3
117.559E-6	2.38170E-12	401.078E-3	-20.4078E-3	2.31859E-12	317.167E-3	-32.0539E-3
112.556E-6	2.14907E-12	385.123E-3	-30.6023E-3	2.11686E-12	308.862E-3	-13.8570E-3
107.554E-6	2.11295E-12	368.697E-3	-23.8559E-3	2.04724E-12	304.158E-3	-7.30382E-3
102.551E-6	2.00987E-12	356.043E-3	-18.1204E-3	2.02789E-12	291.651E-3	-11.8642E-3
97.5488E-6	1.77693E-12	340.924E-3	-16.8317E-3	1.84072E-12	288.179E-3	-17.8449E-3
92.5463E-6	1.63528E-12	321.501E-3	-17.4777E-3	1.68963E-12	287.165E-3	-14.3153E-3
87.5438E-6	1.63085E-12	315.544E-3	-18.0897E-3	1.64587E-12	279.470E-3	-8.02801E-3
82.5413E-6	1.61015E-12	321.768E-3	-9.50423E-3	1.56313E-12	280.145E-3	-11.3927E-3
77.5388E-6	1.39846E-12	322.374E-3	-9.37810E-3	1.39007E-12	285.529E-3	-16.3589E-3
72.5363E-6	1.13462E-12	318.205E-3	-18.3926E-3	1.24164E-12	280.360E-3	-21.4155E-3
67.5338E-6	1.21267E-12	304.489E-3	-17.0241E-3	1.21088E-12	275.245E-3	-33.6319E-3
62.5313E-6	1.21446E-12	280.798E-3	-21.6453E-3	1.13182E-12	273.009E-3	-38.3175E-3
57.5288E-6	1.07769E-12	266.694E-3	-28.2071E-3	982.167E-15	260.185E-3	-22.0695E-3
52.5263E-6	822.159E-15	265.803E-3	-19.5848E-3	801.512E-15	255.717E-3	-5.11619E-3
47.5238E-6	750.190E-15	275.985E-3	-9.00261E-3	861.265E-15	267.292E-3	-19.6504E-3
42.5213E-6	812.541E-15	301.324E-3	-10.2563E-3	797.701E-15	275.588E-3	-44.6587E-3
37.5188E-6	689.913E-15	309.668E-3	-15.6019E-3	579.117E-15	273.796E-3	-41.6603E-3
32.5163E-6	463.412E-15	281.949E-3	-21.6411E-3	413.729E-15	270.662E-3	-18.8306E-3
27.5138E-6	421.821E-15	260.852E-3	-26.8185E-3	475.723E-15	271.208E-3	-3.87761E-3
22.5113E-6	356.714E-15	262.334E-3	-24.2997E-3	387.493E-15	272.036E-3	-10.9618E-3
17.5088E-6	279.260E-15	266.013E-3	-25.1152E-3	133.944E-15	274.382E-3	-27.6492E-3
12.5063E-6	122.173E-15	265.566E-3	-27.6266E-3	20.5929E-15	279.158E-3	-34.6233E-3
7.50375E-6	40.8653E-15	262.970E-3	-22.5279E-3	91.9168E-15	290.620E-3	-24.8286E-3
2.50125E-6	-45.5954E-15	264.663E-3	-17.8570E-3	-12.0435E-15	295.181E-3	-9.80817E-3
-2.50125E-6	-192.673E-15	279.300E-3	-13.2498E-3	-210.347E-15	284.248E-3	-4.42780E-3
-7.50375E-6	-238.432E-15	290.584E-3	-10.3399E-3	-298.883E-15	285.712E-3	-9.74037E-3
-12.5063E-6	-284.077E-15	286.048E-3	-15.7441E-3	-293.302E-15	304.161E-3	-20.1805E-3
-17.5088E-6	-427.274E-15	287.593E-3	-15.5181E-3	-473.356E-15	317.664E-3	-17.9958E-3
-22.5113E-6	-591.049E-15	291.726E-3	-4.16310E-3	-671.057E-15	321.914E-3	-2.19979E-3
-27.5138E-6	-663.934E-15	288.361E-3	5.25447E-3	-686.124E-15	320.995E-3	-4.65686E-3
-32.5163E-6	-621.514E-15	297.839E-3	2.31798E-3	-721.621E-15	328.131E-3	-26.4160E-3
-37.5188E-6	-813.226E-15	317.191E-3	-16.4421E-3	-903.078E-15	354.443E-3	-32.0484E-3
-42.5213E-6	-1.09502E-12	321.897E-3	-27.6884E-3	-1.09183E-12	371.496E-3	-30.6897E-3
-47.5238E-6	-1.15370E-12	322.610E-3	-22.8426E-3	-1.14445E-12	369.852E-3	-35.4876E-3
-52.5263E-6	-1.08585E-12	337.639E-3	-22.1562E-3	-1.21398E-12	381.695E-3	-33.8056E-3
-57.5288E-6	-1.28945E-12	356.667E-3	-29.0206E-3	-1.44169E-12	402.819E-3	-29.0142E-3
-62.5313E-6	-1.54646E-12	370.991E-3	-38.8244E-3	-1.60492E-12	411.440E-3	-22.0581E-3
-67.5338E-6	-1.65746E-12	368.854E-3	-33.0966E-3	-1.61303E-12	422.991E-3	-17.6386E-3
-72.5363E-6	-1.63918E-12	354.510E-3	-20.2026E-3	-1.70062E-12	448.438E-3	-18.2786E-3
-77.5388E-6	-1.85184E-12	358.266E-3	-17.3112E-3	-2.01894E-12	466.165E-3	-22.0362E-3
-82.5413E-6	-2.12319E-12	382.133E-3	-13.1716E-3	-2.17038E-12	468.796E-3	-27.5681E-3
-87.5438E-6	-2.24624E-12	402.091E-3	-9.77580E-3	-2.08970E-12	486.089E-3	-29.0677E-3
-92.5463E-6	-2.26862E-12	412.561E-3	-6.83389E-3	-2.22105E-12	522.451E-3	-23.2579E-3
-97.5488E-6	-2.52026E-12	429.391E-3	-3.03675E-3	-2.64050E-12	549.414E-3	-14.3915E-3
-102.551E-6	-2.81504E-12	461.213E-3	-2.51453E-3	-2.76343E-12	566.770E-3	-13.9175E-3
-107.554E-6	-2.94755E-12	495.309E-3	-4.38009E-3	-2.76898E-12	586.554E-3	-19.8159E-3
-112.556E-6	-3.05126E-12	523.491E-3	-6.94659E-3	-2.98452E-12	610.194E-3	-15.8531E-3
-117.559E-6	-3.28567E-12	539.693E-3	-7.65186E-3	-3.31706E-12	641.194E-3	-766.044E-6
-122.561E-6	-3.52772E-12	547.348E-3	-14.7753E-3	-3.54013E-12	670.377E-3	5.46573E-3
-127.564E-6	-3.61975E-12	562.841E-3	-20.6064E-3	-3.68842E-12	688.525E-3	3.66691E-3
-132.566E-6	-3.85028E-12	584.655E-3	-18.4143E-3	-3.92806E-12	704.271E-3	-6.17259E-3
-137.569E-6	-4.08297E-12	608.072E-3	-18.0665E-3	-4.23755E-12	723.530E-3	-30.6260E-3
-142.571E-6	-4.29803E-12	628.174E-3	-23.1979E-3	-4.49435E-12	752.174E-3	-35.7890E-3
-147.574E-6	-4.38134E-12	633.151E-3	-34.2518E-3	-4.60162E-12	785.246E-3	-17.2962E-3
-152.576E-6	-4.62444E-12	640.400E-3	-36.9846E-3	-4.82690E-12	794.535E-3	-16.9191E-3
-157.579E-6	-4.89412E-12	668.366E-3	-26.5771E-3	-5.19342E-12	791.808E-3	-29.2437E-3
-162.581E-6	-5.16629E-12	697.518E-3	-20.5538E-3	-5.26705E-12	824.134E-3	-32.2326E-3
-167.584E-6	-5.27231E-12	721.389E-3	-23.5735E-3	-5.43063E-12	870.802E-3	-32.8596E-3
-172.586E-6	-5.70979E-12	753.951E-3	-24.4255E-3	-5.87888E-12	898.615E-3	-29.1206E-3
-177.589E-6	-6.21671E-12	792.641E-3	-19.6266E-3	-6.17873E-12	927.745E-3	-19.9792E-3
-182.591E-6	-6.46457E-12	822.715E-3	-17.4892E-3	-6.27404E-12	959.734E-3	-13.9463E-3
-187.594E-6	-6.67206E-12	854.578E-3	-19.4508E-3	-6.54144E-12	992.526E-3	-16.0883E-3
-192.596E-6	-7.08617E-12	900.911E-3	-17.7308E-3	-6.98527E-12	1.04107E+0	-18.7778E-3
-197.599E-6	-7.74818E-12	948.968E-3	-16.8923E-3	-7.33155E-12	1.09556E+0	-18.2313E-3
-202.601E-6	-7.96190E-12	990.631E-3	-18.9449E-3	-7.53512E-12	1.13773E+0	-27.3366E-3
-207.604E-6	-8.19766E-12	1.03420E+0	-25.4477E-3	-7.93987E-12	1.18065E+0	-27.5870E-3
-212.606E-6	-8.59821E-12	1.07465E+0	-31.6376E-3	-8.52670E-12	1.23757E+0	-19.3124E-3
-217.609E-6	-9.25657E-12	1.10038E+0	-26.9558E-3	-9.02704E-12	1.30033E+0	-18.3279E-3
-222.611E-6	-9.43448E-12	1.13006E+0	-17.7232E-3	-9.30699E-12	1.35548E+0	-9.06421E-3
-227.614E-6	-9.63445E-12	1.17101E+0	-7.59400E-3	-9.87484E-12	1.39224E+0	-6.05491E-3
-232.616E-6	-10.0494E-12	1.20625E+0	3.24647E-3	-10.5017E-12	1.42065E+0	-13.8796E-3
-237.619E-6	-10.5025E-12	1.24221E+0	6.83419E-3	-10.9371E-12	1.45789E+0	-20.1781E-3
-242.621E-6	-10.8293E-12	1.28253E+0	-2.74060E-3	-11.3196E-12	1.48810E+0	-32.3949E-3
-247.624E-6	-11.2042E-12	1.32286E+0	-19.5537E-3	-11.6865E-12	1.50840E+0	-37.7463E-3
-252.626E-6	-11.7011E-12	1.36129E+0	-28.5887E-3	-12.1553E-12	1.54471E+0	-28.7870E-3
-257.629E-6	-12.2652E-12	1.38885E+0	-24.5190E-3	-12.6815E-12	1.58744E+0	-28.0976E-3
-262.631E-6	-12.6618E-12	1.42151E+0	-11.6046E-3	-12.9130E-12	1.62182E+0	-31.8461E-3
-267.634E-6	-13.1545E-12	1.46325E+0	-6.61434E-3	-13.3279E-12	1.66877E+0	-17.1671E-3
-272.636E-6	-13.9348E-12	1.50228E+0	-19.0826E-3	-13.9162E-12	1.71900E+0	-6.34066E-3
-277.639E-6	-14.6104E-12	1.55385E+0	-25.9385E-3	-14.4695E-12	1.75325E+0	-8.94072E-3
-282.641E-6	-15.1558E-12	1.61531E+0	-13.8490E-3	-15.0030E-12	1.79829E+0	-12.8645E-3
-287.644E-6	-15.7520E-12	1.67688E+0	-10.1465E-3	-15.4627E-12	1.85661E+0	-21.8642E-3
-292.646E-6	-16.6529E-12	1.74345E+0	-20.5226E-3	-16.1395E-12	1.90588E+0	-31.5094E-3
-297.649E-6	-17.3513E-12	1.80320E+0	-25.5617E-3	-16.8645E-12	1.95544E+0	-36.5769E-3
-302.651E-6	-17.6665E-12	1.85515E+0	-25.5756E-3	-17.4909E-12	2.01567E+0	-36.7963E-3
-307.654E-6	-18.2633E-12	1.89666E+0	-24.7657E-3	-18.0639E-12	2.06893E+0	-35.2309E-3
-312.656E-6	-19.3724E-12	1.92064E+0	-15.3720E-3	-19.0881E-12	2.11526E+0	-25.8410E-3
-317.659E-6	-19.6807E-12	1.95423E+0	1.51385E-3	-19.6745E-12	2.17270E+0	-18.5738E-3
-322.661E-6	-19.7884E-12	2.00664E+0	-252.529E-6	-20.2495E-12	2.22253E+0	-15.2368E-3
-327.664E-6	-20.6796E-12	2.04983E+0	-12.9755E-3	-21.2909E-12	2.26488E+0	-5.33324E-3
-332.666E-6	-21.7251E-12	2.06967E+0	-8.23584E-3	-22.3193E-12	2.31015E+0	-3.40049E-3
-337.669E-6	-22.0693E-12	2.08619E+0	-9.41107E-3	-22.7152E-12	2.33295E+0	-9.03193E-3
-342.671E-6	-22.3287E-12	2.11293E+0	-28.4353E-3	-23.5327E-12	2.34443E+0	-8.56628E-3
-347.674E-6	-23.3941E-12	2.13992E+0	-39.3868E-3	-24.4248E-12	2.37525E+0	-4.11394E-3
-352.676E-6	-24.4589E-12	2.16959E+0	-39.6406E-3	-25.2186E-12	2.40946E+0	-5.81356E-3
-357.679E-6	-25.0002E-12	2.21425E+0	-32.9459E-3	-25.5057E-12	2.43290E+0	-12.2964E-3
-362.681E-6	-25.5509E-12	2.26831E+0	-17.5651E-3	-26.2648E-12	2.45601E+0	-23.7896E-3
-367.684E-6	-26.6917E-12	2.31935E+0	-4.76738E-3	-27.0036E-12	2.48605E+0	-37.0316E-3
-372.686E-6	-27.8752E-12	2.36176E+0	591.998E-6	-27.8790E-12	2.52582E+0	-24.6982E-3
-377.689E-6	-28.8236E-12	2.40202E+0	3.78371E-3	-28.6242E-12	2.57145E+0	-3.57588E-3
-382.691E-6	-29.2652E-12	2.44698E+0	-493.173E-6	-29.1573E-12	2.59359E+0	-8.10569E-3
-387.694E-6	-30.6031E-12	2.48791E+0	-9.97806E-3	-30.4551E-12	2.59417E+0	-15.1652E-3
-392.696E-6	-31.7075E-12	2.52606E+0	-13.1832E-3	-31.2713E-12	2.62872E+0	-17.9977E-3
-397.699E-6	-32.2057E-12	2.56569E+0	-17.2888E-3	-31.4459E-12	2.67213E+0	-31.1006E-3
-402.701E-6	-33.0915E-12	2.59935E+0	-32.7005E-3	-32.7033E-12	2.69335E+0	-30.0184E-3
-407.704E-6	-34.0037E-12	2.63187E+0	-41.5333E-3	-33.8953E-12	2.72195E+0	-18.9314E-3
-412.706E-6	-35.1342E-12	2.65669E+0	-24.7799E-3	-34.3458E-12	2.74076E+0	-26.7955E-3
-417.709E-6	-35.5079E-12	2.66918E+0	-10.5369E-3	-35.6025E-12	2.74995E+0	-32.8657E-3
-422.711E-6	-36.1047E-12	2.69658E+0	-11.8878E-3	-36.9113E-12	2.78015E+0	-20.3139E-3
-427.714E-6	-37.2733E-12	2.72479E+0	-3.89580E-3	-37.3320E-12	2.79931E+0	-10.8308E-3
-432.716E-6	-38.5374E-12	2.72628E+0	2.38389E-3	-38.4235E-12	2.78976E+0	-5.85666E-3
-437.719E-6	-39.0112E-12	2.73420E+0	-2.86458E-3	-39.6656E-12	2.80057E+0	-4.69069E-3
-442.721E-6	-39.4178E-12	2.76614E+0	-10.3650E-3	-40.3416E-12	2.82711E+0	-16.6150E-3
-447.724E-6	-40.8261E-12	2.78164E+0	-19.0481E-3	-41.1566E-12	2.82589E+0	-20.9443E-3
-452.726E-6	-41.9753E-12	2.77496E+0	-15.2025E-3	-42.8249E-12	2.82017E+0	-10.6021E-3
-457.729E-6	-42.4680E-12	2.77916E+0	-7.90296E-3	-43.4803E-12	2.82030E+0	-9.24853E-3
-462.731E-6	-43.5440E-12	2.78505E+0	-15.4592E-3	-44.2939E-12	2.81148E+0	-17.2711E-3
-467.734E-6	-44.8264E-12	2.78826E+0	-20.1138E-3	-45.7390E-12	2.81897E+0	-28.3563E-3
-472.736E-6	-46.0701E-12	2.81087E+0	-11.7480E-3	-46.5562E-12	2.83227E+0	-52.5540E-3
-477.739E-6	-46.1584E-12	2.83855E+0	-6.04800E-3	-46.6477E-12	2.81848E+0	-61.1047E-3
-482.741E-6	-47.1193E-12	2.84386E+0	-11.5345E-3	-48.2234E-12	2.79026E+0	-38.1855E-3
-487.744E-6	-47.9674E-12	2.82072E+0	-19.6432E-3	-49.3873E-12	2.77076E+0	-16.6848E-3
-492.746E-6	-48.9226E-12	2.79129E+0	-10.9452E-3	-49.2095E-12	2.75437E+0	-8.64747E-3
-497.749E-6	-49.4854E-12	2.78943E+0	7.56300E-3	-50.2393E-12	2.71938E+0	-11.2672E-3
-502.751E-6	-50.1680E-12	2.79079E+0	6.65933E-3	-51.0633E-12	2.68000E+0	-25.2075E-3
-507.754E-6	-51.2746E-12	2.76738E+0	-14.4396E-3	-51.2404E-12	2.66253E+0	-35.8761E-3
-512.756E-6	-52.8353E-12	2.73371E+0	-34.7368E-3	-51.7199E-12	2.64571E+0	-30.8854E-3
-517.759E-6	-52.6821E-12	2.70675E+0	-32.2962E-3	-52.6843E-12	2.62258E+0	-20.0072E-3
-522.761E-6	-53.8064E-12	2.70407E+0	-8.37029E-3	-53.4437E-12	2.62134E+0	-14.4661E-3
-527.764E-6	-55.8257E-12	2.69663E+0	5.77880E-3	-54.1074E-12	2.62577E+0	-17.3022E-3
-532.766E-6	-56.7193E-12	2.67127E+0	-1.32122E-3	-55.5098E-12	2.62024E+0	-23.1932E-3
-537.769E-6	-56.9513E-12	2.66920E+0	-7.60399E-3	-56.4343E-12	2.61525E+0	-20.1907E-3
-542.771E-6	-58.5874E-12	2.66949E+0	-3.33794E-3	-57.7075E-12	2.59583E+0	-8.84219E-3
-547.774E-6	-60.3152E-12	2.65439E+0	-5.38101E-3	-58.5776E-12	2.57510E+0	-803.345E-6
-552.776E-6	-59.9712E-12	2.67108E+0	-16.9990E-3	-60.0339E-12	2.56064E+0	2.78882E-3
-557.779E-6	-60.4182E-12	2.68458E+0	-17.9187E-3	-61.0796E-12	2.53284E+0	-4.94693E-3
-562.781E-6	-62.0235E-12	2.64413E+0	-3.83231E-3	-62.4312E-12	2.50189E+0	-12.9487E-3
-567.784E-6	-62.3926E-12	2.61047E+0	4.13247E-3	-64.0084E-12	2.46400E+0	-8.22499E-3
-572.786E-6	-63.4460E-12	2.59683E+0	-159.851E-6	-64.7846E-12	2.41043E+0	-5.59280E-3
-577.789E-6	-64.2005E-12	2.55242E+0	-4.77787E-3	-65.2555E-12	2.36275E+0	-5.78672E-3
-582.791E-6	-64.7652E-12	2.50624E+0	-6.86307E-3	-65.7349E-12	2.31515E+0	-10.4971E-3
-587.794E-6	-65.2478E-12	2.47577E+0	-11.8508E-3	-66.3483E-12	2.26888E+0	-9.10230E-3
-592.796E-6	-65.4417E-12	2.41394E+0	-8.70380E-3	-66.1999E-12	2.23620E+0	2.72961E-3
-597.799E-6	-65.8505E-12	2.34404E+0	7.63409E-3	-66.3975E-12	2.18915E+0	-1.39000E-3
-602.801E-6	-67.0273E-12	2.30183E+0	18.2610E-3	-67.1279E-12	2.13070E+0	-20.0045E-3
-607.804E-6	-68.6545E-12	2.25612E+0	17.9874E-3	-67.7869E-12	2.10360E+0	-33.5988E-3
-612.806E-6	-68.7428E-12	2.22466E+0	-3.89166E-3	-68.0585E-12	2.09035E+0	-31.1897E-3
-617.809E-6	-70.0008E-12	2.21906E+0	-33.5502E-3	-68.5961E-12	2.05104E+0	-29.4841E-3
-622.811E-6	-71.7996E-12	2.18414E+0	-30.1323E-3	-69.7582E-12	2.00674E+0	-32.0271E-3
-627.814E-6	-72.8481E-12	2.13028E+0	-136.248E-6	-70.7514E-12	1.98557E+0	-24.9188E-3
-632.816E-6	-73.2285E-12	2.11515E+0	22.9363E-3	-71.8757E-12	1.97151E+0	-11.1340E-3
-637.819E-6	-74.1384E-12	2.11383E+0	23.7226E-3	-73.0357E-12	1.94813E+0	-4.83980E-3
-642.821E-6	-75.8625E-12	2.09899E+0	4.31963E-3	-74.3990E-12	1.92753E+0	-1.71395E-3
-647.824E-6	-75.3960E-12	2.08233E+0	-5.51994E-3	-75.2025E-12	1.90044E+0	-1.02187E-3
-652.826E-6	-75.1120E-12	2.04791E+0	-4.05638E-3	-76.5673E-12	1.86117E+0	-19.9109E-3
-657.829E-6	-75.8366E-12	1.98624E+0	-17.7435E-3	-77.8861E-12	1.80844E+0	-33.0375E-3
-662.831E-6	-76.5500E-12	1.92408E+0	-16.7649E-3	-78.7283E-12	1.75051E+0	-17.9528E-3
-667.834E-6	-75.7752E-12	1.87320E+0	6.96819E-3	-79.2885E-12	1.72274E+0	7.62864E-3
-672.836E-6	-75.4548E-12	1.80481E+0	7.18597E-3	-80.1080E-12	1.70079E+0	18.8977E-3
-677.839E-6	-76.2556E-12	1.73890E+0	-2.17615E-3	-80.1300E-12	1.64291E+0	14.1414E-3
-682.841E-6	-76.9482E-12	1.71335E+0	418.648E-6	-80.3350E-12	1.56227E+0	-7.13263E-3
-687.844E-6	-77.1319E-12	1.68721E+0	-16.8042E-3	-80.5479E-12	1.49781E+0	-39.4213E-3
-692.846E-6	-77.8047E-12	1.63752E+0	-46.6330E-3	-80.1012E-12	1.46702E+0	-34.2639E-3
-697.849E-6	-78.6766E-12	1.59381E+0	-26.8186E-3	-79.7930E-12	1.44289E+0	5.27246E-3
-702.851E-6	-79.7755E-12	1.55873E+0	12.0543E-3	-80.1975E-12	1.40040E+0	-2.87849E-3
-707.854E-6	-80.7346E-12	1.52733E+0	2.11788E-3	-80.9928E-12	1.35092E+0	-42.8080E-3
-712.856E-6	-81.8528E-12	1.49978E+0	-20.8919E-3	-80.5144E-12	1.31481E+0	-38.3944E-3
-717.859E-6	-82.7494E-12	1.46600E+0	-19.3715E-3	-81.7741E-12	1.27678E+0	-21.5228E-3
-722.861E-6	-83.7280E-12	1.42713E+0	-6.27788E-3	-81.5974E-12	1.21959E+0	-21.4080E-3
-727.864E-6	-85.0989E-12	1.40422E+0	1.39560E-3	-82.7109E-12	1.18366E+0	-25.2533E-3
-732.866E-6	-85.8035E-12	1.39068E+0	-10.2080E-3	-82.9996E-12	1.18707E+0	-32.9471E-3
-737.869E-6	-85.4561E-12	1.36313E+0	-28.8583E-3	-85.3239E-12	1.18217E+0	-28.1752E-3
-742.871E-6	-85.5035E-12	1.32559E+0	-32.8084E-3	-85.5511E-12	1.15426E+0	-16.3325E-3
-747.874E-6	-85.4034E-12	1.28223E+0	-31.1257E-3	-85.9609E-12	1.11230E+0	-16.1272E-3
-752.876E-6	-85.5405E-12	1.23327E+0	-22.0771E-3	-87.4591E-12	1.04694E+0	-17.1113E-3
-757.879E-6	-84.7136E-12	1.18412E+0	-1.51811E-3	-87.8529E-12	990.269E-3	-4.32880E-3
-762.881E-6	-84.4059E-12	1.12652E+0	9.92782E-3	-87.7840E-12	978.633E-3	3.50691E-3
-767.884E-6	-84.6439E-12	1.08069E+0	297.180E-6	-88.8347E-12	969.842E-3	-8.78765E-3
-772.886E-6	-84.6781E-12	1.04295E+0	-27.4216E-3	-90.2756E-12	938.087E-3	-25.9828E-3
-777.889E-6	-85.5302E-12	995.437E-3	-49.4640E-3	-88.3880E-12	903.635E-3	-21.4479E-3
-782.891E-6	-85.3880E-12	970.280E-3	-35.9662E-3	-88.7885E-12	854.763E-3	-13.1893E-3
-787.894E-6	-86.3556E-12	948.179E-3	-2.07666E-3	-88.4274E-12	808.940E-3	-11.3503E-3
-792.896E-6	-86.3357E-12	916.951E-3	-2.29378E-3	-88.2836E-12	785.284E-3	3.33272E-3
-797.899E-6	-87.7321E-12	885.987E-3	-34.5663E-3	-87.9191E-12	769.278E-3	5.04104E-3
-802.901E-6	-88.1830E-12	839.820E-3	-27.2860E-3	-87.9467E-12	730.995E-3	-8.87144E-3
-807.904E-6	-89.0864E-12	799.022E-3	14.9369E-3	-87.1541E-12	682.300E-3	-12.4756E-3
-812.906E-6	-90.3131E-12	774.046E-3	32.7053E-3	-87.8284E-12	664.298E-3	-7.12898E-3
-817.909E-6	-90.9034E-12	746.553E-3	17.3511E-3	-88.0801E-12	639.033E-3	-2.31508E-3
-822.911E-6	-91.2187E-12	733.053E-3	-28.2866E-3	-87.5586E-12	604.083E-3	-7.40489E-3
-827.914E-6	-90.9463E-12	726.543E-3	-64.1433E-3	-88.0797E-12	588.549E-3	-21.1760E-3
-832.916E-6	-90.9007E-12	705.647E-3	-51.8054E-3	-88.5109E-12	577.358E-3	-40.1966E-3
-837.919E-6	-90.1025E-12	700.126E-3	-44.4808E-3	-88.5588E-12	568.239E-3	-57.8491E-3
-842.921E-6	-90.3501E-12	690.123E-3	-57.8127E-3	-89.4503E-12	558.928E-3	-54.6097E-3
-847.924E-6	-89.8594E-12	650.548E-3	-41.0118E-3	-90.0343E-12	544.109E-3	-30.2550E-3
-852.926E-6	-89.3227E-12	613.077E-3	-24.7963E-3	-89.9230E-12	527.385E-3	-10.7265E-3
-857.929E-6	-89.5966E-12	582.403E-3	-28.7478E-3	-91.0086E-12	503.861E-3	-19.8340E-3
-862.931E-6	-89.2031E-12	559.763E-3	-19.3951E-3	-91.2211E-12	480.776E-3	-27.2790E-3
-867.934E-6	-89.6393E-12	546.704E-3	-10.2516E-3	-91.5580E-12	467.566E-3	-21.1149E-3
-872.936E-6	-90.2079E-12	524.259E-3	-11.9820E-3	-92.0539E-12	449.007E-3	-31.9671E-3
-877.939E-6	-90.2497E-12	486.205E-3	-7.19338E-3	-92.8537E-12	437.440E-3	-32.6200E-3
-882.941E-6	-90.1833E-12	457.379E-3	12.0507E-3	-93.3764E-12	444.524E-3	-3.27560E-3
-887.944E-6	-90.7774E-12	461.085E-3	19.0777E-3	-93.1591E-12	427.796E-3	-3.34735E-3
-892.946E-6	-91.8661E-12	469.450E-3	3.91211E-3	-92.6838E-12	370.563E-3	-32.4860E-3
-897.949E-6	-92.6534E-12	450.487E-3	-15.6054E-3	-92.8971E-12	331.956E-3	-16.5417E-3
-902.951E-6	-92.4643E-12	428.341E-3	-20.6549E-3	-92.5708E-12	340.338E-3	8.82126E-3
-907.954E-6	-92.4174E-12	417.033E-3	-932.033E-6	-91.7173E-12	341.548E-3	-232.605E-6
-912.956E-6	-92.6127E-12	398.361E-3	4.42928E-3	-92.3936E-12	322.742E-3	-13.3660E-3
-917.959E-6	-93.0255E-12	377.758E-3	-19.0454E-3	-92.0135E-12	315.421E-3	-30.4302E-3
-922.961E-6	-92.6960E-12	355.627E-3	-29.0892E-3	-91.5551E-12	307.340E-3	-37.7828E-3
-927.964E-6	-92.1452E-12	331.600E-3	-29.7917E-3	-91.5756E-12	281.179E-3	-7.21570E-3
-932.966E-6	-92.7234E-12	320.884E-3	-26.1526E-3	-91.9297E-12	250.178E-3	14.8185E-3
-937.969E-6	-92.4994E-12	322.984E-3	3.07140E-3	-91.6833E-12	237.744E-3	-5.69687E-3
-942.971E-6	-91.6913E-12	324.455E-3	24.5531E-3	-91.7064E-12	247.102E-3	-36.6731E-3
-947.974E-6	-92.4634E-12	313.462E-3	18.0494E-3	-91.5057E-12	263.775E-3	-36.3487E-3
-952.976E-6	-94.0109E-12	291.791E-3	4.60056E-3	-91.3958E-12	261.244E-3	-6.74844E-3
-957.979E-6	-93.2563E-12	283.527E-3	-3.33885E-3	-92.1493E-12	236.142E-3	-3.24885E-3
-962.981E-6	-93.4047E-12	296.220E-3	-5.33792E-3	-93.0401E-12	220.098E-3	-11.6438E-3
-967.984E-6	-94.1997E-12	294.798E-3	-9.11868E-3	-93.8102E-12	228.387E-3	-13.5078E-3
-972.986E-6	-95.2685E-12	283.766E-3	-15.3316E-3	-94.1197E-12	251.452E-3	-27.5483E-3
-977.989E-6	-94.3295E-12	285.444E-3	-26.1045E-3	-95.4582E-12	258.023E-3	-25.4771E-3
-982.991E-6	-95.1412E-12	273.997E-3	-41.5198E-3	-96.0838E-12	245.835E-3	-6.08517E-3
-987.994E-6	-95.9846E-12	258.301E-3	-45.3624E-3	-96.8140E-12	232.664E-3	-7.14204E-3
-992.997E-6	-95.3245E-12	252.648E-3	-32.3915E-3	-97.4702E-12	214.027E-3	-27.2890E-3
-997.999E-6	-94.7684E-12	245.366E-3	-15.4998E-3	-96.6434E-12	211.634E-3	-53.0772E-3
-1.00300E-3	-94.7823E-12	223.770E-3	-13.8109E-3	-95.8882E-12	224.862E-3	-59.8528E-3
-1.00800E-3	-94.4936E-12	191.402E-3	-15.5474E-3	-95.6867E-12	220.539E-3	-37.3126E-3
-1.01301E-3	-93.4871E-12	199.626E-3	-7.71621E-3	-96.0450E-12	197.982E-3	-21.2007E-3
-1.01801E-3	-93.7007E-12	230.024E-3	-9.71856E-3	-94.5571E-12	194.939E-3	-22.2887E-3
-1.02301E-3	-93.3184E-12	229.439E-3	-15.7418E-3	-93.9739E-12	204.972E-3	-22.2156E-3
-1.02801E-3	-93.7876E-12	215.551E-3	-21.2558E-3	-94.0573E-12	202.727E-3	-6.30376E-3
-1.03302E-3	-93.3920E-12	204.571E-3	-21.1095E-3	-93.2911E-12	216.428E-3	4.71831E-3
-1.03802E-3	-93.9491E-12	204.311E-3	-17.8357E-3	-92.8132E-12	219.314E-3	-18.4296E-3
-1.04302E-3	-94.4429E-12	197.122E-3	-24.0633E-3	-92.9243E-12	200.677E-3	-45.6528E-3
-1.04802E-3	-95.5902E-12	182.637E-3	-22.9756E-3	-93.3874E-12	212.889E-3	-35.8064E-3
-1.05303E-3	-95.6833E-12	193.359E-3	-23.5543E-3	-92.5473E-12	232.578E-3	-21.4427E-3
-1.05803E-3	-96.4931E-12	201.827E-3	-30.8285E-3	-93.2742E-12	220.463E-3	-22.3163E-3
-1.06303E-3	-97.5062E-12	193.591E-3	-31.2744E-3	-94.5773E-12	213.975E-3	-4.36128E-3
-1.06803E-3	-96.9968E-12	202.508E-3	-31.1024E-3	-95.7445E-12	216.751E-3	-6.87357E-3
-1.07304E-3	-97.3800E-12	217.839E-3	-22.3728E-3	-96.3365E-12	204.938E-3	-35.9474E-3
-1.07804E-3	-97.1537E-12	228.411E-3	-13.1572E-3	-97.0274E-12	213.618E-3	-17.8891E-3
-1.08304E-3	-96.3966E-12	229.997E-3	-11.9988E-3	-98.5720E-12	240.743E-3	10.7369E-3
-1.08804E-3	-96.4639E-12	211.889E-3	-1.06997E-3	-99.0536E-12	230.142E-3	-5.82632E-3
-1.09305E-3	-96.1443E-12	202.891E-3	3.35009E-3	-99.3641E-12	205.531E-3	-19.0552E-3
-1.09805E-3	-95.9339E-12	208.596E-3	-15.7603E-3	-99.2097E-12	208.621E-3	-20.4012E-3
-1.10305E-3	-95.1155E-12	224.354E-3	-28.4393E-3	-98.7677E-12	209.712E-3	-38.4351E-3
-1.10805E-3	-95.1948E-12	247.997E-3	-34.6899E-3	-98.2017E-12	219.212E-3	-33.2215E-3
-1.11306E-3	-94.3521E-12	244.536E-3	-48.0158E-3	-97.0484E-12	262.180E-3	-13.3798E-3
-1.11806E-3	-94.0412E-12	250.049E-3	-48.9566E-3	-95.9606E-12	274.293E-3	-19.6807E-3
-1.12306E-3	-94.5031E-12	274.977E-3	-41.7834E-3	-95.0280E-12	245.681E-3	4.18737E-3
-1.12806E-3	-94.8618E-12	274.179E-3	-34.3945E-3	-95.4432E-12	254.168E-3	34.5700E-3
-1.13307E-3	-95.1439E-12	268.618E-3	-28.5691E-3	-94.1448E-12	280.256E-3	12.4246E-3
-1.13807E-3	-96.1611E-12	268.148E-3	-25.6663E-3	-94.2982E-12	269.374E-3	-13.3458E-3
-1.14307E-3	-96.9512E-12	267.072E-3	-17.5050E-3	-93.9286E-12	269.400E-3	-18.0999E-3
-1.14807E-3	-97.6036E-12	270.307E-3	-12.0786E-3	-94.0276E-12	294.601E-3	-34.6599E-3
-1.15308E-3	-98.0609E-12	279.031E-3	-12.6304E-3	-93.8329E-12	308.053E-3	-54.6290E-3
-1.15808E-3	-98.8966E-12	281.238E-3	-10.2195E-3	-94.8065E-12	316.463E-3	-36.2839E-3
-1.16308E-3	-97.9379E-12	270.405E-3	-17.9557E-3	-95.8529E-12	336.865E-3	385.080E-6
-1.16808E-3	-98.3473E-12	268.914E-3	-28.4508E-3	-95.7456E-12	350.760E-3	24.1104E-3
-1.17309E-3	-98.8383E-12	275.280E-3	-28.9639E-3	-97.9829E-12	339.858E-3	29.3375E-3
-1.17809E-3	-97.5897E-12	291.542E-3	-38.1588E-3	-98.4991E-12	334.834E-3	7.53920E-3
-1.18309E-3	-97.4152E-12	308.910E-3	-44.5496E-3	-99.2718E-12	347.878E-3	-4.67670E-3
-1.18809E-3	-96.9842E-12	308.440E-3	-44.0480E-3	-99.6353E-12	358.914E-3	-4.06920E-3
-1.19310E-3	-96.8312E-12	312.338E-3	-42.4707E-3	-100.176E-12	376.022E-3	-32.2548E-3
-1.19810E-3	-96.6016E-12	338.016E-3	-24.3117E-3	-99.6300E-12	388.396E-3	-61.6721E-3
-1.20310E-3	-96.1332E-12	364.032E-3	-6.97671E-3	-99.9774E-12	377.052E-3	-38.4545E-3
-1.20810E-3	-95.9533E-12	358.117E-3	-23.4081E-3	-99.4402E-12	373.405E-3	5.15815E-3
-1.21311E-3	-96.0362E-12	350.378E-3	-42.9606E-3	-99.2982E-12	387.055E-3	9.76424E-3
-1.21811E-3	-96.9594E-12	362.577E-3	-13.5402E-3	-97.8566E-12	403.426E-3	-3.77009E-3
-1.22311E-3	-97.4824E-12	374.259E-3	22.5400E-3	-96.9522E-12	421.630E-3	-15.4546E-3
-1.22811E-3	-97.9918E-12	388.246E-3	16.0479E-3	-96.8591E-12	415.235E-3	-21.5922E-3
-1.23312E-3	-97.9927E-12	395.360E-3	1.55571E-3	-96.7863E-12	401.687E-3	-11.4799E-3
-1.23812E-3	-99.1513E-12	393.280E-3	-751.935E-6	-96.0150E-12	410.999E-3	-13.9886E-3
-1.24312E-3	-99.3352E-12	401.547E-3	1.86444E-3	-96.0292E-12	414.703E-3	-29.1795E-3
-1.24812E-3	-99.5107E-12	411.142E-3	19.3084E-3	-96.6052E-12	428.219E-3	-28.2903E-3
-1.25313E-3	-99.4161E-12	411.822E-3	33.8841E-3	-96.6143E-12	460.402E-3	-19.2212E-3
-1.25813E-3	-99.6418E-12	430.820E-3	7.25731E-3	-95.9893E-12	462.488E-3	-26.9510E-3
-1.26313E-3	-99.8566E-12	458.745E-3	-49.9990E-3	-97.3425E-12	448.056E-3	-32.6008E-3
-1.26813E-3	-99.0931E-12	467.858E-3	-61.2959E-3	-97.9927E-12	467.886E-3	-9.18630E-3
-1.27314E-3	-99.1510E-12	480.581E-3	-20.2186E-3	-98.5868E-12	501.200E-3	-6.48384E-3
-1.27814E-3	-98.7057E-12	496.897E-3	-11.5110E-3	-99.7475E-12	506.590E-3	-22.6306E-3
-1.28314E-3	-98.5597E-12	508.766E-3	-31.6644E-3	-100.435E-12	496.495E-3	-29.6772E-3
-1.28814E-3	-98.4906E-12	509.843E-3	-15.2591E-3	-101.293E-12	518.216E-3	-40.9456E-3
-1.29315E-3	-98.4667E-12	505.061E-3	9.65336E-3	-102.407E-12	553.117E-3	-52.8329E-3
-1.29815E-3	-98.7264E-12	514.871E-3	-2.29884E-3	-103.593E-12	567.277E-3	-52.0919E-3
-1.30315E-3	-99.6910E-12	528.082E-3	-7.25717E-3	-103.591E-12	572.881E-3	-34.3107E-3
-1.30815E-3	-99.4602E-12	541.661E-3	12.8514E-3	-104.072E-12	562.270E-3	-27.8783E-3
-1.31316E-3	-99.7153E-12	559.704E-3	14.8219E-3	-104.671E-12	564.994E-3	-39.2971E-3
-1.31816E-3	-100.636E-12	569.635E-3	1.79331E-3	-104.349E-12	582.039E-3	-40.6033E-3
-1.32316E-3	-101.651E-12	559.729E-3	9.89444E-3	-104.814E-12	584.902E-3	-29.2989E-3
-1.32816E-3	-101.289E-12	567.631E-3	32.2223E-3	-103.866E-12	580.363E-3	-32.1885E-3
-1.33317E-3	-102.390E-12	608.021E-3	33.5244E-3	-102.957E-12	576.695E-3	-37.7900E-3
-1.33817E-3	-103.359E-12	622.691E-3	5.63309E-3	-102.957E-12	595.753E-3	-15.2810E-3
-1.34317E-3	-102.985E-12	599.847E-3	-25.7222E-3	-102.528E-12	620.982E-3	-7.69891E-3
-1.34817E-3	-103.032E-12	596.833E-3	-31.6202E-3	-102.341E-12	617.488E-3	-24.9685E-3
-1.35318E-3	-102.739E-12	607.083E-3	-12.5777E-3	-101.919E-12	602.527E-3	-8.68753E-3
-1.35818E-3	-102.790E-12	604.584E-3	-2.64417E-3	-101.092E-12	608.032E-3	10.8636E-3
-1.36318E-3	-101.807E-12	623.321E-3	-17.4111E-3	-100.880E-12	637.738E-3	-11.5246E-3
-1.36818E-3	-102.867E-12	635.537E-3	-32.3929E-3	-101.321E-12	668.882E-3	-43.9725E-3
-1.37319E-3	-102.794E-12	630.264E-3	-30.4061E-3	-102.279E-12	674.883E-3	-57.9394E-3
-1.37819E-3	-102.591E-12	640.309E-3	-25.7771E-3	-102.354E-12	655.741E-3	-47.3938E-3
-1.38319E-3	-102.937E-12	653.036E-3	-26.3807E-3	-103.201E-12	663.802E-3	-39.1088E-3
-1.38819E-3	-104.029E-12	668.367E-3	-21.8755E-3	-104.387E-12	706.258E-3	-47.2259E-3
-1.39320E-3	-104.017E-12	664.353E-3	-12.7824E-3	-105.936E-12	728.597E-3	-40.1717E-3
-1.39820E-3	-104.198E-12	657.746E-3	-4.06991E-3	-106.391E-12	744.860E-3	-21.4387E-3
-1.40320E-3	-105.131E-12	671.576E-3	-612.252E-6	-107.295E-12	760.937E-3	-19.4383E-3
-1.40820E-3	-105.447E-12	667.577E-3	-8.83770E-3	-108.022E-12	746.186E-3	-30.6380E-3
-1.41321E-3	-105.667E-12	663.921E-3	-7.22981E-3	-109.451E-12	722.629E-3	-26.9716E-3
-1.41821E-3	-106.191E-12	673.740E-3	5.21361E-3	-109.080E-12	711.998E-3	-6.77534E-3
-1.42321E-3	-105.863E-12	681.638E-3	-8.83185E-3	-108.699E-12	709.303E-3	1.70887E-3
-1.42821E-3	-106.254E-12	688.464E-3	-28.3913E-3	-108.688E-12	707.411E-3	-8.16151E-3
-1.43322E-3	-106.224E-12	689.689E-3	-25.2506E-3	-108.122E-12	716.296E-3	-16.0600E-3
-1.43822E-3	-105.969E-12	709.932E-3	-13.8267E-3	-106.678E-12	724.173E-3	-35.1192E-3
-1.44322E-3	-106.136E-12	741.976E-3	-7.83765E-3	-106.434E-12	727.124E-3	-59.8091E-3
-1.44822E-3	-106.003E-12	746.832E-3	-12.7493E-3	-106.167E-12	744.346E-3	-57.1747E-3
-1.45323E-3	-106.632E-12	736.945E-3	-9.46360E-3	-104.564E-12	738.695E-3	-33.9204E-3
-1.45823E-3	-105.967E-12	743.464E-3	5.93950E-3	-103.872E-12	715.805E-3	-19.8306E-3
-1.46323E-3	-106.520E-12	755.546E-3	-4.93284E-3	-104.043E-12	711.596E-3	-21.3732E-3
-1.46823E-3	-106.890E-12	757.316E-3	-40.4721E-3	-103.974E-12	730.076E-3	-13.0868E-3
-1.47324E-3	-107.948E-12	748.379E-3	-53.9673E-3	-103.778E-12	737.881E-3	-5.09317E-3
-1.47824E-3	-107.754E-12	728.465E-3	-39.2283E-3	-104.311E-12	734.006E-3	-2.18166E-3
-1.48324E-3	-107.992E-12	727.813E-3	-32.0072E-3	-105.750E-12	755.159E-3	3.22830E-3
-1.48824E-3	-109.716E-12	746.254E-3	-31.0925E-3	-106.651E-12	771.889E-3	-6.64957E-3
-1.49325E-3	-110.426E-12	750.186E-3	-24.0985E-3	-107.893E-12	771.925E-3	-28.6971E-3
-1.49825E-3	-109.804E-12	740.916E-3	-18.4655E-3	-109.407E-12	778.796E-3	-28.7922E-3
-1.50325E-3	-110.555E-12	735.346E-3	-12.2900E-3	-110.948E-12	796.440E-3	-13.6614E-3
-1.50825E-3	-111.132E-12	739.854E-3	1.98560E-3	-112.371E-12	792.017E-3	-13.5834E-3
-1.51326E-3	-110.908E-12	761.389E-3	21.7302E-3	-113.265E-12	767.186E-3	-16.7485E-3
-1.51826E-3	-111.021E-12	781.458E-3	23.4463E-3	-113.929E-12	773.144E-3	-33.2538E-3
-1.52326E-3	-111.397E-12	771.522E-3	9.43740E-3	-114.443E-12	787.064E-3	-43.4044E-3
-1.52826E-3	-110.456E-12	754.738E-3	-2.89325E-3	-113.896E-12	784.701E-3	-23.8021E-3
-1.53327E-3	-110.554E-12	749.229E-3	14.3339E-3	-113.480E-12	791.936E-3	-9.46890E-3
-1.53827E-3	-110.528E-12	750.643E-3	45.2567E-3	-112.976E-12	779.054E-3	-19.0636E-3
-1.54327E-3	-110.276E-12	747.575E-3	28.5024E-3	-112.917E-12	744.620E-3	-31.6329E-3
-1.54827E-3	-109.771E-12	750.470E-3	-8.08993E-3	-111.462E-12	731.986E-3	-39.1716E-3
-1.55328E-3	-111.073E-12	755.016E-3	-4.46302E-3	-110.142E-12	744.727E-3	-39.9940E-3
-1.55828E-3	-110.936E-12	733.973E-3	11.7092E-3	-110.308E-12	747.440E-3	-23.4627E-3
-1.56328E-3	-111.129E-12	725.892E-3	5.18570E-3	-109.518E-12	718.395E-3	-7.85127E-3
-1.56828E-3	-111.794E-12	732.854E-3	6.21920E-3	-108.641E-12	696.037E-3	-6.63378E-3
-1.57329E-3	-113.672E-12	750.872E-3	12.3743E-3	-108.974E-12	712.998E-3	-11.0463E-3
-1.57829E-3	-113.565E-12	764.839E-3	-2.38495E-3	-110.323E-12	745.292E-3	-11.5021E-3
-1.58329E-3	-113.881E-12	743.880E-3	-24.4138E-3	-110.116E-12	738.757E-3	-10.3998E-3
-1.58829E-3	-115.880E-12	730.353E-3	-36.7922E-3	-111.206E-12	720.417E-3	-10.4480E-3
-1.59330E-3	-115.792E-12	745.849E-3	-28.8799E-3	-112.405E-12	734.885E-3	-15.6281E-3
-1.59830E-3	-115.826E-12	775.002E-3	-12.4013E-3	-113.705E-12	755.038E-3	-32.2425E-3
-1.60330E-3	-116.139E-12	785.071E-3	-13.5159E-3	-115.525E-12	782.115E-3	-28.1895E-3
-1.60830E-3	-115.754E-12	770.769E-3	-15.8551E-3	-117.346E-12	797.078E-3	-2.62685E-3
-1.61331E-3	-115.261E-12	761.799E-3	5.09498E-3	-118.221E-12	775.880E-3	3.65726E-3
-1.61831E-3	-115.254E-12	752.015E-3	11.8144E-3	-119.604E-12	750.084E-3	-1.29012E-3
-1.62331E-3	-116.005E-12	737.249E-3	-8.48993E-3	-120.093E-12	743.533E-3	-3.65309E-3
-1.62831E-3	-115.142E-12	735.032E-3	-26.2137E-3	-120.070E-12	768.594E-3	-7.13784E-3
-1.63332E-3	-114.955E-12	737.077E-3	-24.1565E-3	-120.284E-12	789.025E-3	3.65612E-3
-1.63832E-3	-115.679E-12	738.671E-3	-6.11304E-3	-120.691E-12	777.882E-3	8.84819E-3
-1.64332E-3	-114.516E-12	751.065E-3	-10.3180E-3	-118.649E-12	750.700E-3	-14.2739E-3
-1.64832E-3	-115.209E-12	762.990E-3	-28.7069E-3	-117.999E-12	745.001E-3	-45.0930E-3
-1.65333E-3	-115.736E-12	765.747E-3	-29.6426E-3	-117.583E-12	769.186E-3	-59.9558E-3
-1.65833E-3	-115.744E-12	749.554E-3	-18.0297E-3	-116.740E-12	761.992E-3	-28.9873E-3
-1.66333E-3	-117.438E-12	731.834E-3	-7.68367E-3	-115.442E-12	730.463E-3	13.8651E-3
-1.66833E-3	-118.386E-12	746.243E-3	-17.8866E-3	-116.140E-12	732.086E-3	10.1139E-3
-1.67334E-3	-118.387E-12	767.713E-3	-36.5204E-3	-115.874E-12	759.874E-3	-18.7984E-3
-1.67834E-3	-118.852E-12	764.072E-3	-33.3070E-3	-115.707E-12	769.233E-3	-40.2442E-3
-1.68334E-3	-121.583E-12	753.877E-3	-23.2409E-3	-117.040E-12	761.498E-3	-52.5671E-3
-1.68834E-3	-119.824E-12	763.359E-3	-21.1582E-3	-117.326E-12	754.511E-3	-43.6452E-3
-1.69335E-3	-121.405E-12	761.024E-3	-15.2622E-3	-118.553E-12	765.242E-3	-10.1190E-3
-1.69835E-3	-120.795E-12	750.591E-3	-12.4885E-3	-118.958E-12	799.334E-3	19.4611E-3
-1.70335E-3	-121.767E-12	751.767E-3	-20.3737E-3	-121.148E-12	806.820E-3	14.8158E-3
-1.70835E-3	-120.391E-12	741.416E-3	-31.4166E-3	-120.823E-12	781.190E-3	-21.5824E-3
-1.71336E-3	-120.475E-12	737.885E-3	-38.8090E-3	-122.875E-12	768.656E-3	-41.6908E-3
-1.71836E-3	-120.540E-12	733.366E-3	-16.7175E-3	-124.541E-12	768.062E-3	-41.5799E-3
-1.72336E-3	-119.456E-12	713.760E-3	10.7748E-3	-125.169E-12	765.124E-3	-42.4337E-3
-1.72836E-3	-119.441E-12	704.177E-3	8.62968E-3	-125.202E-12	748.412E-3	-28.1197E-3
-1.73337E-3	-119.025E-12	712.368E-3	460.929E-6	-125.955E-12	722.026E-3	-17.0558E-3
-1.73837E-3	-120.464E-12	718.784E-3	2.89593E-3	-125.875E-12	713.107E-3	-14.4260E-3
-1.74337E-3	-120.281E-12	709.915E-3	2.38578E-3	-124.062E-12	713.208E-3	-13.8920E-3
-1.74837E-3	-120.934E-12	713.474E-3	-6.93549E-3	-124.096E-12	704.462E-3	-20.5674E-3
-1.75338E-3	-121.557E-12	714.866E-3	-14.1513E-3	-123.067E-12	696.701E-3	-18.0179E-3
-1.75838E-3	-122.342E-12	699.771E-3	-20.1836E-3	-122.455E-12	703.229E-3	-23.0895E-3
-1.76338E-3	-122.459E-12	701.840E-3	-36.4047E-3	-120.821E-12	708.659E-3	-32.3922E-3
-1.76838E-3	-123.248E-12	713.815E-3	-26.6971E-3	-119.966E-12	697.600E-3	-2.59465E-3
-1.77339E-3	-124.660E-12	718.902E-3	-6.46305E-3	-121.023E-12	692.367E-3	19.2024E-3
-1.77839E-3	-124.290E-12	730.689E-3	-17.3783E-3	-119.869E-12	691.777E-3	2.29040E-3
-1.78339E-3	-125.124E-12	736.803E-3	-17.4640E-3	-119.059E-12	676.003E-3	-15.0748E-3
-1.78839E-3	-124.838E-12	725.644E-3	-3.01188E-3	-119.919E-12	679.795E-3	-5.72042E-3
-1.79340E-3	-124.902E-12	732.320E-3	4.11591E-3	-120.662E-12	694.625E-3	19.1442E-3
-1.79840E-3	-125.856E-12	745.565E-3	8.92678E-3	-120.574E-12	692.317E-3	23.2509E-3
-1.80340E-3	-124.963E-12	746.514E-3	3.98759E-3	-121.748E-12	715.970E-3	19.7225E-3
-1.80840E-3	-125.702E-12	754.079E-3	2.35460E-3	-122.639E-12	764.091E-3	24.6647E-3
-1.81341E-3	-125.618E-12	749.909E-3	2.58229E-3	-124.293E-12	772.574E-3	19.2508E-3
-1.81841E-3	-125.943E-12	745.264E-3	-10.0602E-3	-125.934E-12	748.809E-3	15.0315E-3
-1.82341E-3	-125.493E-12	738.517E-3	-6.09810E-3	-127.293E-12	728.843E-3	2.43034E-3
-1.82841E-3	-125.125E-12	712.072E-3	17.7555E-3	-127.890E-12	714.769E-3	-19.0142E-3
-1.83342E-3	-126.250E-12	707.686E-3	2.60743E-3	-129.795E-12	717.252E-3	-29.5410E-3
-1.83842E-3	-126.229E-12	727.153E-3	-38.7541E-3	-129.413E-12	748.298E-3	-30.5605E-3
-1.84342E-3	-125.807E-12	742.336E-3	-56.3796E-3	-128.865E-12	775.807E-3	-27.1974E-3
-1.84842E-3	-126.381E-12	729.239E-3	-59.4230E-3	-129.489E-12	766.840E-3	-29.5607E-3
-1.85343E-3	-127.606E-12	700.705E-3	-43.4121E-3	-128.635E-12	748.772E-3	-29.9043E-3
-1.85843E-3	-127.056E-12	696.307E-3	-27.8845E-3	-127.611E-12	730.861E-3	-27.8446E-3
-1.86343E-3	-127.674E-12	691.133E-3	-39.0977E-3	-127.230E-12	724.429E-3	-20.1475E-3
-1.86843E-3	-127.809E-12	681.700E-3	-46.6975E-3	-127.064E-12	718.646E-3	-27.6468E-3
-1.87344E-3	-127.699E-12	710.179E-3	-25.7742E-3	-126.053E-12	691.146E-3	-38.4640E-3
-1.87844E-3	-128.787E-12	740.298E-3	2.53301E-3	-125.220E-12	676.406E-3	-25.1951E-3
-1.88344E-3	-128.413E-12	741.229E-3	15.2019E-3	-125.040E-12	694.261E-3	-25.7409E-3
-1.88844E-3	-127.441E-12	719.076E-3	17.6029E-3	-125.041E-12	716.474E-3	-33.5680E-3
-1.89345E-3	-128.120E-12	684.286E-3	17.6570E-3	-124.630E-12	718.945E-3	-38.7761E-3
-1.89845E-3	-128.130E-12	687.208E-3	11.5229E-3	-124.905E-12	729.867E-3	-48.3257E-3
-1.90345E-3	-129.044E-12	710.752E-3	-3.33787E-3	-126.461E-12	739.781E-3	-49.5567E-3
-1.90845E-3	-130.323E-12	717.084E-3	-13.9954E-3	-127.889E-12	732.776E-3	-33.3686E-3
-1.91346E-3	-130.613E-12	713.848E-3	-13.4527E-3	-128.749E-12	735.367E-3	-24.8132E-3
-1.91846E-3	-130.387E-12	709.702E-3	-12.1266E-3	-129.980E-12	738.365E-3	-17.3292E-3
-1.92346E-3	-131.380E-12	708.952E-3	-16.2703E-3	-132.198E-12	742.280E-3	7.02467E-3
-1.92846E-3	-131.269E-12	713.747E-3	-23.5518E-3	-133.742E-12	744.131E-3	-2.49472E-3
-1.93347E-3	-130.998E-12	728.511E-3	-14.5861E-3	-134.979E-12	748.294E-3	-36.2768E-3
-1.93847E-3	-130.940E-12	738.528E-3	3.24860E-3	-135.703E-12	761.535E-3	-31.3218E-3
-1.94347E-3	-131.436E-12	744.069E-3	3.26300E-3	-137.149E-12	753.349E-3	9.39067E-3
-1.94847E-3	-131.894E-12	737.394E-3	-3.17530E-3	-136.994E-12	730.102E-3	39.3998E-3
-1.95348E-3	-131.949E-12	712.079E-3	1.88585E-3	-137.376E-12	699.732E-3	32.6468E-3
-1.95848E-3	-131.394E-12	693.089E-3	1.27927E-3	-135.617E-12	684.445E-3	14.4367E-3
-1.96348E-3	-130.659E-12	696.853E-3	-2.11024E-3	-136.285E-12	700.276E-3	-9.94380E-3
-1.96848E-3	-131.481E-12	692.150E-3	-1.40063E-3	-135.359E-12	713.646E-3	-32.6129E-3
-1.97349E-3	-131.314E-12	667.581E-3	-538.985E-6	-132.807E-12	712.680E-3	-25.2224E-3
-1.97849E-3	-131.049E-12	683.656E-3	29.0651E-3	-132.714E-12	712.936E-3	-20.0406E-3
-1.98349E-3	-130.731E-12	717.615E-3	55.6280E-3	-131.056E-12	727.149E-3	-28.1257E-3
-1.98849E-3	-131.066E-12	716.710E-3	31.9046E-3	-130.630E-12	729.280E-3	-29.8130E-3
-1.99350E-3	-131.558E-12	701.639E-3	3.50137E-3	-130.156E-12	714.871E-3	-34.1457E-3
-1.99850E-3	-132.446E-12	678.840E-3	-5.17191E-3	-131.331E-12	731.813E-3	-32.8794E-3
-2.00350E-3	-133.028E-12	677.720E-3	-12.9045E-3	-130.309E-12	732.977E-3	-3.01073E-3
-2.00850E-3	-133.931E-12	700.033E-3	-14.0855E-3	-130.720E-12	695.081E-3	15.3095E-3
-2.01351E-3	-133.724E-12	685.324E-3	-29.2506E-3	-133.148E-12	701.994E-3	-15.2123E-3
-2.01851E-3	-134.989E-12	662.412E-3	-61.8568E-3	-133.114E-12	755.486E-3	-32.9214E-3
-2.02351E-3	-136.231E-12	673.834E-3	-59.2575E-3	-134.912E-12	779.300E-3	6.53015E-3
-2.02851E-3	-136.589E-12	691.830E-3	-23.1807E-3	-135.894E-12	753.217E-3	43.8630E-3
-2.03352E-3	-137.152E-12	715.814E-3	-20.7751E-3	-138.531E-12	728.646E-3	27.2249E-3
-2.03852E-3	-137.328E-12	755.956E-3	-27.2029E-3	-138.921E-12	731.002E-3	-18.3109E-3
-2.04352E-3	-136.913E-12	778.701E-3	-2.32805E-3	-140.048E-12	744.126E-3	-36.9794E-3
-2.04852E-3	-137.322E-12	749.788E-3	6.83636E-3	-141.200E-12	747.916E-3	-26.9561E-3
-2.05353E-3	-137.967E-12	707.535E-3	7.85745E-3	-141.833E-12	758.011E-3	-22.1695E-3
-2.05853E-3	-136.376E-12	670.425E-3	14.7823E-3	-140.451E-12	767.107E-3	-23.9461E-3
-2.06353E-3	-137.157E-12	640.858E-3	-1.22920E-3	-140.567E-12	747.945E-3	-26.1261E-3
-2.06853E-3	-136.585E-12	647.146E-3	-21.2187E-3	-139.001E-12	726.538E-3	-36.6172E-3
-2.07354E-3	-136.155E-12	650.014E-3	-21.5818E-3	-137.107E-12	705.709E-3	-50.1422E-3
-2.07854E-3	-136.245E-12	655.841E-3	-16.2796E-3	-137.768E-12	699.336E-3	-37.3711E-3
-2.08354E-3	-136.849E-12	687.884E-3	-3.85035E-3	-136.764E-12	703.984E-3	-9.34879E-3
-2.08854E-3	-136.266E-12	679.907E-3	7.05539E-3	-135.464E-12	664.485E-3	-9.03892E-3
-2.09355E-3	-137.073E-12	665.507E-3	744.053E-6	-133.964E-12	647.576E-3	-6.57727E-3
-2.09855E-3	-138.011E-12	694.794E-3	-18.7283E-3	-135.267E-12	687.022E-3	13.1624E-3
-2.10355E-3	-138.818E-12	692.368E-3	-21.2953E-3	-134.680E-12	698.902E-3	-7.01903E-3
-2.10855E-3	-138.906E-12	663.161E-3	5.10851E-3	-135.298E-12	677.484E-3	-31.5730E-3
-2.11356E-3	-139.865E-12	681.628E-3	9.27522E-3	-135.600E-12	680.141E-3	-27.0045E-3
-2.11856E-3	-140.554E-12	698.285E-3	504.133E-6	-136.808E-12	704.119E-3	-33.6114E-3
-2.12356E-3	-140.933E-12	672.546E-3	-896.703E-6	-137.550E-12	699.861E-3	-37.1774E-3
-2.12856E-3	-141.326E-12	682.013E-3	-16.2191E-3	-138.776E-12	696.205E-3	-6.19412E-3
-2.13357E-3	-142.029E-12	728.240E-3	-38.1539E-3	-141.115E-12	701.228E-3	25.4948E-3
-2.13857E-3	-141.937E-12	744.119E-3	-38.7900E-3	-141.555E-12	681.463E-3	9.60266E-3
-2.14357E-3	-141.980E-12	715.480E-3	-19.1902E-3	-143.111E-12	687.244E-3	-31.6773E-3
-2.14857E-3	-140.348E-12	681.632E-3	-13.1245E-3	-144.640E-12	721.727E-3	-47.1619E-3
-2.15358E-3	-140.267E-12	672.512E-3	-22.0802E-3	-144.698E-12	732.542E-3	-30.9394E-3
-2.15858E-3	-140.395E-12	675.714E-3	-21.5151E-3	-146.078E-12	729.420E-3	-18.5146E-3
-2.16358E-3	-139.851E-12	680.512E-3	2.70806E-3	-146.006E-12	708.416E-3	-21.3186E-3
-2.16858E-3	-140.422E-12	670.770E-3	25.8220E-3	-144.465E-12	684.995E-3	-18.8527E-3
-2.17359E-3	-139.998E-12	672.669E-3	5.16023E-3	-144.942E-12	695.192E-3	-17.0536E-3
-2.17859E-3	-140.592E-12	697.729E-3	-28.4251E-3	-143.258E-12	708.358E-3	-18.8685E-3
-2.18359E-3	-140.613E-12	708.275E-3	-27.3126E-3	-142.577E-12	707.272E-3	6.30659E-3
-2.18859E-3	-141.980E-12	702.077E-3	-14.7406E-3	-141.925E-12	709.137E-3	30.5394E-3
-2.19360E-3	-141.411E-12	696.178E-3	4.37852E-3	-141.591E-12	710.665E-3	4.19285E-3
-2.19860E-3	-143.750E-12	695.853E-3	26.7332E-3	-140.288E-12	705.898E-3	-28.1507E-3
-2.20360E-3	-145.314E-12	689.854E-3	19.1522E-3	-139.744E-12	702.206E-3	-27.1029E-3
-2.20860E-3	-145.274E-12	680.655E-3	13.1786E-3	-139.338E-12	703.956E-3	-13.9328E-3
-2.21361E-3	-145.830E-12	673.413E-3	29.1999E-3	-140.245E-12	708.218E-3	-16.7628E-3
-2.21861E-3	-146.614E-12	679.705E-3	34.0072E-3	-140.461E-12	694.498E-3	-29.2824E-3
-2.22361E-3	-147.647E-12	699.748E-3	30.6218E-3	-141.141E-12	678.138E-3	-27.7391E-3
-2.22861E-3	-147.076E-12	713.170E-3	10.8877E-3	-142.035E-12	685.116E-3	-21.0446E-3
-2.23362E-3	-146.757E-12	714.789E-3	-29.8325E-3	-143.411E-12	697.931E-3	-6.25279E-3
-2.23862E-3	-146.497E-12	701.357E-3	-35.5141E-3	-145.622E-12	707.114E-3	10.7710E-3
-2.24362E-3	-145.679E-12	678.008E-3	-303.999E-6	-146.504E-12	714.028E-3	13.5411E-3
-2.24862E-3	-146.240E-12	669.338E-3	15.1245E-3	-148.486E-12	731.322E-3	-4.59378E-3
-2.25363E-3	-144.720E-12	682.035E-3	24.0104E-3	-150.785E-12	755.297E-3	-26.2590E-3
-2.25863E-3	-144.083E-12	688.947E-3	35.8427E-3	-151.064E-12	760.574E-3	-9.10885E-3
-2.26363E-3	-144.937E-12	681.243E-3	21.1305E-3	-151.903E-12	755.054E-3	12.3999E-3
-2.26863E-3	-144.982E-12	668.854E-3	-2.35208E-3	-152.071E-12	751.188E-3	401.376E-6
-2.27364E-3	-144.807E-12	650.393E-3	-25.2450E-3	-153.061E-12	746.893E-3	-20.5947E-3
-2.27864E-3	-145.861E-12	645.128E-3	-32.0703E-3	-151.903E-12	739.272E-3	-36.3030E-3
-2.28364E-3	-146.314E-12	655.021E-3	-14.9938E-3	-151.094E-12	734.455E-3	-41.1829E-3
-2.28864E-3	-146.926E-12	666.377E-3	679.033E-6	-149.171E-12	733.600E-3	-30.2866E-3
-2.29365E-3	-147.309E-12	680.685E-3	-6.11585E-3	-149.974E-12	720.985E-3	-15.3143E-3
-2.29865E-3	-148.455E-12	696.755E-3	-24.4653E-3	-147.842E-12	715.457E-3	-15.3412E-3
-2.30365E-3	-148.519E-12	709.903E-3	-37.8932E-3	-146.993E-12	705.452E-3	-30.0839E-3
-2.30865E-3	-149.019E-12	719.786E-3	-61.3916E-3	-146.685E-12	683.411E-3	-38.3831E-3
-2.31366E-3	-149.267E-12	728.489E-3	-65.2014E-3	-145.447E-12	669.452E-3	-14.3664E-3
-2.31866E-3	-149.838E-12	702.842E-3	-21.9696E-3	-144.582E-12	652.508E-3	13.6671E-3
-2.32366E-3	-149.488E-12	649.744E-3	-10.2933E-3	-145.604E-12	648.269E-3	-7.92465E-3
-2.32866E-3	-149.250E-12	630.143E-3	-29.8043E-3	-145.752E-12	662.824E-3	-37.9644E-3
-2.33367E-3	-148.625E-12	643.269E-3	-36.8516E-3	-145.729E-12	675.453E-3	-23.0228E-3
-2.33867E-3	-148.974E-12	660.379E-3	-39.5245E-3	-148.083E-12	685.047E-3	8.08930E-3
-2.34367E-3	-149.312E-12	691.634E-3	-26.8765E-3	-149.051E-12	701.293E-3	16.8828E-3
-2.34867E-3	-148.610E-12	719.195E-3	-8.40236E-3	-150.609E-12	724.644E-3	17.1784E-3
-2.35368E-3	-149.763E-12	705.600E-3	7.15417E-3	-152.640E-12	735.346E-3	16.5175E-3
-2.35868E-3	-150.773E-12	692.241E-3	1.46177E-3	-154.268E-12	738.944E-3	6.06356E-3
-2.36368E-3	-150.768E-12	703.474E-3	-24.8034E-3	-155.103E-12	734.899E-3	-14.1640E-3
-2.36868E-3	-150.135E-12	716.807E-3	-26.4573E-3	-156.267E-12	703.707E-3	-34.8808E-3
-2.37369E-3	-151.290E-12	735.994E-3	-5.05423E-3	-156.580E-12	692.214E-3	-37.1091E-3
-2.37869E-3	-151.856E-12	741.016E-3	5.07103E-3	-155.943E-12	705.769E-3	-38.3684E-3
-2.38369E-3	-152.268E-12	724.508E-3	-3.71683E-3	-154.858E-12	694.442E-3	-35.9674E-3
-2.38869E-3	-152.422E-12	711.296E-3	-18.7417E-3	-154.642E-12	685.647E-3	-32.9316E-3
-2.39370E-3	-152.074E-12	695.775E-3	-26.4633E-3	-152.761E-12	695.777E-3	-36.6759E-3
-2.39870E-3	-152.923E-12	676.449E-3	-30.6672E-3	-151.401E-12	687.752E-3	-12.7732E-3
-2.40370E-3	-151.772E-12	697.542E-3	-26.8560E-3	-151.250E-12	675.628E-3	-5.73575E-3
-2.40870E-3	-151.672E-12	717.767E-3	-23.1582E-3	-150.384E-12	663.461E-3	-20.8709E-3
-2.41371E-3	-152.223E-12	687.848E-3	-27.1541E-3	-148.995E-12	643.747E-3	-4.43676E-3
-2.41871E-3	-152.421E-12	671.287E-3	-21.5316E-3	-149.386E-12	636.123E-3	6.01766E-3
-2.42371E-3	-152.680E-12	659.710E-3	-25.6519E-3	-149.288E-12	628.951E-3	-8.41813E-3
-2.42871E-3	-153.392E-12	640.196E-3	-20.1021E-3	-149.494E-12	635.127E-3	-28.1134E-3
-2.43372E-3	-154.044E-12	649.619E-3	-12.4735E-3	-150.661E-12	675.376E-3	-18.8454E-3
-2.43872E-3	-153.678E-12	678.916E-3	-14.5180E-3	-151.327E-12	692.929E-3	1.08840E-3
-2.44372E-3	-154.613E-12	695.647E-3	-2.23927E-3	-153.741E-12	685.485E-3	-11.0125E-3
-2.44872E-3	-155.751E-12	708.602E-3	-2.32519E-3	-154.888E-12	690.376E-3	-27.8287E-3
-2.45373E-3	-156.905E-12	729.167E-3	-5.51675E-3	-156.680E-12	693.104E-3	-47.4166E-3
-2.45873E-3	-156.919E-12	723.537E-3	-23.6999E-3	-155.975E-12	709.543E-3	-43.5905E-3
-2.46373E-3	-157.319E-12	703.386E-3	-49.8304E-3	-157.976E-12	748.492E-3	-5.50810E-3
-2.46873E-3	-158.948E-12	678.878E-3	-60.2947E-3	-157.963E-12	758.307E-3	8.55868E-3
-2.47374E-3	-158.501E-12	642.165E-3	-73.3976E-3	-159.047E-12	702.730E-3	-28.0032E-3
-2.47874E-3	-158.097E-12	645.427E-3	-71.5694E-3	-158.090E-12	660.040E-3	-71.6878E-3
-2.48374E-3	-158.694E-12	681.028E-3	-37.3628E-3	-158.435E-12	665.978E-3	-69.3782E-3
-2.48874E-3	-158.670E-12	667.301E-3	-18.2633E-3	-157.638E-12	671.390E-3	-19.8351E-3
-2.49375E-3	-157.225E-12	639.846E-3	-39.3528E-3	-157.028E-12	708.716E-3	28.3886E-3
-2.49875E-3	-156.290E-12	671.061E-3	-41.2954E-3	-157.149E-12	732.417E-3	21.9523E-3
-2.50375E-3	-156.417E-12	703.630E-3	-14.2316E-3	-157.163E-12	705.288E-3	-18.2117E-3
-2.50875E-3	-155.566E-12	681.989E-3	-9.21294E-3	-156.828E-12	713.147E-3	-35.0616E-3
-2.51376E-3	-155.953E-12	675.451E-3	-17.3110E-3	-155.910E-12	731.046E-3	-34.8436E-3
-2.51876E-3	-157.021E-12	690.638E-3	-15.5836E-3	-156.823E-12	714.568E-3	-36.7850E-3
-2.52376E-3	-157.528E-12	672.928E-3	-21.3141E-3	-155.836E-12	703.841E-3	-15.0191E-3
-2.52876E-3	-156.888E-12	669.384E-3	-44.1138E-3	-157.305E-12	700.133E-3	-6.30854E-3
-2.53377E-3	-158.541E-12	682.565E-3	-56.0104E-3	-157.077E-12	669.882E-3	-41.8882E-3
-2.53877E-3	-159.769E-12	693.042E-3	-42.3717E-3	-158.344E-12	667.465E-3	-51.6845E-3
-2.54377E-3	-161.083E-12	710.087E-3	-24.4217E-3	-158.212E-12	701.174E-3	-19.0475E-3
-2.54877E-3	-160.996E-12	714.897E-3	-18.8320E-3	-159.461E-12	693.755E-3	-2.13764E-3
-2.55378E-3	-161.832E-12	715.304E-3	-38.0795E-3	-160.822E-12	680.137E-3	-5.23390E-3
-2.55878E-3	-162.463E-12	728.038E-3	-48.2304E-3	-160.912E-12	701.079E-3	-5.12359E-3
-2.56378E-3	-162.987E-12	729.106E-3	-24.0695E-3	-161.793E-12	720.046E-3	-9.67546E-3
-2.56878E-3	-162.617E-12	710.826E-3	-2.34469E-3	-162.044E-12	713.190E-3	-16.1995E-3
-2.57379E-3	-161.904E-12	689.329E-3	8.48261E-3	-163.662E-12	699.697E-3	-8.63498E-3
-2.57879E-3	-161.693E-12	660.930E-3	8.53124E-3	-163.218E-12	700.491E-3	-6.72706E-3
-2.58379E-3	-160.048E-12	648.093E-3	4.37447E-3	-164.613E-12	705.067E-3	-22.5663E-3
-2.58879E-3	-159.626E-12	666.091E-3	12.1756E-3	-164.321E-12	703.089E-3	-28.0803E-3
-2.59380E-3	-159.086E-12	696.158E-3	-1.16128E-3	-164.338E-12	699.000E-3	-34.8348E-3
-2.59880E-3	-158.716E-12	696.016E-3	-35.9120E-3	-163.704E-12	687.233E-3	-33.0063E-3
-2.60380E-3	-157.880E-12	669.769E-3	-39.9463E-3	-164.664E-12	678.334E-3	-9.82741E-3
-2.60880E-3	-157.761E-12	668.191E-3	-16.3514E-3	-163.579E-12	679.410E-3	-4.85377E-3
-2.61381E-3	-158.621E-12	681.076E-3	-14.8132E-3	-163.023E-12	691.265E-3	-10.2397E-3
-2.61881E-3	-160.408E-12	680.948E-3	-29.8854E-3	-162.913E-12	710.030E-3	-14.4671E-3
-2.62381E-3	-161.068E-12	678.502E-3	-45.1344E-3	-164.158E-12	712.244E-3	-26.5250E-3
-2.62881E-3	-162.279E-12	683.952E-3	-44.7119E-3	-162.060E-12	703.831E-3	-29.2737E-3
-2.63382E-3	-164.333E-12	692.887E-3	-12.8586E-3	-161.453E-12	706.083E-3	-10.0523E-3
-2.63882E-3	-165.198E-12	703.123E-3	-2.50374E-3	-163.701E-12	720.101E-3	-7.12520E-3
-2.64382E-3	-166.409E-12	714.689E-3	-17.1933E-3	-162.380E-12	731.968E-3	-19.0224E-3
-2.64882E-3	-167.722E-12	720.373E-3	-22.5059E-3	-163.296E-12	733.883E-3	-17.4709E-3
-2.65383E-3	-166.716E-12	711.612E-3	-11.9621E-3	-163.515E-12	737.417E-3	-13.5588E-3
-2.65883E-3	-166.850E-12	693.002E-3	-5.27801E-3	-163.798E-12	728.325E-3	-3.81754E-3
-2.66383E-3	-167.136E-12	677.902E-3	2.02940E-3	-163.290E-12	709.066E-3	10.4027E-3
-2.66883E-3	-166.822E-12	664.120E-3	20.3498E-3	-165.986E-12	723.186E-3	-4.13770E-3
-2.67384E-3	-166.108E-12	678.433E-3	16.2304E-3	-167.109E-12	744.836E-3	-12.8629E-3
-2.67884E-3	-165.284E-12	711.003E-3	4.69586E-3	-167.978E-12	722.768E-3	23.3251E-3
-2.68384E-3	-165.636E-12	718.558E-3	-5.02578E-3	-169.712E-12	704.344E-3	18.0502E-3
-2.68884E-3	-164.013E-12	704.356E-3	-21.0133E-3	-170.330E-12	711.511E-3	-24.1574E-3
-2.69385E-3	-163.083E-12	707.218E-3	-15.2877E-3	-171.839E-12	711.498E-3	-15.8405E-3
-2.69885E-3	-163.815E-12	729.108E-3	4.40656E-3	-171.102E-12	699.904E-3	21.7447E-3
-2.70385E-3	-165.297E-12	701.749E-3	196.097E-6	-171.400E-12	683.151E-3	28.6181E-3
-2.70885E-3	-164.930E-12	660.805E-3	-16.4647E-3	-170.785E-12	687.874E-3	-6.21086E-3
-2.71386E-3	-165.492E-12	667.358E-3	-3.04225E-3	-171.204E-12	689.548E-3	-45.9559E-3
-2.71886E-3	-166.959E-12	676.255E-3	10.4712E-3	-169.437E-12	666.836E-3	-37.5186E-3
-2.72386E-3	-167.547E-12	673.744E-3	-11.9415E-3	-168.580E-12	688.797E-3	7.24437E-3
-2.72886E-3	-167.758E-12	687.947E-3	-24.5447E-3	-167.961E-12	721.926E-3	24.2292E-3
-2.73387E-3	-168.564E-12	709.604E-3	-35.6432E-3	-167.071E-12	688.410E-3	14.7005E-3
-2.73887E-3	-170.030E-12	729.511E-3	-49.2149E-3	-166.128E-12	665.716E-3	-9.46999E-3
-2.74387E-3	-170.218E-12	719.318E-3	-14.0222E-3	-164.979E-12	701.774E-3	-42.2283E-3
-2.74887E-3	-170.009E-12	681.368E-3	11.8107E-3	-165.277E-12	716.504E-3	-52.7118E-3
-2.75388E-3	-169.901E-12	684.128E-3	2.91644E-3	-164.965E-12	689.272E-3	-41.7316E-3
-2.75888E-3	-169.962E-12	710.915E-3	-3.78632E-3	-167.138E-12	675.315E-3	-29.2990E-3
-2.76388E-3	-169.794E-12	709.589E-3	-29.5376E-3	-166.313E-12	675.164E-3	-42.8509E-3
-2.76888E-3	-169.179E-12	702.860E-3	-37.3007E-3	-167.762E-12	689.683E-3	-55.3071E-3
-2.77389E-3	-168.608E-12	706.180E-3	-24.6183E-3	-169.033E-12	734.225E-3	-36.2502E-3
-2.77889E-3	-169.747E-12	702.718E-3	-37.6088E-3	-170.370E-12	758.805E-3	-22.2182E-3
-2.78389E-3	-168.782E-12	694.960E-3	-49.2484E-3	-171.563E-12	729.798E-3	-18.6634E-3
-2.78889E-3	-168.691E-12	684.322E-3	-44.2458E-3	-173.485E-12	714.566E-3	-15.3409E-3
-2.79390E-3	-169.927E-12	669.034E-3	-42.9998E-3	-174.972E-12	728.328E-3	-14.3126E-3
-2.79890E-3	-170.324E-12	681.890E-3	-53.6754E-3	-174.995E-12	725.609E-3	-10.8069E-3
-2.80390E-3	-169.561E-12	714.979E-3	-38.7482E-3	-176.078E-12	730.215E-3	-19.4963E-3
-2.80890E-3	-170.940E-12	717.750E-3	-5.22060E-3	-175.616E-12	747.742E-3	-8.80791E-3
-2.81391E-3	-171.888E-12	696.203E-3	-7.11033E-3	-176.046E-12	747.541E-3	16.5753E-3
-2.81891E-3	-171.761E-12	697.413E-3	-28.4329E-3	-174.440E-12	734.323E-3	-8.71641E-3
-2.82391E-3	-171.383E-12	717.149E-3	-49.6964E-3	-172.844E-12	725.073E-3	-62.9765E-3
-2.82891E-3	-171.891E-12	729.256E-3	-55.9492E-3	-171.698E-12	733.214E-3	-71.8552E-3
-2.83392E-3	-172.665E-12	716.393E-3	-32.7343E-3	-170.748E-12	735.945E-3	-22.4653E-3
-2.83892E-3	-172.008E-12	687.225E-3	-6.65520E-3	-171.271E-12	712.423E-3	18.7537E-3
-2.84392E-3	-172.232E-12	681.283E-3	-11.9371E-3	-169.794E-12	683.701E-3	20.5542E-3
-2.84892E-3	-172.301E-12	689.116E-3	-38.7637E-3	-168.904E-12	670.740E-3	14.8209E-3
-2.85393E-3	-172.203E-12	676.704E-3	-43.6857E-3	-170.500E-12	674.896E-3	-16.6289E-3
-2.85893E-3	-173.533E-12	664.585E-3	-51.3719E-3	-171.346E-12	676.550E-3	-44.8686E-3
-2.86393E-3	-172.842E-12	679.305E-3	-55.8153E-3	-171.049E-12	677.826E-3	-34.9528E-3
-2.86893E-3	-172.677E-12	711.223E-3	2.27686E-3	-172.541E-12	689.463E-3	-29.5114E-3
-2.87394E-3	-174.313E-12	736.475E-3	68.6597E-3	-174.216E-12	707.163E-3	-29.9811E-3
-2.87894E-3	-175.054E-12	750.606E-3	50.6804E-3	-175.513E-12	731.007E-3	-18.1731E-3
-2.88394E-3	-174.947E-12	753.856E-3	17.4114E-3	-175.596E-12	749.549E-3	-395.098E-6
-2.88894E-3	-176.432E-12	724.819E-3	11.9672E-3	-177.544E-12	740.625E-3	5.45670E-3
-2.89395E-3	-178.526E-12	699.874E-3	-1.42125E-3	-178.379E-12	729.259E-3	-9.65837E-3
-2.89895E-3	-176.930E-12	700.361E-3	-7.16418E-3	-179.714E-12	727.009E-3	-38.4337E-3
-2.90395E-3	-177.397E-12	699.622E-3	-12.5310E-3	-178.669E-12	721.314E-3	-37.8383E-3
-2.90895E-3	-178.563E-12	693.070E-3	-16.1392E-3	-179.624E-12	717.920E-3	-19.7736E-3
-2.91396E-3	-177.836E-12	696.843E-3	-21.5607E-3	-178.472E-12	706.810E-3	-7.36285E-3
-2.91896E-3	-176.505E-12	709.445E-3	-47.2332E-3	-177.657E-12	701.593E-3	23.0150E-3
-2.92396E-3	-176.114E-12	716.447E-3	-62.7781E-3	-177.303E-12	720.453E-3	20.0353E-3
-2.92896E-3	-175.348E-12	728.767E-3	-31.5308E-3	-177.351E-12	724.353E-3	-23.9684E-3
-2.93397E-3	-174.417E-12	718.168E-3	9.18831E-3	-177.119E-12	702.333E-3	-32.2545E-3
-2.93897E-3	-174.838E-12	690.297E-3	2.53848E-3	-176.390E-12	686.934E-3	-20.8148E-3
-2.94397E-3	-174.395E-12	692.115E-3	-31.7820E-3	-176.112E-12	689.337E-3	-46.7452E-3
-2.94897E-3	-175.734E-12	716.056E-3	-25.0930E-3	-177.521E-12	706.595E-3	-50.0697E-3
-2.95398E-3	-175.698E-12	732.125E-3	9.36540E-3	-177.901E-12	718.772E-3	-3.82819E-3
-2.95898E-3	-177.507E-12	723.453E-3	19.8432E-3	-176.516E-12	718.908E-3	15.3579E-3
-2.96398E-3	-177.682E-12	707.454E-3	29.0732E-3	-177.655E-12	702.882E-3	-2.23295E-3
-2.96898E-3	-179.080E-12	706.967E-3	26.0964E-3	-178.130E-12	693.839E-3	-15.7509E-3
-2.97399E-3	-180.699E-12	706.904E-3	-7.08895E-3	-178.790E-12	716.557E-3	-22.4789E-3
-2.97899E-3	-181.306E-12	708.877E-3	-18.9905E-3	-178.076E-12	714.880E-3	-30.0930E-3
-2.98399E-3	-181.605E-12	702.378E-3	-19.8908E-3	-179.876E-12	692.604E-3	-4.21063E-3
-2.98899E-3	-183.133E-12	687.273E-3	-29.5684E-3	-179.550E-12	694.760E-3	25.9701E-3
-2.99400E-3	-183.780E-12	716.616E-3	-14.7082E-3	-180.422E-12	687.353E-3	25.9364E-3
-2.99900E-3	-183.131E-12	749.275E-3	2.31479E-3	-180.888E-12	674.007E-3	10.0065E-3
-3.00400E-3	-182.703E-12	735.809E-3	12.6762E-3	-181.796E-12	685.363E-3	-3.45872E-3
-3.00900E-3	-182.159E-12	718.379E-3	7.17045E-3	-182.035E-12	707.391E-3	5.43511E-3
-3.01401E-3	-180.913E-12	711.078E-3	-8.22456E-3	-183.487E-12	726.172E-3	8.91388E-3
-3.01901E-3	-180.566E-12	697.058E-3	7.13943E-3	-184.560E-12	728.034E-3	-5.87728E-3
-3.02401E-3	-179.841E-12	668.720E-3	29.9854E-3	-184.136E-12	702.693E-3	-21.5639E-3
-3.02901E-3	-179.657E-12	650.509E-3	20.0969E-3	-184.265E-12	677.381E-3	-9.46791E-3
-3.03402E-3	-179.048E-12	675.340E-3	-5.49462E-3	-184.297E-12	685.598E-3	2.93365E-3
-3.03902E-3	-179.287E-12	708.303E-3	-28.6943E-3	-185.223E-12	703.861E-3	-1.29054E-3
-3.04402E-3	-179.793E-12	715.569E-3	-37.0529E-3	-184.318E-12	692.048E-3	3.98890E-3
-3.04902E-3	-180.822E-12	725.821E-3	631.488E-6	-183.576E-12	685.171E-3	-32.5289E-3
-3.05403E-3	-182.254E-12	726.909E-3	30.3660E-3	-182.793E-12	706.232E-3	-61.5193E-3
-3.05903E-3	-183.259E-12	712.198E-3	2.91810E-3	-181.389E-12	696.713E-3	-34.4797E-3
-3.06403E-3	-184.234E-12	708.015E-3	-25.4443E-3	-181.928E-12	670.896E-3	-22.9893E-3
-3.06903E-3	-186.386E-12	693.645E-3	-32.7906E-3	-180.782E-12	675.738E-3	-27.4600E-3
-3.07404E-3	-186.911E-12	698.630E-3	-45.7579E-3	-180.599E-12	676.062E-3	-30.5561E-3
-3.07904E-3	-187.407E-12	730.002E-3	-58.8214E-3	-180.310E-12	676.596E-3	-33.5780E-3
-3.08404E-3	-188.633E-12	733.298E-3	-53.4784E-3	-180.676E-12	701.716E-3	-28.2607E-3
-3.08904E-3	-188.689E-12	707.546E-3	-51.6731E-3	-181.349E-12	718.207E-3	-20.3942E-3
-3.09405E-3	-187.667E-12	710.251E-3	-50.9643E-3	-182.126E-12	717.740E-3	-662.579E-6
-3.09905E-3	-186.793E-12	739.381E-3	-16.3049E-3	-182.297E-12	714.299E-3	21.0428E-3
-3.10405E-3	-186.632E-12	725.479E-3	743.496E-6	-183.553E-12	709.128E-3	24.8048E-3
-3.10905E-3	-185.574E-12	691.762E-3	-31.8312E-3	-186.174E-12	709.144E-3	3.84984E-3
-3.11406E-3	-184.514E-12	672.937E-3	-29.5632E-3	-186.949E-12	722.007E-3	-28.3142E-3
-3.11906E-3	-182.394E-12	659.042E-3	-13.3541E-3	-188.773E-12	719.545E-3	-30.1995E-3
-3.12406E-3	-182.625E-12	662.237E-3	-32.3041E-3	-189.540E-12	708.704E-3	-7.66021E-3
-3.12906E-3	-182.938E-12	674.688E-3	-41.6145E-3	-191.704E-12	715.072E-3	-3.39535E-3
-3.13407E-3	-182.333E-12	686.286E-3	-46.4054E-3	-190.679E-12	723.705E-3	-17.6626E-3
-3.13907E-3	-182.799E-12	704.941E-3	-38.7425E-3	-190.641E-12	742.845E-3	-28.2597E-3
-3.14407E-3	-184.377E-12	720.585E-3	-16.4472E-3	-189.784E-12	739.961E-3	-28.8903E-3
-3.14907E-3	-185.255E-12	719.945E-3	-19.4286E-3	-190.601E-12	691.155E-3	-20.5764E-3
-3.15408E-3	-186.541E-12	700.997E-3	-39.0528E-3	-187.591E-12	664.239E-3	-1.92576E-3
-3.15908E-3	-187.469E-12	675.984E-3	-23.1341E-3	-186.615E-12	677.801E-3	-3.91049E-3
-3.16408E-3	-188.616E-12	674.742E-3	8.27162E-3	-186.812E-12	683.276E-3	-29.3296E-3
-3.16908E-3	-190.018E-12	704.820E-3	-5.46749E-3	-185.085E-12	684.413E-3	-21.9271E-3
-3.17409E-3	-189.549E-12	724.911E-3	-18.9421E-3	-183.804E-12	695.115E-3	-5.86802E-3
-3.17909E-3	-190.568E-12	705.439E-3	-14.9830E-3	-184.076E-12	728.425E-3	-3.20361E-3
-3.18409E-3	-191.414E-12	676.629E-3	-22.7922E-3	-185.293E-12	760.142E-3	347.325E-6
-3.18909E-3	-191.042E-12	690.131E-3	-27.4134E-3	-183.838E-12	736.097E-3	5.04534E-3
-3.19410E-3	-189.476E-12	716.991E-3	-36.8603E-3	-185.347E-12	686.927E-3	12.0613E-3
-3.19910E-3	-190.638E-12	715.503E-3	-50.1479E-3	-187.347E-12	679.582E-3	-15.4350E-3
-3.20410E-3	-192.156E-12	717.849E-3	-32.8799E-3	-189.274E-12	720.755E-3	-54.9200E-3
-3.20910E-3	-189.888E-12	736.971E-3	-3.49666E-3	-190.351E-12	725.349E-3	-50.0063E-3
-3.21411E-3	-187.759E-12	738.746E-3	-3.04945E-3	-191.574E-12	694.000E-3	-60.2035E-3
-3.21911E-3	-189.519E-12	735.500E-3	-31.0652E-3	-193.600E-12	719.772E-3	-82.3996E-3
-3.22411E-3	-189.251E-12	720.757E-3	-68.0728E-3	-194.565E-12	729.751E-3	-49.2617E-3
-3.22911E-3	-188.307E-12	695.317E-3	-65.6385E-3	-193.478E-12	703.001E-3	-26.3644E-3
-3.23412E-3	-189.086E-12	719.352E-3	-43.9373E-3	-193.337E-12	698.483E-3	-36.8648E-3
-3.23912E-3	-190.306E-12	737.624E-3	-36.4120E-3	-193.978E-12	673.687E-3	-21.4000E-3
-3.24412E-3	-190.464E-12	719.686E-3	-38.7770E-3	-193.921E-12	666.964E-3	-10.2377E-3
-3.24912E-3	-190.309E-12	731.295E-3	-47.8613E-3	-191.884E-12	677.791E-3	-32.1795E-3
-3.25413E-3	-192.098E-12	743.130E-3	-37.3972E-3	-192.054E-12	643.864E-3	-48.9355E-3
-3.25913E-3	-191.331E-12	717.535E-3	-7.26580E-3	-192.770E-12	611.304E-3	-51.3324E-3
-3.26413E-3	-191.657E-12	701.268E-3	26.3075E-3	-192.097E-12	641.867E-3	-57.1579E-3
-3.26913E-3	-192.334E-12	698.575E-3	29.7168E-3	-191.170E-12	692.885E-3	-44.1210E-3
-3.27414E-3	-191.896E-12	701.907E-3	5.36163E-3	-192.408E-12	696.397E-3	-35.1593E-3
-3.27914E-3	-191.993E-12	711.786E-3	-13.2398E-3	-191.664E-12	702.454E-3	-45.1902E-3
-3.28414E-3	-192.783E-12	690.742E-3	-12.0625E-3	-192.058E-12	719.055E-3	-44.0034E-3
-3.28914E-3	-194.082E-12	671.925E-3	1.39589E-3	-193.305E-12	691.468E-3	-52.9542E-3
-3.29415E-3	-193.299E-12	671.624E-3	-14.3578E-3	-194.225E-12	671.804E-3	-48.7840E-3
-3.29915E-3	-194.155E-12	672.168E-3	-40.2968E-3	-193.890E-12	698.508E-3	-27.5277E-3
-3.30415E-3	-194.907E-12	688.714E-3	-19.0619E-3	-194.984E-12	703.983E-3	-2.49903E-3
-3.30915E-3	-195.431E-12	692.012E-3	5.08455E-3	-196.098E-12	672.251E-3	19.7751E-3
-3.31416E-3	-195.545E-12	668.839E-3	10.4670E-3	-196.524E-12	661.456E-3	573.938E-6
-3.31916E-3	-196.747E-12	636.164E-3	15.9489E-3	-197.541E-12	679.730E-3	-18.7971E-3
-3.32416E-3	-197.347E-12	646.397E-3	12.6590E-3	-196.021E-12	681.008E-3	-19.0782E-3
-3.32916E-3	-196.018E-12	680.366E-3	14.7750E-3	-197.576E-12	666.906E-3	-26.6910E-3
-3.33417E-3	-197.637E-12	651.566E-3	10.1202E-3	-198.297E-12	693.235E-3	-37.1352E-3
-3.33917E-3	-198.950E-12	624.986E-3	11.9844E-3	-196.858E-12	727.705E-3	-36.0419E-3
-3.34417E-3	-198.933E-12	643.113E-3	36.9172E-3	-196.408E-12	719.690E-3	-17.0373E-3
-3.34917E-3	-198.145E-12	652.715E-3	19.6963E-3	-198.454E-12	697.996E-3	-16.2273E-3
-3.35418E-3	-197.455E-12	666.696E-3	-40.0538E-3	-197.542E-12	683.746E-3	-38.8032E-3
-3.35918E-3	-197.763E-12	674.169E-3	-53.9366E-3	-196.551E-12	684.278E-3	-35.2238E-3
-3.36418E-3	-196.560E-12	644.341E-3	-35.3249E-3	-197.702E-12	708.591E-3	-26.8540E-3
-3.36918E-3	-197.015E-12	653.749E-3	-21.2987E-3	-197.547E-12	705.938E-3	-31.3979E-3
-3.37419E-3	-196.079E-12	703.777E-3	-2.57610E-3	-197.922E-12	672.234E-3	-27.4816E-3
-3.37919E-3	-197.955E-12	703.609E-3	179.094E-6	-199.073E-12	683.447E-3	-32.4017E-3
-3.38419E-3	-197.504E-12	696.408E-3	-4.34468E-3	-198.659E-12	722.726E-3	-38.9975E-3
-3.38919E-3	-197.654E-12	727.154E-3	-19.3850E-3	-198.512E-12	738.001E-3	-44.6419E-3
-3.39420E-3	-199.195E-12	719.924E-3	-45.7780E-3	-199.687E-12	708.576E-3	-44.0031E-3
-3.39920E-3	-200.163E-12	672.857E-3	-55.4726E-3	-199.695E-12	656.746E-3	-31.5120E-3
-3.40420E-3	-200.605E-12	656.374E-3	-55.9013E-3	-198.340E-12	652.053E-3	-39.0951E-3
-3.40920E-3	-200.353E-12	646.879E-3	-46.4407E-3	-199.032E-12	714.264E-3	-55.2947E-3
-3.41421E-3	-203.546E-12	642.289E-3	-29.9311E-3	-200.845E-12	771.356E-3	-59.9685E-3
-3.41921E-3	-203.316E-12	666.850E-3	-18.2721E-3	-198.895E-12	755.028E-3	-60.8299E-3
-3.42421E-3	-203.540E-12	695.465E-3	5.38092E-3	-198.298E-12	692.112E-3	-48.8710E-3
-3.42921E-3	-203.687E-12	718.247E-3	19.5575E-3	-200.475E-12	648.607E-3	-28.1495E-3
-3.43422E-3	-203.843E-12	730.893E-3	16.8470E-3	-200.067E-12	637.697E-3	-42.7361E-3
-3.43922E-3	-203.496E-12	745.525E-3	9.00184E-3	-199.131E-12	649.871E-3	-58.9869E-3
-3.44422E-3	-201.687E-12	744.335E-3	-3.85815E-3	-201.198E-12	689.968E-3	-22.8620E-3
-3.44922E-3	-201.146E-12	724.548E-3	9.73745E-3	-201.516E-12	700.298E-3	-4.89648E-3
-3.45423E-3	-200.877E-12	714.914E-3	16.8149E-3	-200.453E-12	689.174E-3	-10.3910E-3
-3.45923E-3	-198.730E-12	697.606E-3	-7.57197E-3	-200.535E-12	725.818E-3	-3.31594E-3
-3.46423E-3	-199.486E-12	689.369E-3	-26.3892E-3	-202.610E-12	748.437E-3	-20.0184E-3
-3.46923E-3	-198.641E-12	688.332E-3	-31.2547E-3	-202.559E-12	720.684E-3	-56.0922E-3
-3.47424E-3	-200.005E-12	662.206E-3	-29.1942E-3	-201.689E-12	686.600E-3	-67.6199E-3
-3.47924E-3	-199.878E-12	651.825E-3	-30.4689E-3	-202.348E-12	663.536E-3	-47.5769E-3
-3.48424E-3	-200.736E-12	661.295E-3	-19.8037E-3	-201.964E-12	649.800E-3	-20.9888E-3
-3.48924E-3	-202.299E-12	658.404E-3	12.8300E-3	-202.226E-12	662.412E-3	-5.33049E-3
-3.49425E-3	-203.960E-12	677.500E-3	19.2075E-3	-202.023E-12	701.611E-3	-20.5598E-3
-3.49925E-3	-204.495E-12	704.701E-3	-3.82537E-3	-202.533E-12	728.538E-3	-50.3141E-3
-3.50425E-3	-205.490E-12	711.912E-3	-28.2716E-3	-202.505E-12	719.186E-3	-40.2544E-3
-3.50925E-3	-207.185E-12	701.543E-3	-39.8777E-3	-202.326E-12	684.892E-3	-32.7781E-3
-3.51426E-3	-206.729E-12	693.193E-3	-32.6319E-3	-204.489E-12	673.183E-3	-60.1534E-3
-3.51926E-3	-206.733E-12	693.572E-3	-9.64901E-3	-203.727E-12	711.651E-3	-51.3344E-3
-3.52426E-3	-206.072E-12	668.539E-3	24.3400E-3	-203.567E-12	728.828E-3	-44.4948E-3
-3.52926E-3	-204.777E-12	654.360E-3	20.8461E-3	-204.528E-12	679.899E-3	-67.1341E-3
-3.53427E-3	-204.588E-12	679.043E-3	-13.6097E-3	-206.077E-12	661.623E-3	-42.3657E-3
-3.53927E-3	-203.390E-12	697.792E-3	-47.3741E-3	-206.232E-12	702.105E-3	13.6533E-3
-3.54427E-3	-203.982E-12	696.362E-3	-54.0576E-3	-206.902E-12	727.392E-3	23.6525E-3
-3.54927E-3	-202.380E-12	700.709E-3	-7.65216E-3	-207.742E-12	718.353E-3	-3.13634E-3
-3.55428E-3	-201.821E-12	708.325E-3	25.7179E-3	-208.109E-12	702.586E-3	-25.2820E-3
-3.55928E-3	-201.041E-12	697.410E-3	32.0680E-3	-208.246E-12	699.669E-3	-44.8436E-3
-3.56428E-3	-202.804E-12	663.654E-3	50.1347E-3	-208.174E-12	689.273E-3	-63.7500E-3
-3.56928E-3	-202.493E-12	646.061E-3	41.0916E-3	-207.472E-12	675.858E-3	-58.5434E-3
-3.57429E-3	-202.929E-12	664.469E-3	2.53297E-3	-206.931E-12	692.556E-3	-24.2813E-3
-3.57929E-3	-205.736E-12	687.616E-3	-23.7431E-3	-206.852E-12	692.162E-3	-6.50593E-3
-3.58429E-3	-206.700E-12	691.383E-3	-26.8703E-3	-207.184E-12	650.415E-3	-29.5316E-3
-3.58929E-3	-208.271E-12	683.060E-3	-44.1515E-3	-205.484E-12	632.107E-3	-61.3472E-3
-3.59430E-3	-208.825E-12	674.913E-3	-83.8117E-3	-205.787E-12	659.339E-3	-55.5940E-3
-3.59930E-3	-209.706E-12	698.263E-3	-51.4183E-3	-204.497E-12	676.561E-3	-20.5545E-3
-3.60430E-3	-210.294E-12	737.115E-3	19.4585E-3	-205.958E-12	641.491E-3	-460.650E-6
-3.60930E-3	-210.062E-12	751.947E-3	-13.3161E-3	-204.964E-12	630.020E-3	-10.1970E-3
-3.61431E-3	-210.566E-12	750.987E-3	-73.0849E-3	-207.048E-12	670.662E-3	-48.0072E-3
-3.61931E-3	-211.116E-12	708.419E-3	-52.9182E-3	-206.464E-12	681.673E-3	-76.3265E-3
-3.62431E-3	-210.551E-12	662.835E-3	-38.2882E-3	-208.986E-12	682.569E-3	-67.0314E-3
-3.62931E-3	-208.718E-12	677.492E-3	-38.6241E-3	-208.564E-12	679.247E-3	-42.4844E-3
-3.63432E-3	-208.841E-12	709.185E-3	-20.4621E-3	-208.969E-12	650.518E-3	-4.72734E-3
-3.63932E-3	-210.151E-12	705.830E-3	-43.7416E-3	-212.443E-12	653.257E-3	10.0935E-3
-3.64432E-3	-209.263E-12	666.358E-3	-48.7301E-3	-211.465E-12	698.257E-3	-26.9346E-3
-3.64932E-3	-209.829E-12	639.974E-3	6.50339E-3	-211.771E-12	718.183E-3	-52.8214E-3
-3.65433E-3	-210.083E-12	657.904E-3	27.5201E-3	-212.023E-12	709.240E-3	-49.5065E-3
-3.65933E-3	-209.808E-12	687.557E-3	-280.830E-6	-213.684E-12	708.282E-3	-42.6127E-3
-3.66433E-3	-210.491E-12	701.612E-3	-31.7450E-3	-211.452E-12	711.457E-3	-28.5842E-3
-3.66933E-3	-211.843E-12	711.839E-3	-55.6089E-3	-210.476E-12	706.974E-3	-6.24998E-3
-3.67434E-3	-212.922E-12	718.771E-3	-73.9531E-3	-210.652E-12	691.349E-3	14.4621E-3
-3.67934E-3	-212.640E-12	698.907E-3	-60.9685E-3	-210.839E-12	689.433E-3	15.5329E-3
-3.68434E-3	-213.662E-12	644.340E-3	-30.8324E-3	-209.853E-12	698.402E-3	5.57949E-3
-3.68934E-3	-214.985E-12	609.188E-3	-16.1939E-3	-209.780E-12	685.980E-3	-15.0362E-3
-3.69435E-3	-214.855E-12	615.657E-3	-8.44414E-3	-210.505E-12	658.068E-3	-43.4432E-3
-3.69935E-3	-215.427E-12	640.504E-3	-16.9996E-3	-210.789E-12	643.650E-3	-44.5156E-3
-3.70435E-3	-215.107E-12	681.458E-3	-36.8476E-3	-213.139E-12	655.214E-3	-22.1550E-3
-3.70935E-3	-214.956E-12	705.662E-3	-42.8777E-3	-211.557E-12	669.138E-3	-10.9772E-3
-3.71436E-3	-213.294E-12	700.014E-3	-27.2542E-3	-212.892E-12	692.774E-3	-19.7049E-3
-3.71936E-3	-213.818E-12	698.691E-3	-13.2653E-3	-214.878E-12	726.295E-3	-6.26113E-3
-3.72436E-3	-213.765E-12	722.741E-3	-12.1948E-3	-216.069E-12	731.940E-3	291.416E-6
-3.72936E-3	-213.393E-12	729.202E-3	-9.50363E-3	-215.953E-12	727.376E-3	-27.6377E-3
-3.73437E-3	-212.947E-12	706.368E-3	-7.65317E-3	-218.084E-12	744.831E-3	-24.3176E-3
-3.73937E-3	-214.892E-12	733.676E-3	13.1806E-3	-219.463E-12	748.763E-3	-14.9541E-3
-3.74437E-3	-214.527E-12	751.094E-3	14.9647E-3	-217.742E-12	722.684E-3	-23.2652E-3
-3.74937E-3	-215.132E-12	691.458E-3	-15.5127E-3	-219.211E-12	718.942E-3	-9.69439E-3
-3.75438E-3	-215.337E-12	684.037E-3	-33.6850E-3	-217.325E-12	727.638E-3	1.71008E-3
-3.75938E-3	-215.585E-12	730.462E-3	-16.2573E-3	-216.921E-12	701.004E-3	2.81906E-3
-3.76438E-3	-217.553E-12	737.433E-3	14.3836E-3	-216.744E-12	688.383E-3	540.841E-6
-3.76938E-3	-217.409E-12	724.394E-3	-470.625E-6	-216.433E-12	690.818E-3	-32.1059E-3
-3.77439E-3	-218.269E-12	695.817E-3	-10.1295E-3	-214.424E-12	654.014E-3	-52.5643E-3
-3.77939E-3	-217.384E-12	658.386E-3	-4.41791E-3	-214.622E-12	623.724E-3	-16.5656E-3
-3.78439E-3	-217.939E-12	646.700E-3	-24.1327E-3	-213.804E-12	641.658E-3	35.0129E-3
-3.78939E-3	-217.109E-12	657.595E-3	-18.4844E-3	-213.398E-12	655.419E-3	47.5391E-3
-3.79440E-3	-216.360E-12	658.969E-3	-9.92419E-3	-215.260E-12	658.550E-3	4.05444E-3
-3.79940E-3	-216.470E-12	646.690E-3	-10.3327E-3	-215.090E-12	679.556E-3	-28.5020E-3
-3.80440E-3	-216.640E-12	660.819E-3	20.2171E-3	-214.785E-12	702.812E-3	-17.5328E-3
-3.80940E-3	-216.309E-12	682.048E-3	27.5368E-3	-217.070E-12	711.070E-3	-20.6596E-3
-3.81441E-3	-215.900E-12	681.903E-3	-6.06839E-3	-218.453E-12	701.334E-3	-27.2285E-3
-3.81941E-3	-217.156E-12	699.086E-3	-28.3331E-3	-216.983E-12	700.974E-3	-27.5098E-3
-3.82441E-3	-217.328E-12	700.225E-3	-31.2864E-3	-218.185E-12	703.666E-3	-25.7520E-3
-3.82941E-3	-217.143E-12	690.865E-3	-17.8321E-3	-220.080E-12	725.848E-3	-17.5780E-3
-3.83442E-3	-219.368E-12	705.725E-3	13.9254E-3	-220.234E-12	734.724E-3	-45.9688E-3
-3.83942E-3	-219.234E-12	736.145E-3	41.1665E-3	-222.031E-12	713.937E-3	-86.9568E-3
-3.84442E-3	-218.709E-12	776.995E-3	39.4102E-3	-220.321E-12	705.843E-3	-94.4782E-3
-3.84942E-3	-219.928E-12	760.101E-3	34.4559E-3	-220.262E-12	668.990E-3	-69.8411E-3
-3.85443E-3	-220.576E-12	700.119E-3	35.5996E-3	-221.434E-12	661.708E-3	-18.6524E-3
-3.85943E-3	-220.097E-12	667.549E-3	16.2332E-3	-220.423E-12	719.141E-3	44.3108E-3
-3.86443E-3	-221.042E-12	665.195E-3	4.18728E-3	-219.173E-12	752.846E-3	75.6328E-3
-3.86943E-3	-220.540E-12	667.165E-3	-25.7383E-3	-219.992E-12	739.798E-3	58.4314E-3
-3.87444E-3	-219.816E-12	654.441E-3	-45.1863E-3	-221.308E-12	686.731E-3	8.78868E-3
-3.87944E-3	-219.977E-12	645.589E-3	12.7724E-3	-220.342E-12	643.935E-3	-27.5537E-3
-3.88444E-3	-219.465E-12	643.295E-3	41.9465E-3	-221.951E-12	646.396E-3	-6.61626E-3
-3.88944E-3	-217.942E-12	643.319E-3	1.19249E-3	-221.483E-12	653.260E-3	2.96238E-3
-3.89445E-3	-219.011E-12	640.837E-3	-4.27946E-3	-221.340E-12	660.198E-3	-43.6987E-3
-3.89945E-3	-219.684E-12	637.202E-3	21.8967E-3	-222.772E-12	676.591E-3	-74.8977E-3
-3.90445E-3	-220.236E-12	644.288E-3	2.13956E-3	-223.477E-12	666.250E-3	-41.8577E-3
-3.90945E-3	-221.497E-12	668.743E-3	-41.9206E-3	-223.581E-12	661.496E-3	-386.065E-6
-3.91446E-3	-223.094E-12	696.224E-3	-84.8493E-3	-223.796E-12	701.998E-3	-19.5047E-3
-3.91946E-3	-224.285E-12	695.588E-3	-81.1128E-3	-223.169E-12	727.625E-3	-56.3377E-3
-3.92446E-3	-226.442E-12	695.838E-3	-28.1824E-3	-222.102E-12	719.808E-3	-48.1199E-3
-3.92946E-3	-226.604E-12	709.165E-3	-10.9429E-3	-223.211E-12	692.300E-3	-5.69130E-3
-3.93447E-3	-227.628E-12	716.441E-3	-20.5303E-3	-223.336E-12	691.646E-3	28.0220E-3
-3.93947E-3	-228.124E-12	701.678E-3	-31.8471E-3	-222.823E-12	705.588E-3	2.93054E-3
-3.94447E-3	-228.824E-12	678.963E-3	-44.6552E-3	-221.232E-12	661.415E-3	-53.1258E-3
-3.94947E-3	-229.170E-12	713.487E-3	-55.5132E-3	-223.473E-12	657.336E-3	-39.6820E-3
-3.95448E-3	-226.805E-12	758.134E-3	-47.0426E-3	-223.625E-12	734.774E-3	10.5435E-3
-3.95948E-3	-226.193E-12	727.786E-3	18.0588E-3	-224.220E-12	757.987E-3	6.23900E-3
-3.96448E-3	-226.508E-12	711.373E-3	23.7129E-3	-223.685E-12	711.663E-3	-5.04507E-3
-3.96948E-3	-226.140E-12	738.501E-3	-29.8057E-3	-225.930E-12	675.553E-3	-2.32911E-3
-3.97449E-3	-224.539E-12	703.270E-3	-14.9328E-3	-225.563E-12	651.715E-3	-10.1637E-3
-3.97949E-3	-223.810E-12	665.598E-3	7.44471E-3	-227.605E-12	634.196E-3	2.71618E-3
-3.98449E-3	-223.399E-12	704.642E-3	12.8628E-3	-227.135E-12	665.791E-3	6.84020E-3
-3.98949E-3	-223.975E-12	737.637E-3	13.4953E-3	-227.624E-12	716.481E-3	-14.7106E-3
-3.99450E-3	-224.509E-12	716.126E-3	-6.56645E-3	-228.712E-12	720.668E-3	-7.35272E-3
-3.99950E-3	-225.214E-12	699.248E-3	-30.9203E-3	-228.514E-12	704.416E-3	3.95736E-3
-4.00450E-3	-225.938E-12	715.529E-3	-40.9050E-3	-227.350E-12	686.274E-3	-9.50639E-3
-4.00950E-3	-228.052E-12	732.247E-3	-25.4885E-3	-228.505E-12	679.652E-3	-12.7447E-3
-4.01451E-3	-229.510E-12	741.333E-3	4.79813E-3	-225.714E-12	710.836E-3	-7.04397E-3
-4.01951E-3	-230.408E-12	730.419E-3	3.00991E-3	-226.656E-12	721.545E-3	-6.44831E-3
-4.02451E-3	-231.963E-12	710.664E-3	-28.4381E-3	-227.213E-12	701.465E-3	9.38761E-3
-4.02951E-3	-231.773E-12	706.530E-3	-25.5767E-3	-226.048E-12	715.717E-3	6.78360E-3
-4.03452E-3	-232.203E-12	699.012E-3	-19.7648E-3	-225.852E-12	718.979E-3	-23.2825E-3
-4.03952E-3	-232.660E-12	699.235E-3	-27.3068E-3	-226.152E-12	696.766E-3	-43.3858E-3
-4.04452E-3	-232.810E-12	722.450E-3	-4.26960E-3	-228.371E-12	687.410E-3	-69.0874E-3
-4.04952E-3	-232.015E-12	738.057E-3	10.7344E-3	-227.597E-12	676.935E-3	-66.0588E-3
-4.05453E-3	-230.064E-12	693.088E-3	9.18700E-3	-229.755E-12	689.491E-3	-22.3765E-3
-4.05953E-3	-230.066E-12	637.274E-3	8.96544E-3	-229.723E-12	716.617E-3	-10.5269E-3
-4.06453E-3	-228.682E-12	641.278E-3	13.8830E-3	-232.430E-12	710.304E-3	-26.7168E-3
-4.06953E-3	-228.914E-12	694.163E-3	20.5413E-3	-232.378E-12	678.810E-3	-7.14295E-3
-4.07454E-3	-227.395E-12	746.042E-3	-11.7109E-3	-231.798E-12	668.075E-3	26.3099E-3
-4.07954E-3	-226.548E-12	714.717E-3	-59.8370E-3	-232.043E-12	676.793E-3	17.5270E-3
-4.08454E-3	-226.862E-12	656.373E-3	-55.7032E-3	-233.027E-12	689.797E-3	220.039E-6
-4.08954E-3	-228.670E-12	662.111E-3	-36.3668E-3	-233.952E-12	708.606E-3	12.9718E-3
-4.09455E-3	-228.811E-12	698.227E-3	-44.3353E-3	-231.292E-12	685.006E-3	41.0335E-3
-4.09955E-3	-229.277E-12	711.885E-3	-51.1488E-3	-231.276E-12	615.779E-3	65.2999E-3
-4.10455E-3	-230.768E-12	687.653E-3	-55.9144E-3	-229.507E-12	598.379E-3	39.4517E-3
-4.10955E-3	-231.619E-12	661.931E-3	-62.5302E-3	-228.117E-12	647.076E-3	2.16796E-3
-4.11456E-3	-234.150E-12	677.159E-3	-54.9512E-3	-228.147E-12	684.587E-3	320.887E-6
-4.11956E-3	-234.162E-12	710.610E-3	-31.0919E-3	-228.066E-12	685.113E-3	-15.1968E-3
-4.12456E-3	-233.446E-12	716.144E-3	-19.6797E-3	-228.843E-12	667.291E-3	-42.9776E-3
-4.12956E-3	-234.103E-12	714.483E-3	-37.8700E-3	-229.283E-12	667.608E-3	-41.9394E-3
-4.13457E-3	-235.216E-12	722.963E-3	-55.9038E-3	-230.267E-12	691.755E-3	-16.7602E-3
-4.13957E-3	-231.324E-12	709.636E-3	-38.4142E-3	-231.790E-12	682.872E-3	-6.77672E-3
-4.14457E-3	-232.624E-12	703.139E-3	6.57917E-3	-233.728E-12	665.402E-3	-4.43581E-3
-4.14957E-3	-232.985E-12	714.204E-3	27.4540E-3	-234.105E-12	696.837E-3	4.77207E-3
-4.15458E-3	-230.175E-12	688.828E-3	-13.2800E-3	-236.142E-12	745.870E-3	-18.1131E-3
-4.15958E-3	-230.388E-12	656.762E-3	-74.5920E-3	-237.691E-12	752.082E-3	-32.0397E-3
-4.16458E-3	-230.922E-12	675.478E-3	-91.2506E-3	-238.743E-12	709.025E-3	8.41473E-3
-4.16958E-3	-229.976E-12	715.735E-3	-44.3911E-3	-238.070E-12	665.111E-3	18.6880E-3
-4.17459E-3	-229.404E-12	719.679E-3	-6.47232E-3	-238.711E-12	666.772E-3	-25.5618E-3
-4.17959E-3	-232.243E-12	683.670E-3	-1.82073E-3	-238.641E-12	697.477E-3	-46.3947E-3
-4.18459E-3	-232.495E-12	653.172E-3	16.9035E-3	-237.115E-12	703.029E-3	-31.5607E-3
-4.18959E-3	-232.164E-12	670.951E-3	17.2356E-3	-236.644E-12	719.287E-3	-31.6547E-3
-4.19460E-3	-232.886E-12	691.106E-3	15.7767E-3	-235.696E-12	723.736E-3	-27.6013E-3
-4.19960E-3	-234.367E-12	676.701E-3	27.1012E-3	-234.840E-12	673.321E-3	5.53670E-3
-4.20460E-3	-236.264E-12	694.201E-3	27.7537E-3	-233.239E-12	628.951E-3	17.9474E-3
-4.20960E-3	-236.786E-12	720.864E-3	44.7916E-3	-232.223E-12	624.969E-3	-12.7770E-3
-4.21461E-3	-236.942E-12	706.258E-3	55.0110E-3	-232.885E-12	654.604E-3	-16.6038E-3
-4.21961E-3	-239.281E-12	681.828E-3	40.6022E-3	-232.033E-12	665.360E-3	-11.2491E-3
-4.22461E-3	-238.468E-12	671.761E-3	27.4699E-3	-232.846E-12	641.347E-3	-44.7638E-3
-4.22961E-3	-238.759E-12	684.559E-3	28.3227E-3	-233.445E-12	625.778E-3	-62.1626E-3
-4.23462E-3	-239.561E-12	694.986E-3	20.8323E-3	-234.896E-12	612.343E-3	-54.2943E-3
-4.23962E-3	-239.598E-12	700.975E-3	-21.8074E-3	-236.111E-12	619.444E-3	-67.0333E-3
-4.24462E-3	-238.837E-12	713.087E-3	-35.5005E-3	-239.068E-12	661.534E-3	-60.2875E-3
-4.24962E-3	-239.408E-12	718.810E-3	-13.3711E-3	-238.899E-12	692.496E-3	-2.29855E-3
-4.25463E-3	-240.976E-12	718.530E-3	-20.1681E-3	-239.314E-12	703.551E-3	6.56722E-3
-4.25963E-3	-240.622E-12	714.673E-3	-19.2400E-3	-241.594E-12	689.173E-3	-39.4717E-3
-4.26463E-3	-241.534E-12	700.149E-3	-8.60290E-3	-241.740E-12	664.077E-3	-30.2389E-3
-4.26963E-3	-240.988E-12	689.161E-3	-19.0341E-3	-241.058E-12	686.379E-3	2.91549E-3
-4.27464E-3	-240.937E-12	701.229E-3	-19.4626E-3	-242.707E-12	718.911E-3	-18.1266E-3
-4.27964E-3	-241.708E-12	714.314E-3	-885.062E-6	-241.935E-12	715.541E-3	-28.1195E-3
-4.28464E-3	-240.770E-12	705.063E-3	4.74192E-3	-239.263E-12	724.953E-3	-3.92852E-3
-4.28964E-3	-239.503E-12	705.587E-3	8.41865E-3	-240.036E-12	736.984E-3	-23.1629E-3
-4.29465E-3	-238.931E-12	712.292E-3	18.0609E-3	-240.104E-12	709.335E-3	-79.6105E-3
-4.29965E-3	-239.189E-12	707.186E-3	-9.99870E-3	-238.854E-12	691.302E-3	-75.7699E-3
-4.30465E-3	-239.510E-12	702.323E-3	-23.8586E-3	-237.672E-12	716.503E-3	-29.9734E-3
-4.30965E-3	-238.730E-12	701.154E-3	3.28767E-3	-239.328E-12	715.382E-3	-34.0288E-3
-4.31466E-3	-238.740E-12	709.007E-3	10.9251E-3	-239.425E-12	676.139E-3	-30.7788E-3
-4.31966E-3	-240.724E-12	707.423E-3	1.38357E-3	-239.980E-12	675.738E-3	7.29265E-3
-4.32466E-3	-240.677E-12	682.632E-3	27.3551E-3	-239.932E-12	664.825E-3	1.09151E-3
-4.32966E-3	-241.704E-12	677.008E-3	35.2821E-3	-240.584E-12	643.280E-3	-34.5903E-3
-4.33467E-3	-242.912E-12	691.171E-3	-7.97056E-3	-240.455E-12	677.250E-3	-60.5950E-3
-4.33967E-3	-244.515E-12	683.730E-3	-32.6340E-3	-241.931E-12	681.537E-3	-62.8706E-3
-4.34467E-3	-243.610E-12	655.637E-3	-43.1070E-3	-241.749E-12	643.850E-3	-25.6723E-3
-4.34967E-3	-244.640E-12	639.696E-3	-51.8572E-3	-242.436E-12	659.197E-3	9.78135E-3
-4.35468E-3	-247.522E-12	655.463E-3	-23.8468E-3	-243.248E-12	691.573E-3	15.1575E-3
-4.35968E-3	-246.450E-12	690.972E-3	-5.04822E-3	-242.309E-12	689.408E-3	7.17151E-3
-4.36468E-3	-247.010E-12	735.456E-3	-54.6223E-3	-242.059E-12	708.812E-3	-1.70939E-3
-4.36968E-3	-247.642E-12	723.193E-3	-72.4398E-3	-242.567E-12	732.783E-3	-10.0632E-3
-4.37469E-3	-248.040E-12	683.408E-3	-14.4951E-3	-242.043E-12	715.856E-3	-19.8959E-3
-4.37969E-3	-246.374E-12	718.626E-3	18.6865E-3	-244.130E-12	708.855E-3	-21.3849E-3
-4.38469E-3	-245.797E-12	764.699E-3	13.1857E-3	-245.772E-12	733.439E-3	-25.2985E-3
-4.38969E-3	-243.619E-12	757.668E-3	11.2277E-3	-244.109E-12	712.216E-3	-11.8963E-3
-4.39470E-3	-241.868E-12	733.547E-3	-3.20810E-3	-246.031E-12	650.182E-3	39.1501E-3
-4.39970E-3	-241.879E-12	687.445E-3	-3.61840E-3	-246.523E-12	656.072E-3	46.2069E-3
-4.40470E-3	-241.509E-12	634.869E-3	6.74716E-3	-246.478E-12	681.392E-3	21.2182E-3
-4.40970E-3	-240.351E-12	645.542E-3	-23.4610E-3	-248.483E-12	674.776E-3	20.2432E-3
-4.41471E-3	-240.465E-12	661.889E-3	-27.6612E-3	-249.539E-12	698.160E-3	-15.5336E-3
-4.41971E-3	-242.077E-12	628.109E-3	-14.5654E-3	-247.129E-12	699.506E-3	-58.3539E-3
-4.42471E-3	-242.078E-12	618.769E-3	-33.2813E-3	-246.990E-12	674.295E-3	-33.1470E-3
-4.42971E-3	-242.905E-12	665.408E-3	-30.3996E-3	-249.167E-12	710.029E-3	-5.24484E-3
-4.43472E-3	-244.943E-12	693.556E-3	-34.1007E-3	-246.820E-12	725.029E-3	-30.8554E-3
-4.43972E-3	-247.487E-12	690.452E-3	-38.9455E-3	-245.621E-12	679.619E-3	-61.7399E-3
-4.44472E-3	-247.669E-12	709.010E-3	-4.26190E-3	-245.034E-12	648.424E-3	-52.9945E-3
-4.44972E-3	-248.212E-12	721.461E-3	5.47135E-3	-245.701E-12	646.267E-3	-39.1195E-3
-4.45473E-3	-249.513E-12	685.594E-3	-27.6805E-3	-245.020E-12	652.439E-3	-35.6373E-3
-4.45973E-3	-250.716E-12	655.681E-3	-53.5322E-3	-245.934E-12	657.568E-3	-28.0445E-3
-4.46473E-3	-250.694E-12	666.271E-3	-26.8807E-3	-246.359E-12	681.409E-3	-31.0188E-3
-4.46973E-3	-249.330E-12	641.596E-3	22.6032E-3	-248.052E-12	693.759E-3	-25.2276E-3
-4.47474E-3	-249.304E-12	608.150E-3	35.7312E-3	-248.759E-12	684.497E-3	-17.7873E-3
-4.47974E-3	-247.836E-12	632.566E-3	20.2750E-3	-248.395E-12	685.259E-3	-30.0726E-3
-4.48474E-3	-245.819E-12	662.030E-3	-17.4738E-3	-250.754E-12	679.486E-3	-36.4532E-3
-4.48974E-3	-245.220E-12	661.792E-3	-47.7325E-3	-252.468E-12	695.648E-3	-40.2163E-3
-4.49475E-3	-246.198E-12	652.442E-3	-60.9713E-3	-252.247E-12	721.251E-3	-40.6515E-3
-4.49975E-3	-243.568E-12	653.259E-3	-72.3091E-3	-252.691E-12	711.194E-3	-36.4131E-3
-4.50475E-3	-244.133E-12	643.390E-3	-71.8775E-3	-253.797E-12	701.102E-3	-46.4688E-3
-4.50975E-3	-245.266E-12	590.450E-3	-53.9394E-3	-253.307E-12	720.664E-3	-43.1413E-3
-4.51476E-3	-245.731E-12	556.423E-3	-19.3721E-3	-251.083E-12	717.119E-3	-8.13665E-3
-4.51976E-3	-246.492E-12	579.820E-3	-13.5667E-3	-252.370E-12	655.888E-3	61.3958E-3
-4.52476E-3	-249.568E-12	622.367E-3	-15.9795E-3	-250.563E-12	640.764E-3	76.0894E-3
-4.52976E-3	-251.472E-12	661.734E-3	-17.1744E-3	-248.927E-12	680.638E-3	26.8849E-3
-4.53477E-3	-251.975E-12	685.783E-3	-57.8948E-3	-248.532E-12	689.974E-3	-2.50079E-3
-4.53977E-3	-255.434E-12	689.245E-3	-62.9851E-3	-247.203E-12	681.653E-3	-21.0174E-3
-4.54477E-3	-256.338E-12	687.982E-3	1.69814E-3	-247.794E-12	659.366E-3	-19.1657E-3
-4.54977E-3	-256.892E-12	699.306E-3	56.1798E-3	-246.198E-12	644.964E-3	10.2802E-6
-4.55478E-3	-256.524E-12	720.851E-3	68.0280E-3	-247.132E-12	658.195E-3	15.1215E-3
-4.55978E-3	-256.721E-12	762.841E-3	25.5303E-3	-248.594E-12	661.859E-3	-12.3073E-3
-4.56478E-3	-254.952E-12	796.757E-3	-47.7620E-3	-249.900E-12	693.236E-3	-74.0071E-3
-4.56978E-3	-256.516E-12	758.981E-3	-78.3933E-3	-250.851E-12	730.396E-3	-55.0047E-3
-4.57479E-3	-253.696E-12	686.788E-3	-45.0185E-3	-253.287E-12	701.851E-3	2.06322E-3
-4.57979E-3	-251.936E-12	642.347E-3	826.024E-6	-255.853E-12	667.262E-3	14.0521E-3
-4.58479E-3	-252.332E-12	628.300E-3	7.86060E-3	-258.061E-12	676.982E-3	8.86141E-3
-4.58979E-3	-252.497E-12	640.081E-3	-2.04449E-3	-258.029E-12	707.395E-3	-9.20088E-3
-4.59480E-3	-250.562E-12	627.581E-3	-3.81677E-3	-259.287E-12	731.413E-3	-19.4248E-3
-4.59980E-3	-250.193E-12	626.412E-3	-17.5734E-3	-259.867E-12	736.925E-3	-966.770E-6
-4.60480E-3	-251.336E-12	672.023E-3	-16.0316E-3	-259.128E-12	728.112E-3	37.4036E-3
-4.60980E-3	-251.876E-12	682.068E-3	-28.3449E-3	-257.562E-12	720.832E-3	31.1256E-3
-4.61481E-3	-253.428E-12	667.370E-3	-50.1294E-3	-257.315E-12	718.805E-3	-48.0129E-3
-4.61981E-3	-254.424E-12	661.630E-3	-31.5392E-3	-254.464E-12	721.288E-3	-82.8241E-3
-4.62481E-3	-256.176E-12	641.426E-3	-30.7399E-3	-253.772E-12	694.817E-3	-64.8978E-3
-4.62981E-3	-258.341E-12	624.940E-3	-30.9345E-3	-251.933E-12	667.584E-3	-59.0031E-3
-4.63482E-3	-260.218E-12	638.804E-3	-4.41343E-3	-250.925E-12	661.115E-3	-32.2268E-3
-4.63982E-3	-259.079E-12	649.601E-3	14.5767E-3	-249.792E-12	665.094E-3	-15.3657E-3
-4.64482E-3	-262.641E-12	616.890E-3	13.9973E-3	-249.102E-12	693.588E-3	-28.2550E-3
-4.64982E-3	-260.963E-12	599.817E-3	-13.5662E-3	-251.015E-12	693.770E-3	-18.0734E-3
-4.65483E-3	-259.814E-12	625.458E-3	-26.2940E-3	-249.345E-12	666.654E-3	33.5049E-3
-4.65983E-3	-260.333E-12	634.908E-3	-9.65984E-3	-251.128E-12	687.437E-3	51.1012E-3
-4.66483E-3	-261.548E-12	670.019E-3	-12.4392E-3	-253.337E-12	723.493E-3	1.75406E-3
-4.66983E-3	-260.609E-12	729.502E-3	-23.6252E-3	-255.484E-12	721.003E-3	-19.0231E-3
-4.67484E-3	-259.614E-12	711.812E-3	3.77496E-3	-255.088E-12	726.706E-3	-4.29256E-3
-4.67984E-3	-260.321E-12	671.985E-3	42.0048E-3	-259.180E-12	735.458E-3	-19.4930E-3
-4.68484E-3	-259.584E-12	697.010E-3	27.4169E-3	-258.456E-12	727.140E-3	-20.9094E-3
-4.68984E-3	-258.679E-12	710.607E-3	-11.2803E-3	-260.030E-12	734.234E-3	8.94025E-3
-4.69485E-3	-258.439E-12	675.127E-3	-15.9948E-3	-261.346E-12	727.182E-3	9.56315E-3
-4.69985E-3	-259.672E-12	651.083E-3	-20.0578E-3	-262.062E-12	718.832E-3	14.8534E-3
-4.70485E-3	-258.545E-12	656.708E-3	-23.7547E-3	-262.437E-12	739.630E-3	49.4018E-3
-4.70985E-3	-257.663E-12	663.276E-3	-11.2807E-3	-263.025E-12	747.677E-3	43.4676E-3
-4.71486E-3	-259.862E-12	673.984E-3	-6.98078E-3	-263.525E-12	742.954E-3	5.33106E-3
-4.71986E-3	-258.977E-12	705.419E-3	-8.82762E-3	-261.664E-12	712.697E-3	-19.0117E-3
-4.72486E-3	-257.916E-12	724.871E-3	-44.5516E-3	-261.284E-12	667.029E-3	-31.6256E-3
-4.72986E-3	-257.178E-12	717.209E-3	-75.9156E-3	-260.820E-12	662.537E-3	-52.0654E-3
-4.73487E-3	-258.266E-12	674.414E-3	-57.2401E-3	-260.294E-12	687.434E-3	-53.2946E-3
-4.73987E-3	-256.770E-12	636.454E-3	-17.7379E-3	-260.641E-12	728.131E-3	-26.0658E-3
-4.74487E-3	-258.344E-12	684.772E-3	16.5410E-3	-260.697E-12	771.238E-3	-29.3516E-3
-4.74988E-3	-257.537E-12	731.654E-3	14.2214E-3	-260.443E-12	746.184E-3	-27.8994E-3
-4.75488E-3	-258.276E-12	667.706E-3	-12.3921E-3	-260.945E-12	700.181E-3	13.2984E-3
-4.75988E-3	-258.071E-12	633.680E-3	-19.5733E-3	-263.262E-12	690.063E-3	6.11359E-3
-4.76488E-3	-258.973E-12	669.027E-3	-18.2846E-3	-263.886E-12	687.166E-3	511.928E-6
-4.76988E-3	-260.386E-12	689.101E-3	-16.6448E-3	-263.382E-12	698.901E-3	32.8461E-3
-4.77489E-3	-261.221E-12	676.159E-3	-14.3253E-3	-263.593E-12	689.876E-3	-7.75006E-3
-4.77989E-3	-261.857E-12	650.028E-3	-38.6284E-3	-264.983E-12	648.426E-3	-58.6257E-3
-4.78489E-3	-263.457E-12	680.785E-3	-44.8258E-3	-263.760E-12	652.653E-3	-57.2506E-3
-4.78989E-3	-263.480E-12	727.485E-3	-9.29187E-3	-264.325E-12	688.326E-3	-56.3221E-3
-4.79490E-3	-264.623E-12	718.285E-3	30.5897E-3	-263.834E-12	664.112E-3	-27.3584E-3
-4.79990E-3	-264.454E-12	683.779E-3	60.8850E-3	-263.690E-12	638.721E-3	11.5287E-3
-4.80490E-3	-264.215E-12	696.505E-3	54.1169E-3	-262.745E-12	698.542E-3	1.00217E-3
-4.80990E-3	-264.169E-12	754.439E-3	33.8772E-3	-263.590E-12	730.901E-3	-11.8468E-3
-4.81491E-3	-263.018E-12	777.595E-3	31.3123E-3	-263.610E-12	703.789E-3	-1.45585E-3
-4.81991E-3	-262.307E-12	751.589E-3	31.4278E-3	-263.725E-12	705.264E-3	13.9913E-3
-4.82491E-3	-261.580E-12	715.688E-3	19.3443E-3	-263.045E-12	687.459E-3	24.1567E-3
-4.82991E-3	-261.175E-12	674.670E-3	22.6374E-3	-264.360E-12	652.179E-3	9.39605E-3
-4.83492E-3	-261.010E-12	633.754E-3	27.4831E-3	-265.779E-12	655.541E-3	-23.5563E-3
-4.83992E-3	-261.571E-12	652.402E-3	-6.73072E-3	-263.671E-12	651.488E-3	-23.5771E-3
-4.84492E-3	-260.907E-12	663.931E-3	-30.9069E-3	-264.613E-12	607.329E-3	43.4945E-3
-4.84992E-3	-262.312E-12	612.745E-3	-38.5417E-3	-265.791E-12	602.761E-3	90.3467E-3
-4.85493E-3	-263.378E-12	624.075E-3	-46.6116E-3	-265.409E-12	683.659E-3	35.6667E-3
-4.85993E-3	-264.286E-12	674.209E-3	-56.4170E-3	-264.146E-12	729.760E-3	-36.9172E-3
-4.86493E-3	-266.426E-12	678.629E-3	-69.1615E-3	-265.190E-12	692.324E-3	-46.0495E-3
-4.86993E-3	-266.383E-12	663.096E-3	-49.4981E-3	-264.898E-12	680.820E-3	-10.2844E-3
-4.87494E-3	-267.740E-12	662.299E-3	-10.3517E-3	-263.224E-12	689.565E-3	17.9405E-3
-4.87994E-3	-271.682E-12	700.773E-3	-847.761E-6	-264.510E-12	655.597E-3	15.4489E-3
-4.88494E-3	-270.011E-12	715.551E-3	-6.98860E-3	-264.179E-12	658.580E-3	-7.13019E-3
-4.88995E-3	-268.850E-12	675.209E-3	14.6722E-3	-263.579E-12	691.509E-3	-22.0835E-3
-4.89495E-3	-269.683E-12	652.640E-3	40.5077E-3	-264.121E-12	723.391E-3	4.93106E-3
-4.89995E-3	-271.061E-12	645.996E-3	39.0709E-3	-266.540E-12	753.925E-3	28.2012E-3
-4.90495E-3	-265.886E-12	643.662E-3	35.5913E-3	-266.631E-12	728.437E-3	30.4443E-3
-4.90995E-3	-264.929E-12	647.871E-3	16.6981E-3	-267.582E-12	695.279E-3	46.8441E-3
-4.91496E-3	-266.971E-12	619.632E-3	15.6396E-3	-269.915E-12	683.335E-3	13.9947E-3
-4.91996E-3	-265.493E-12	595.657E-3	48.0232E-3	-271.803E-12	652.464E-3	-26.5890E-3
-4.92496E-3	-263.093E-12	607.503E-3	48.5263E-3	-272.310E-12	646.953E-3	-14.8791E-3
-4.92996E-3	-263.577E-12	623.690E-3	29.8570E-3	-271.630E-12	703.428E-3	-6.17534E-3
-4.93497E-3	-266.208E-12	634.380E-3	35.1762E-3	-273.504E-12	720.845E-3	-23.8728E-3
-4.93997E-3	-265.400E-12	647.106E-3	68.0659E-3	-271.196E-12	687.384E-3	-37.2463E-3
-4.94497E-3	-268.219E-12	672.003E-3	72.3501E-3	-270.928E-12	679.662E-3	-7.30357E-3
-4.94997E-3	-270.051E-12	677.720E-3	37.8059E-3	-270.282E-12	660.457E-3	12.7441E-3
-4.95498E-3	-271.424E-12	636.684E-3	226.257E-6	-269.258E-12	629.763E-3	-4.18352E-3
-4.95998E-3	-272.273E-12	619.372E-3	-8.40527E-3	-265.703E-12	645.333E-3	2.18497E-3
-4.96498E-3	-275.385E-12	662.384E-3	16.1974E-3	-265.936E-12	690.795E-3	7.13950E-3
-4.96998E-3	-277.497E-12	716.317E-3	24.2588E-3	-266.213E-12	695.635E-3	-16.6045E-3
-4.97499E-3	-277.433E-12	757.296E-3	27.0055E-3	-265.729E-12	644.152E-3	-6.82432E-3
-4.97999E-3	-278.418E-12	775.793E-3	-6.88115E-3	-264.472E-12	608.563E-3	26.8316E-3
-4.98499E-3	-276.326E-12	751.165E-3	-67.2223E-3	-265.886E-12	599.923E-3	39.4176E-3
-4.98999E-3	-276.678E-12	702.899E-3	-49.1397E-3	-268.051E-12	605.537E-3	37.8205E-3
-4.99500E-3	-276.020E-12	663.014E-3	4.45921E-3	-269.827E-12	639.632E-3	2.92384E-3
-5.00000E-3	-273.525E-12	631.856E-3	-199.619E-6	-271.436E-12	637.778E-3	-23.9036E-3
