Experiment	bias spectroscopy	
Date	19.01.2016 22:33:11	
User		
X (m)	50.151E-9	
Y (m)	257.945E-9	
Z (m)	-132.636E-9	
Z offset (m)	0E+0	
Settling time (s)	200E-6	
Integration time (s)	5E-3	
Z-Ctrl hold	TRUE	
Final Z (m)	N/A	
Filter type	None	
Order		
Cutoff frq		
Comment01	MnPc/Pb(111)	
Comment02	dz =00pm	
Comment03	7 Sweeps	
Comment04	MagField =0.T	
Comment05	Divider 1:10	
Comment06	Setpoint:5mV,200 pA	
Comment07	Lockin: 50uVrms,5ms,5mV	
Comment08	Gain:9; 912Hz modulation	
Comment09	T=1.06K	
Bias>Bias (V)	5E-3	
Bias>Calibration (V/V)	81.475E-3	
Bias>Offset (V)	1.046E-3	
Bias Spectroscopy>Sweep Start (V)	5E-3	
Bias Spectroscopy>Sweep End (V)	-5E-3	
Bias Spectroscopy>Num Pixel	2000	
Bias Spectroscopy>Z Avg time (s)	500E-3	
Bias Spectroscopy>Z offset (m)	0E+0	
Bias Spectroscopy>1st Settling time (s)	500E-3	
Bias Spectroscopy>Settling time (s)	200E-6	
Bias Spectroscopy>Integration time (s)	5E-3	
Bias Spectroscopy>End Settling time (s)	500E-3	
Bias Spectroscopy>Z control time (s)	500E-3	
Bias Spectroscopy>Max Slew rate (V/s)	Inf	
Bias Spectroscopy>backward sweep	TRUE	
Bias Spectroscopy>Z-controller hold	TRUE	
Bias Spectroscopy>Number of sweeps	7	
Bias Spectroscopy>Channels	Current (A);X% LockIn (V);Y% LockIn (V)	
Bias Spectroscopy>Reset Bias	TRUE	
Bias Spectroscopy>Record final Z	FALSE	
Bias Spectroscopy>Lock-In run	FALSE	
Bias Spectroscopy>Sweep mode	Linear	
Bias Spectroscopy>MultiLine Settings : Segment Start (V), Segment End (V), Settling (s), Integration (s), Steps (xn)	100E-3,3.3E-3,100E-6,10E-3,2500;3.3E-3,-3.3E-3,100E-6,10E-3,10;-3.3E-3,-100E-3,100E-6,10E-3,2500	
Current>Current (A)	200.347E-12	
Current>Calibration (A/V)	999.99900E-12	
Current>Offset (A)	-455.429E-15	
Current>Gain	LN 10^9	
Z-Controller>Z (m)	-132.637E-9	
Z-Controller>Controller name	log Current	
Z-Controller>Controller status	ON	
Z-Controller>Setpoint	200E-12	
Z-Controller>Setpoint unit	A	
Z-Controller>P gain	2.96994E-12	
Z-Controller>I gain	67.0321E-9	
Z-Controller>Time const (s)	44.3062E-6	
Z-Controller>TipLift (m)	0E+0	
Z-Controller>Switch off delay (s)	50E-3	
Current (A)	200.398E-12	
Z (m)	-132.637E-9	

[DATA]
Bias calc (V)	Current (A)	X% LockIn (V)	Y% LockIn (V)	Current [bwd] (A)	X% LockIn [bwd] (V)	Y% LockIn [bwd] (V)
5.00000E-3	198.291E-12	629.010E-3	23.8903E-3	196.162E-12	647.890E-3	26.3647E-3
4.99500E-3	197.726E-12	657.573E-3	13.0413E-3	196.044E-12	685.529E-3	-2.88992E-3
4.98999E-3	198.285E-12	694.920E-3	12.7874E-3	196.299E-12	689.513E-3	-23.4140E-3
4.98499E-3	197.909E-12	688.955E-3	7.85726E-3	196.470E-12	661.660E-3	-5.46604E-3
4.97999E-3	197.186E-12	667.422E-3	-12.9351E-3	196.336E-12	644.408E-3	-458.078E-6
4.97499E-3	196.366E-12	657.601E-3	-31.0403E-3	195.967E-12	650.345E-3	-15.7002E-3
4.96998E-3	194.874E-12	656.215E-3	-43.1769E-3	196.076E-12	664.319E-3	-41.0319E-3
4.96498E-3	196.217E-12	653.266E-3	-28.3155E-3	196.182E-12	668.973E-3	-57.0182E-3
4.95998E-3	196.238E-12	663.169E-3	-13.3151E-3	195.367E-12	651.018E-3	-37.0694E-3
4.95498E-3	195.394E-12	674.090E-3	-22.4940E-3	195.346E-12	652.138E-3	-6.85469E-3
4.94997E-3	195.006E-12	682.853E-3	-25.6743E-3	194.587E-12	649.465E-3	1.25126E-3
4.94497E-3	195.932E-12	690.485E-3	-21.7200E-3	193.579E-12	620.623E-3	9.90215E-3
4.93997E-3	197.014E-12	672.978E-3	-17.5970E-3	192.813E-12	625.167E-3	27.1777E-3
4.93497E-3	197.491E-12	653.717E-3	-13.6067E-3	193.376E-12	645.564E-3	24.3137E-3
4.92996E-3	197.139E-12	657.889E-3	-10.0273E-3	193.829E-12	648.287E-3	15.3819E-3
4.92496E-3	195.853E-12	661.058E-3	-9.26691E-3	191.635E-12	652.757E-3	-7.83635E-3
4.91996E-3	197.351E-12	670.242E-3	-19.1425E-3	192.989E-12	663.724E-3	-43.6005E-3
4.91496E-3	197.256E-12	688.654E-3	-18.9588E-3	193.692E-12	667.525E-3	-43.7687E-3
4.90995E-3	197.027E-12	682.855E-3	-26.5655E-3	195.785E-12	684.277E-3	-18.6439E-3
4.90495E-3	195.508E-12	670.450E-3	-54.1840E-3	195.096E-12	680.797E-3	13.0533E-6
4.89995E-3	194.449E-12	676.262E-3	-56.1263E-3	194.452E-12	616.283E-3	11.6084E-3
4.89495E-3	194.692E-12	666.399E-3	-42.1133E-3	195.173E-12	591.027E-3	24.0605E-3
4.88995E-3	193.155E-12	643.028E-3	-27.7032E-3	198.023E-12	626.598E-3	25.1095E-3
4.88494E-3	190.367E-12	647.345E-3	-4.97735E-3	201.002E-12	650.160E-3	18.7495E-3
4.87994E-3	188.992E-12	672.956E-3	7.38571E-3	198.202E-12	665.779E-3	14.6518E-3
4.87494E-3	189.752E-12	697.762E-3	414.333E-6	197.706E-12	674.350E-3	-14.3050E-3
4.86993E-3	190.222E-12	699.113E-3	-29.0878E-3	197.921E-12	638.503E-3	-35.5891E-3
4.86493E-3	188.172E-12	685.770E-3	-41.2959E-3	197.441E-12	614.163E-3	-13.2339E-3
4.85993E-3	188.532E-12	687.266E-3	-23.8286E-3	197.535E-12	651.379E-3	10.3540E-3
4.85493E-3	189.544E-12	682.690E-3	-10.7235E-3	196.463E-12	679.721E-3	15.5702E-3
4.84992E-3	189.063E-12	667.340E-3	-23.2582E-3	194.194E-12	684.146E-3	6.87434E-3
4.84492E-3	190.265E-12	665.533E-3	-43.5072E-3	194.403E-12	692.404E-3	-11.7351E-3
4.83992E-3	191.595E-12	665.346E-3	-32.9574E-3	195.950E-12	681.815E-3	-22.5001E-3
4.83492E-3	191.965E-12	678.353E-3	-15.4460E-3	193.718E-12	662.311E-3	-12.1795E-3
4.82991E-3	191.103E-12	688.507E-3	-13.8539E-3	189.940E-12	663.687E-3	-7.60417E-3
4.82491E-3	193.009E-12	668.578E-3	-24.2439E-3	189.710E-12	654.877E-3	-15.1049E-3
4.81991E-3	192.668E-12	643.951E-3	-30.8643E-3	189.725E-12	622.567E-3	-9.28733E-3
4.81491E-3	194.276E-12	622.738E-3	-18.2106E-3	189.851E-12	613.976E-3	-5.41451E-3
4.80990E-3	193.552E-12	626.779E-3	-14.8697E-3	189.846E-12	651.431E-3	4.81276E-3
4.80490E-3	191.970E-12	651.329E-3	-9.57079E-3	187.923E-12	673.187E-3	29.6986E-3
4.79990E-3	190.863E-12	650.241E-3	8.90566E-3	187.163E-12	651.814E-3	15.7143E-3
4.79490E-3	190.820E-12	647.374E-3	-5.23772E-3	188.361E-12	632.849E-3	-29.9456E-3
4.78989E-3	190.763E-12	655.368E-3	-28.0292E-3	187.516E-12	628.721E-3	-43.0707E-3
4.78489E-3	188.630E-12	663.631E-3	-23.0584E-3	186.190E-12	650.829E-3	-35.6947E-3
4.77989E-3	186.594E-12	684.747E-3	-3.53890E-3	185.485E-12	668.048E-3	-27.4278E-3
4.77489E-3	185.912E-12	687.757E-3	-3.36226E-3	186.598E-12	644.987E-3	-11.2602E-3
4.76988E-3	187.573E-12	659.445E-3	-40.8139E-3	187.259E-12	623.515E-3	-5.49593E-3
4.76488E-3	186.425E-12	652.318E-3	-54.7126E-3	186.202E-12	625.588E-3	-17.6817E-3
4.75988E-3	183.630E-12	673.176E-3	-20.9883E-3	184.149E-12	629.713E-3	-27.1053E-3
4.75488E-3	183.707E-12	687.148E-3	6.32115E-3	183.818E-12	638.706E-3	-17.3045E-3
4.74988E-3	184.936E-12	690.842E-3	-2.78003E-3	185.167E-12	653.327E-3	-13.4514E-3
4.74487E-3	185.004E-12	671.313E-3	-18.0926E-3	185.988E-12	654.331E-3	-34.5177E-3
4.73987E-3	185.356E-12	655.282E-3	-11.6173E-3	184.831E-12	652.525E-3	-48.8691E-3
4.73487E-3	185.788E-12	662.122E-3	10.9247E-3	183.232E-12	658.836E-3	-42.4221E-3
4.72986E-3	186.027E-12	655.873E-3	25.0103E-3	183.063E-12	661.367E-3	-23.0715E-3
4.72486E-3	186.227E-12	641.375E-3	22.8371E-3	184.835E-12	654.846E-3	-657.759E-6
4.71986E-3	187.375E-12	632.138E-3	6.84616E-3	184.307E-12	635.739E-3	6.09862E-3
4.71486E-3	187.443E-12	631.675E-3	-23.8437E-3	184.255E-12	614.092E-3	-13.0785E-3
4.70985E-3	186.594E-12	640.924E-3	-24.2425E-3	184.126E-12	627.898E-3	-19.4689E-3
4.70485E-3	186.273E-12	652.916E-3	6.04586E-3	185.481E-12	673.535E-3	-10.8877E-3
4.69985E-3	186.610E-12	654.140E-3	6.85462E-3	185.646E-12	688.118E-3	-26.9056E-3
4.69485E-3	185.954E-12	647.478E-3	-12.3082E-3	185.384E-12	680.623E-3	-41.2750E-3
4.68984E-3	184.852E-12	651.276E-3	-19.2097E-3	185.579E-12	694.793E-3	-63.3388E-3
4.68484E-3	183.805E-12	644.097E-3	-23.6075E-3	185.683E-12	691.274E-3	-80.4118E-3
4.67984E-3	183.837E-12	638.678E-3	-29.5135E-3	186.276E-12	644.187E-3	-47.6121E-3
4.67484E-3	182.910E-12	665.485E-3	-42.1094E-3	186.985E-12	626.609E-3	-19.8830E-3
4.66983E-3	180.385E-12	677.013E-3	-46.3814E-3	187.554E-12	660.494E-3	-28.6244E-3
4.66483E-3	179.560E-12	664.046E-3	-32.5941E-3	188.080E-12	682.473E-3	-36.9879E-3
4.65983E-3	180.498E-12	657.966E-3	-7.21029E-3	187.281E-12	685.192E-3	-35.4546E-3
4.65483E-3	180.640E-12	648.244E-3	9.37646E-3	187.482E-12	693.985E-3	-27.1611E-3
4.64982E-3	179.228E-12	642.987E-3	3.98866E-3	187.982E-12	703.121E-3	-10.3615E-3
4.64482E-3	179.987E-12	657.725E-3	-13.7909E-3	187.185E-12	683.485E-3	-5.22482E-3
4.63982E-3	181.344E-12	672.577E-3	-37.5666E-3	186.771E-12	663.942E-3	-23.7208E-3
4.63482E-3	182.071E-12	692.456E-3	-43.3724E-3	185.229E-12	681.447E-3	-35.1364E-3
4.62981E-3	182.302E-12	714.067E-3	-30.3535E-3	185.345E-12	691.233E-3	-16.2698E-3
4.62481E-3	182.956E-12	698.600E-3	-11.2370E-3	185.051E-12	670.295E-3	15.5426E-3
4.61981E-3	183.665E-12	655.737E-3	1.56016E-3	184.019E-12	650.071E-3	20.9507E-3
4.61481E-3	185.058E-12	635.521E-3	-19.0607E-3	183.850E-12	649.887E-3	-12.5641E-3
4.60980E-3	186.162E-12	655.185E-3	-41.9103E-3	182.689E-12	654.949E-3	-44.4855E-3
4.60480E-3	185.845E-12	677.253E-3	-28.0611E-3	181.640E-12	641.655E-3	-26.3742E-3
4.59980E-3	184.509E-12	696.845E-3	-14.1688E-3	180.909E-12	636.018E-3	14.0880E-3
4.59480E-3	184.680E-12	695.176E-3	-12.3098E-3	179.869E-12	657.230E-3	7.41514E-3
4.58979E-3	185.719E-12	657.122E-3	-7.33178E-3	179.646E-12	649.035E-3	-22.1069E-3
4.58479E-3	184.651E-12	651.639E-3	-8.31252E-3	179.620E-12	626.320E-3	-51.2758E-3
4.57979E-3	181.654E-12	686.731E-3	-26.3989E-3	178.463E-12	645.500E-3	-85.8236E-3
4.57479E-3	181.471E-12	679.645E-3	-52.9345E-3	177.929E-12	674.629E-3	-70.1959E-3
4.56978E-3	180.679E-12	660.284E-3	-46.3988E-3	178.895E-12	687.053E-3	-21.3975E-3
4.56478E-3	178.691E-12	664.894E-3	-22.8235E-3	178.073E-12	680.139E-3	-18.1531E-3
4.55978E-3	177.066E-12	658.285E-3	4.30663E-3	177.513E-12	664.504E-3	-38.7439E-3
4.55478E-3	175.314E-12	656.322E-3	24.6252E-3	178.559E-12	670.074E-3	-22.9652E-3
4.54977E-3	175.201E-12	662.627E-3	13.6946E-3	179.611E-12	678.873E-3	7.20190E-3
4.54477E-3	175.411E-12	676.676E-3	6.08171E-3	177.729E-12	667.347E-3	7.05148E-3
4.53977E-3	175.669E-12	670.426E-3	16.8758E-3	177.492E-12	672.325E-3	-19.5463E-3
4.53477E-3	174.848E-12	638.720E-3	11.0378E-3	179.722E-12	682.122E-3	-32.3201E-3
4.52976E-3	174.444E-12	625.452E-3	-2.91391E-3	178.429E-12	667.890E-3	-22.5858E-3
4.52476E-3	175.364E-12	623.770E-3	-14.2198E-3	177.493E-12	662.673E-3	-19.2224E-3
4.51976E-3	176.241E-12	607.473E-3	-16.4464E-3	176.551E-12	661.366E-3	-23.0387E-3
4.51476E-3	177.334E-12	600.206E-3	1.47813E-3	176.983E-12	644.832E-3	-20.5752E-3
4.50975E-3	177.132E-12	619.202E-3	-4.11807E-3	177.573E-12	632.567E-3	-2.98966E-3
4.50475E-3	177.212E-12	629.800E-3	-5.42061E-3	177.049E-12	641.698E-3	21.3894E-3
4.49975E-3	178.613E-12	643.997E-3	16.4099E-3	175.880E-12	661.592E-3	25.5990E-3
4.49475E-3	178.497E-12	651.569E-3	25.6520E-3	176.036E-12	652.269E-3	19.7382E-3
4.48974E-3	177.347E-12	630.599E-3	12.4277E-3	177.495E-12	624.093E-3	26.1085E-3
4.48474E-3	175.945E-12	632.276E-3	-16.7964E-3	176.090E-12	622.658E-3	4.75732E-3
4.47974E-3	176.422E-12	660.150E-3	-38.8188E-3	176.009E-12	638.632E-3	-38.6387E-3
4.47474E-3	174.873E-12	654.757E-3	-38.3377E-3	175.834E-12	654.290E-3	-51.4838E-3
4.46973E-3	173.186E-12	644.157E-3	-23.9236E-3	175.851E-12	665.376E-3	-33.3682E-3
4.46473E-3	172.892E-12	663.889E-3	-11.7772E-3	176.219E-12	649.172E-3	-4.04194E-3
4.45973E-3	172.702E-12	673.543E-3	3.72526E-3	175.866E-12	630.736E-3	-2.18429E-3
4.45473E-3	171.061E-12	665.376E-3	12.2959E-3	175.711E-12	649.993E-3	-26.3855E-3
4.44972E-3	170.228E-12	658.215E-3	5.52123E-3	176.008E-12	671.479E-3	-26.5860E-3
4.44472E-3	170.347E-12	665.494E-3	2.11990E-3	176.963E-12	657.214E-3	-13.8833E-3
4.43972E-3	170.196E-12	675.703E-3	6.82935E-3	176.289E-12	623.036E-3	-25.1066E-3
4.43472E-3	170.073E-12	661.167E-3	2.82100E-3	175.488E-12	610.595E-3	-40.5651E-3
4.42971E-3	169.586E-12	641.976E-3	180.429E-6	175.456E-12	618.886E-3	-28.0527E-3
4.42471E-3	171.096E-12	643.139E-3	1.10623E-3	176.645E-12	642.058E-3	-11.2417E-3
4.41971E-3	170.612E-12	637.559E-3	-12.1880E-3	176.543E-12	663.776E-3	-20.4683E-3
4.41471E-3	172.020E-12	647.478E-3	-13.7311E-3	174.099E-12	657.356E-3	-20.8549E-3
4.40970E-3	172.667E-12	670.572E-3	-10.4663E-3	173.481E-12	665.856E-3	3.38634E-3
4.40470E-3	173.246E-12	678.989E-3	-10.6346E-3	172.135E-12	673.992E-3	13.9849E-3
4.39970E-3	174.680E-12	675.899E-3	-7.99246E-3	172.705E-12	636.258E-3	6.73807E-3
4.39470E-3	175.283E-12	657.015E-3	-19.9875E-3	171.173E-12	608.441E-3	6.35872E-3
4.38969E-3	175.663E-12	646.627E-3	-37.9345E-3	170.493E-12	617.077E-3	6.39817E-3
4.38469E-3	174.959E-12	645.470E-3	-37.8240E-3	169.537E-12	623.262E-3	-4.14669E-3
4.37969E-3	175.364E-12	643.073E-3	-23.5210E-3	169.769E-12	633.376E-3	-7.38848E-3
4.37469E-3	176.428E-12	651.042E-3	-6.80673E-3	168.951E-12	644.677E-3	11.6167E-3
4.36968E-3	175.423E-12	673.187E-3	9.26574E-3	168.397E-12	647.925E-3	39.5063E-3
4.36468E-3	172.680E-12	689.882E-3	7.06746E-3	167.908E-12	664.547E-3	39.6239E-3
4.35968E-3	170.825E-12	685.748E-3	-14.7269E-3	167.892E-12	665.250E-3	16.9739E-3
4.35468E-3	171.580E-12	669.075E-3	-24.4272E-3	168.975E-12	636.614E-3	8.27441E-3
4.34967E-3	169.796E-12	663.194E-3	-2.71307E-3	168.375E-12	605.722E-3	-11.0199E-3
4.34467E-3	168.361E-12	648.501E-3	8.19976E-3	168.546E-12	604.723E-3	-16.0210E-3
4.33967E-3	166.199E-12	641.415E-3	-7.41258E-3	168.936E-12	633.594E-3	16.1594E-3
4.33467E-3	166.167E-12	649.293E-3	-15.0455E-3	168.661E-12	661.351E-3	2.52843E-3
4.32966E-3	165.356E-12	651.724E-3	-14.3190E-3	168.064E-12	675.234E-3	-55.0704E-3
4.32466E-3	165.158E-12	674.561E-3	-28.0669E-3	168.539E-12	679.641E-3	-74.8284E-3
4.31966E-3	165.108E-12	670.856E-3	-28.5521E-3	168.774E-12	693.929E-3	-51.9188E-3
4.31466E-3	165.664E-12	651.757E-3	-19.3183E-3	167.725E-12	691.243E-3	-33.7978E-3
4.30965E-3	165.365E-12	646.870E-3	-26.3568E-3	168.411E-12	646.070E-3	-21.8025E-3
4.30465E-3	165.404E-12	614.717E-3	-19.6403E-3	168.518E-12	619.647E-3	-9.98862E-3
4.29965E-3	166.158E-12	578.630E-3	-10.7229E-3	168.107E-12	646.874E-3	-10.9632E-3
4.29465E-3	166.481E-12	589.521E-3	-8.16644E-3	167.025E-12	673.341E-3	-20.4238E-3
4.28964E-3	167.158E-12	632.380E-3	-10.0327E-3	167.778E-12	666.122E-3	-20.7906E-3
4.28464E-3	165.925E-12	650.404E-3	-9.59725E-3	167.865E-12	651.777E-3	-4.71709E-3
4.27964E-3	166.341E-12	647.201E-3	6.01128E-3	167.676E-12	654.275E-3	-5.72985E-3
4.27464E-3	167.508E-12	660.978E-3	16.8053E-3	168.587E-12	668.598E-3	-38.3576E-3
4.26963E-3	166.331E-12	667.724E-3	9.56674E-3	168.318E-12	677.724E-3	-48.3569E-3
4.26463E-3	165.383E-12	638.399E-3	-1.62128E-3	168.419E-12	680.629E-3	-14.5877E-3
4.25963E-3	165.483E-12	629.742E-3	-19.5317E-3	169.899E-12	672.406E-3	7.25888E-3
4.25463E-3	165.867E-12	659.544E-3	-42.0555E-3	169.232E-12	661.718E-3	6.18583E-3
4.24962E-3	164.359E-12	664.123E-3	-46.3579E-3	168.598E-12	668.695E-3	-208.069E-6
4.24462E-3	164.418E-12	644.481E-3	-31.7294E-3	168.921E-12	684.243E-3	-25.3331E-3
4.23962E-3	162.267E-12	646.653E-3	-18.3327E-3	168.050E-12	675.121E-3	-32.3000E-3
4.23462E-3	162.538E-12	656.509E-3	-27.6200E-3	169.114E-12	662.687E-3	1.17464E-3
4.22961E-3	163.067E-12	657.968E-3	-32.0432E-3	168.809E-12	679.795E-3	25.4194E-3
4.22461E-3	161.698E-12	662.753E-3	-19.3034E-3	166.656E-12	688.922E-3	12.1144E-3
4.21961E-3	161.023E-12	666.837E-3	-22.3239E-3	166.143E-12	673.005E-3	-29.8546E-3
4.21461E-3	163.437E-12	664.482E-3	-35.2647E-3	166.892E-12	641.624E-3	-42.1179E-3
4.20960E-3	163.675E-12	656.584E-3	-17.1764E-3	165.169E-12	601.383E-3	-24.7628E-3
4.20460E-3	162.606E-12	657.169E-3	5.65226E-3	163.116E-12	580.046E-3	-13.5832E-3
4.19960E-3	162.816E-12	657.983E-3	-1.16467E-3	162.340E-12	588.820E-3	-11.4796E-3
4.19460E-3	164.250E-12	628.491E-3	-7.50752E-3	162.270E-12	611.768E-3	-25.5694E-3
4.18959E-3	165.202E-12	605.301E-3	2.85274E-3	161.496E-12	633.408E-3	-28.3643E-3
4.18459E-3	166.094E-12	627.445E-3	11.1114E-3	161.166E-12	641.711E-3	-24.8745E-3
4.17959E-3	165.992E-12	659.552E-3	-8.41486E-3	159.909E-12	632.475E-3	-27.3845E-3
4.17459E-3	166.070E-12	683.259E-3	-31.9671E-3	159.325E-12	623.559E-3	-37.1615E-3
4.16958E-3	166.229E-12	694.037E-3	-29.2771E-3	160.084E-12	630.033E-3	-40.6983E-3
4.16458E-3	166.383E-12	679.383E-3	-10.3811E-3	159.131E-12	644.461E-3	-17.6553E-3
4.15958E-3	164.422E-12	651.394E-3	-21.7995E-3	157.970E-12	650.957E-3	16.7957E-3
4.15458E-3	163.964E-12	630.062E-3	-56.6669E-3	158.880E-12	630.376E-3	22.5495E-3
4.14957E-3	162.618E-12	614.275E-3	-45.6054E-3	157.446E-12	595.800E-3	-2.68190E-3
4.14457E-3	159.831E-12	605.934E-3	-17.5759E-3	156.616E-12	599.861E-3	-20.6074E-3
4.13957E-3	159.421E-12	630.300E-3	-26.3324E-3	156.986E-12	635.251E-3	-47.5252E-3
4.13457E-3	159.784E-12	660.901E-3	-46.9702E-3	155.623E-12	652.016E-3	-67.8111E-3
4.12956E-3	158.213E-12	656.004E-3	-33.6725E-3	155.252E-12	651.848E-3	-56.3974E-3
4.12456E-3	156.888E-12	638.919E-3	-12.8924E-3	156.266E-12	642.068E-3	-44.9089E-3
4.11956E-3	157.880E-12	642.078E-3	-12.7316E-3	156.547E-12	634.838E-3	-39.3055E-3
4.11456E-3	156.421E-12	629.151E-3	-9.45695E-3	156.120E-12	646.775E-3	-23.6363E-3
4.10955E-3	155.517E-12	606.470E-3	-16.1507E-3	156.912E-12	656.107E-3	10.6426E-3
4.10455E-3	156.773E-12	618.198E-3	-29.9388E-3	157.197E-12	653.153E-3	28.6486E-3
4.09955E-3	156.389E-12	624.968E-3	-12.7361E-3	157.847E-12	661.246E-3	13.3799E-3
4.09455E-3	156.309E-12	620.216E-3	1.72190E-3	158.164E-12	663.449E-3	-5.41015E-3
4.08954E-3	156.422E-12	631.196E-3	3.29891E-3	157.567E-12	649.549E-3	-17.3733E-3
4.08454E-3	156.896E-12	642.317E-3	6.19700E-3	158.616E-12	658.920E-3	-19.2876E-3
4.07954E-3	158.298E-12	643.545E-3	-8.41072E-3	158.364E-12	673.489E-3	-16.0668E-3
4.07454E-3	157.980E-12	638.748E-3	-19.8272E-3	158.230E-12	656.659E-3	-22.5075E-3
4.06953E-3	157.673E-12	629.248E-3	-26.1321E-3	157.325E-12	655.250E-3	-32.2537E-3
4.06453E-3	158.446E-12	658.858E-3	-29.7281E-3	157.366E-12	686.016E-3	-36.3413E-3
4.05953E-3	158.439E-12	697.925E-3	-32.6407E-3	157.252E-12	705.074E-3	-43.9073E-3
4.05453E-3	158.599E-12	693.777E-3	-48.5110E-3	157.535E-12	694.009E-3	-43.8675E-3
4.04952E-3	157.415E-12	675.965E-3	-54.5378E-3	157.928E-12	671.550E-3	-32.5082E-3
4.04452E-3	157.076E-12	655.922E-3	-27.4628E-3	157.448E-12	655.723E-3	-36.1455E-3
4.03952E-3	157.009E-12	639.520E-3	-2.44087E-3	157.335E-12	657.846E-3	-44.2505E-3
4.03452E-3	156.610E-12	643.156E-3	-8.74296E-3	157.673E-12	685.691E-3	-35.4681E-3
4.02951E-3	155.743E-12	654.330E-3	-27.5638E-3	157.784E-12	687.740E-3	-31.8912E-3
4.02451E-3	154.522E-12	664.352E-3	-32.4081E-3	157.379E-12	659.046E-3	-29.5601E-3
4.01951E-3	155.006E-12	678.928E-3	-28.8471E-3	157.118E-12	658.897E-3	-20.9060E-3
4.01451E-3	154.269E-12	683.072E-3	-31.9670E-3	158.102E-12	671.999E-3	-18.1674E-3
4.00950E-3	154.103E-12	682.922E-3	-19.6900E-3	158.276E-12	676.313E-3	-9.91602E-3
4.00450E-3	153.670E-12	681.996E-3	-4.90684E-3	156.659E-12	686.016E-3	-5.96935E-3
3.99950E-3	153.414E-12	681.177E-3	-17.4195E-3	156.251E-12	677.304E-3	-12.5332E-3
3.99450E-3	152.624E-12	678.048E-3	-27.3820E-3	156.140E-12	652.698E-3	8.54247E-3
3.98949E-3	152.969E-12	660.833E-3	-1.35057E-3	154.940E-12	650.418E-3	40.3896E-3
3.98449E-3	154.842E-12	639.672E-3	21.7424E-3	153.491E-12	648.731E-3	24.0348E-3
3.97949E-3	154.532E-12	632.912E-3	24.0813E-3	153.073E-12	642.418E-3	-13.5037E-3
3.97449E-3	155.180E-12	646.696E-3	11.9628E-3	152.138E-12	645.910E-3	-19.4791E-3
3.96948E-3	155.268E-12	654.913E-3	-14.7281E-3	151.461E-12	641.974E-3	-17.4210E-3
3.96448E-3	155.877E-12	654.354E-3	-28.4160E-3	151.232E-12	639.434E-3	-26.6237E-3
3.95948E-3	156.487E-12	668.133E-3	-44.0108E-3	150.942E-12	654.201E-3	-39.8380E-3
3.95448E-3	155.974E-12	685.743E-3	-59.4382E-3	150.397E-12	669.156E-3	-53.3935E-3
3.94947E-3	155.066E-12	695.953E-3	-42.4539E-3	149.960E-12	665.126E-3	-45.8150E-3
3.94447E-3	154.722E-12	697.477E-3	-21.9269E-3	150.332E-12	657.409E-3	-25.4651E-3
3.93947E-3	154.567E-12	683.937E-3	-8.40122E-3	150.469E-12	660.560E-3	-23.0804E-3
3.93447E-3	154.265E-12	659.032E-3	7.89612E-3	150.112E-12	677.741E-3	-24.1996E-3
3.92946E-3	152.761E-12	642.312E-3	-15.8203E-3	149.433E-12	691.393E-3	945.513E-6
3.92446E-3	152.295E-12	652.929E-3	-49.0205E-3	149.212E-12	678.006E-3	26.8643E-3
3.91946E-3	151.037E-12	665.291E-3	-50.0542E-3	150.044E-12	637.450E-3	19.5262E-3
3.91446E-3	150.705E-12	659.483E-3	-35.1524E-3	150.330E-12	618.904E-3	3.90666E-3
3.90945E-3	149.196E-12	665.582E-3	-19.3247E-3	149.856E-12	646.243E-3	11.3907E-3
3.90445E-3	147.851E-12	671.424E-3	-15.8747E-3	148.709E-12	648.649E-3	21.4927E-3
3.89945E-3	148.476E-12	645.860E-3	-35.2293E-3	148.931E-12	641.227E-3	24.7604E-3
3.89445E-3	148.445E-12	612.053E-3	-53.7710E-3	149.513E-12	651.158E-3	8.78292E-3
3.88944E-3	148.137E-12	606.057E-3	-37.6289E-3	148.758E-12	634.189E-3	-15.5756E-3
3.88444E-3	147.364E-12	613.023E-3	-23.2118E-3	147.808E-12	630.890E-3	-25.6445E-3
3.87944E-3	146.969E-12	628.191E-3	-29.9932E-3	147.657E-12	648.671E-3	-47.0347E-3
3.87444E-3	148.198E-12	647.558E-3	-25.3753E-3	147.867E-12	647.242E-3	-43.7863E-3
3.86943E-3	148.341E-12	642.558E-3	-10.9419E-3	148.128E-12	634.811E-3	-11.3775E-3
3.86443E-3	147.794E-12	635.870E-3	-7.42053E-3	147.841E-12	630.935E-3	-12.7322E-3
3.85943E-3	148.088E-12	644.756E-3	-12.1560E-3	147.177E-12	654.359E-3	-31.2433E-3
3.85443E-3	149.368E-12	669.674E-3	-13.6799E-3	147.960E-12	671.160E-3	-22.9593E-3
3.84942E-3	149.424E-12	699.260E-3	-17.2428E-3	148.373E-12	658.438E-3	1.79899E-3
3.84442E-3	148.821E-12	704.987E-3	-24.5102E-3	148.719E-12	658.302E-3	1.94733E-3
3.83942E-3	147.313E-12	695.091E-3	-28.1615E-3	148.250E-12	661.391E-3	-30.3756E-3
3.83442E-3	146.431E-12	688.389E-3	-42.3738E-3	148.291E-12	660.165E-3	-44.4736E-3
3.82941E-3	146.772E-12	690.198E-3	-54.8452E-3	149.752E-12	667.178E-3	-31.5160E-3
3.82441E-3	146.199E-12	696.309E-3	-37.1562E-3	150.024E-12	657.221E-3	-18.4292E-3
3.81941E-3	145.735E-12	675.746E-3	-12.6654E-3	149.078E-12	651.832E-3	8.07795E-3
3.81441E-3	143.882E-12	654.718E-3	-9.82713E-3	147.707E-12	663.529E-3	19.6050E-3
3.80940E-3	144.990E-12	655.781E-3	-24.0030E-3	148.663E-12	672.995E-3	10.7567E-3
3.80440E-3	146.147E-12	645.170E-3	-37.4391E-3	148.348E-12	668.548E-3	-1.55756E-3
3.79940E-3	145.139E-12	626.934E-3	-35.4139E-3	146.755E-12	650.935E-3	-20.0557E-3
3.79440E-3	143.082E-12	623.384E-3	-18.7939E-3	145.252E-12	644.421E-3	-18.6449E-3
3.78939E-3	146.088E-12	643.211E-3	-6.78624E-3	146.157E-12	647.400E-3	-7.94236E-3
3.78439E-3	145.395E-12	672.465E-3	-1.33336E-3	146.364E-12	642.626E-3	-15.2766E-3
3.77939E-3	144.127E-12	680.710E-3	6.60762E-3	144.862E-12	643.798E-3	-27.4642E-3
3.77439E-3	145.506E-12	664.649E-3	2.77448E-3	144.534E-12	660.837E-3	-26.5448E-3
3.76938E-3	146.483E-12	663.075E-3	-18.6568E-3	144.359E-12	668.512E-3	-23.5139E-3
3.76438E-3	145.455E-12	673.008E-3	-40.8249E-3	144.839E-12	655.553E-3	-28.3857E-3
3.75938E-3	145.737E-12	657.178E-3	-51.7855E-3	144.188E-12	645.772E-3	-36.5577E-3
3.75438E-3	147.038E-12	649.642E-3	-40.0403E-3	143.069E-12	658.707E-3	-31.8046E-3
3.74937E-3	145.380E-12	673.024E-3	-17.3311E-3	142.020E-12	670.864E-3	-8.37947E-3
3.74437E-3	146.683E-12	685.176E-3	-13.3782E-3	142.283E-12	661.540E-3	8.74431E-3
3.73937E-3	146.342E-12	677.705E-3	-23.7287E-3	142.541E-12	646.812E-3	4.37946E-3
3.73437E-3	145.862E-12	662.366E-3	-29.7812E-3	142.625E-12	637.125E-3	-5.11975E-3
3.72936E-3	144.528E-12	659.857E-3	-21.2251E-3	141.949E-12	652.617E-3	-3.22460E-3
3.72436E-3	144.348E-12	679.559E-3	-18.2184E-3	140.958E-12	693.553E-3	-7.80978E-3
3.71936E-3	142.432E-12	684.567E-3	-22.2754E-3	140.896E-12	696.806E-3	-14.7276E-3
3.71436E-3	141.296E-12	678.929E-3	-25.4557E-3	141.867E-12	654.420E-3	-6.72523E-3
3.70935E-3	142.361E-12	674.342E-3	-33.7014E-3	141.362E-12	640.439E-3	-12.9825E-3
3.70435E-3	141.267E-12	667.465E-3	-19.1960E-3	140.269E-12	659.931E-3	-36.3282E-3
3.69935E-3	139.354E-12	660.233E-3	688.093E-6	141.501E-12	660.377E-3	-33.6417E-3
3.69435E-3	138.164E-12	646.085E-3	-3.39864E-3	141.330E-12	651.652E-3	-12.0193E-3
3.68934E-3	139.466E-12	648.835E-3	-13.7680E-3	142.073E-12	650.047E-3	-8.64189E-3
3.68434E-3	138.933E-12	661.763E-3	-12.7899E-3	142.387E-12	659.505E-3	-15.3572E-3
3.67934E-3	138.621E-12	662.904E-3	-10.6230E-3	140.595E-12	688.600E-3	-9.24000E-3
3.67434E-3	137.998E-12	660.405E-3	-22.8575E-3	139.917E-12	696.524E-3	6.33299E-3
3.66933E-3	138.144E-12	663.445E-3	-28.2449E-3	142.717E-12	676.467E-3	19.7889E-3
3.66433E-3	139.540E-12	657.881E-3	-23.6698E-3	142.352E-12	668.283E-3	1.05888E-3
3.65933E-3	139.700E-12	643.168E-3	-27.8789E-3	140.220E-12	673.073E-3	-28.8450E-3
3.65433E-3	138.990E-12	653.649E-3	-32.0671E-3	141.259E-12	678.570E-3	-27.6261E-3
3.64932E-3	138.243E-12	672.116E-3	-34.5100E-3	143.131E-12	686.527E-3	-32.5303E-3
3.64432E-3	139.228E-12	661.709E-3	-43.4744E-3	141.822E-12	698.956E-3	-38.5276E-3
3.63932E-3	138.945E-12	653.975E-3	-40.3146E-3	139.869E-12	705.113E-3	-33.0025E-3
3.63432E-3	138.735E-12	653.078E-3	-41.5542E-3	140.716E-12	692.318E-3	-43.7474E-3
3.62931E-3	138.021E-12	647.066E-3	-46.8237E-3	141.087E-12	671.427E-3	-35.4634E-3
3.62431E-3	138.360E-12	652.687E-3	-29.8728E-3	141.666E-12	656.716E-3	-478.228E-6
3.61931E-3	137.848E-12	653.661E-3	-17.5623E-3	140.952E-12	652.613E-3	7.69480E-3
3.61431E-3	137.101E-12	645.087E-3	-20.4814E-3	139.745E-12	656.319E-3	1.96776E-3
3.60930E-3	136.492E-12	648.483E-3	-22.6316E-3	140.784E-12	651.970E-3	6.80200E-3
3.60430E-3	136.009E-12	655.869E-3	-21.4005E-3	140.758E-12	672.133E-3	3.97913E-3
3.59930E-3	135.331E-12	653.768E-3	-15.6826E-3	139.867E-12	706.593E-3	-19.5697E-3
3.59430E-3	135.454E-12	646.777E-3	-5.52624E-3	138.875E-12	694.460E-3	-17.9328E-3
3.58929E-3	135.119E-12	637.679E-3	-170.340E-6	139.157E-12	667.664E-3	2.98573E-3
3.58429E-3	134.339E-12	643.906E-3	-11.2377E-3	139.276E-12	658.773E-3	-20.9002E-3
3.57929E-3	134.392E-12	662.766E-3	-20.1998E-3	137.526E-12	665.799E-3	-31.8782E-3
3.57429E-3	135.644E-12	673.242E-3	-21.7245E-3	136.290E-12	676.300E-3	7.76921E-3
3.56928E-3	135.354E-12	675.216E-3	-37.3142E-3	136.090E-12	655.439E-3	36.1840E-3
3.56428E-3	135.307E-12	672.920E-3	-49.4443E-3	135.952E-12	620.587E-3	31.2557E-3
3.55928E-3	135.812E-12	673.218E-3	-30.6663E-3	134.282E-12	623.561E-3	8.00846E-3
3.55428E-3	137.163E-12	684.569E-3	6.38950E-3	133.383E-12	639.938E-3	-24.7151E-3
3.54927E-3	138.434E-12	690.127E-3	11.2330E-3	132.590E-12	641.997E-3	-43.3828E-3
3.54427E-3	137.739E-12	682.160E-3	-15.5061E-3	132.891E-12	659.963E-3	-32.2716E-3
3.53927E-3	136.420E-12	672.728E-3	-17.4757E-3	132.081E-12	679.820E-3	-15.3814E-3
3.53427E-3	136.968E-12	658.663E-3	-6.14817E-3	130.946E-12	678.428E-3	-15.1675E-3
3.52926E-3	136.874E-12	649.488E-3	-13.6314E-3	130.004E-12	669.913E-3	-25.6631E-3
3.52426E-3	135.950E-12	658.515E-3	-23.0012E-3	130.108E-12	658.425E-3	-34.9637E-3
3.51926E-3	135.557E-12	684.345E-3	-22.3718E-3	131.805E-12	653.355E-3	-26.9455E-3
3.51426E-3	134.690E-12	700.872E-3	-17.5466E-3	131.551E-12	651.491E-3	-9.81487E-3
3.50925E-3	133.582E-12	695.856E-3	-14.1044E-3	129.959E-12	643.891E-3	-13.6882E-3
3.50425E-3	132.559E-12	695.688E-3	-9.35309E-3	130.509E-12	637.120E-3	-20.9627E-3
3.49925E-3	133.517E-12	695.263E-3	-10.7967E-3	131.591E-12	633.092E-3	-18.7113E-3
3.49425E-3	131.300E-12	688.643E-3	-29.3649E-3	131.430E-12	635.806E-3	-24.8564E-3
3.48924E-3	129.732E-12	674.715E-3	-32.8046E-3	130.585E-12	644.455E-3	-30.2571E-3
3.48424E-3	129.721E-12	645.151E-3	-20.1819E-3	131.239E-12	651.741E-3	-15.4772E-3
3.47924E-3	130.720E-12	628.073E-3	-22.3922E-3	131.469E-12	652.550E-3	-6.39220E-3
3.47424E-3	131.164E-12	640.713E-3	-26.1242E-3	131.417E-12	651.598E-3	-10.6455E-3
3.46923E-3	129.698E-12	643.332E-3	-22.6014E-3	130.819E-12	654.062E-3	-4.36761E-3
3.46423E-3	128.870E-12	647.122E-3	-15.6048E-3	130.758E-12	653.149E-3	-11.2152E-3
3.45923E-3	129.501E-12	668.990E-3	-8.01596E-3	130.230E-12	649.150E-3	-24.6831E-3
3.45423E-3	131.545E-12	669.333E-3	-11.5770E-3	129.347E-12	657.518E-3	-29.0022E-3
3.44922E-3	130.718E-12	651.918E-3	-15.6032E-3	129.270E-12	668.839E-3	-40.4921E-3
3.44422E-3	128.813E-12	639.399E-3	-20.8649E-3	129.304E-12	659.005E-3	-42.9249E-3
3.43922E-3	130.165E-12	651.193E-3	-31.0726E-3	128.914E-12	645.766E-3	-30.3432E-3
3.43422E-3	131.809E-12	671.666E-3	-35.7895E-3	128.900E-12	649.274E-3	-29.3821E-3
3.42921E-3	131.087E-12	677.460E-3	-48.2312E-3	129.978E-12	658.856E-3	-37.2538E-3
3.42421E-3	129.561E-12	671.022E-3	-54.6493E-3	128.920E-12	660.968E-3	-36.8193E-3
3.41921E-3	129.791E-12	661.261E-3	-42.7608E-3	129.232E-12	663.284E-3	-26.2752E-3
3.41421E-3	129.181E-12	669.031E-3	-34.7090E-3	129.857E-12	670.880E-3	-12.2938E-3
3.40920E-3	130.218E-12	683.919E-3	-29.8930E-3	130.195E-12	671.805E-3	-5.82572E-3
3.40420E-3	129.608E-12	685.942E-3	-21.3442E-3	129.760E-12	674.742E-3	-20.5466E-3
3.39920E-3	126.651E-12	681.016E-3	-8.36343E-3	129.875E-12	687.962E-3	-45.7057E-3
3.39420E-3	124.948E-12	681.410E-3	6.61857E-3	130.727E-12	700.616E-3	-40.3957E-3
3.38919E-3	126.975E-12	682.310E-3	12.7892E-3	131.053E-12	701.852E-3	-5.46041E-3
3.38419E-3	127.634E-12	675.336E-3	14.4302E-3	130.709E-12	684.196E-3	2.57561E-3
3.37919E-3	125.341E-12	674.968E-3	10.6878E-3	129.559E-12	653.072E-3	-11.2438E-3
3.37419E-3	124.190E-12	677.539E-3	-4.36259E-3	129.921E-12	649.167E-3	-31.5491E-3
3.36918E-3	126.080E-12	660.793E-3	-11.2530E-3	130.045E-12	662.447E-3	-67.2678E-3
3.36418E-3	127.470E-12	640.040E-3	-13.5830E-3	127.935E-12	658.553E-3	-76.4848E-3
3.35918E-3	127.530E-12	637.766E-3	-21.9215E-3	126.650E-12	654.837E-3	-42.0394E-3
3.35418E-3	126.216E-12	645.447E-3	-19.7401E-3	127.171E-12	655.210E-3	-11.7006E-3
3.34917E-3	126.777E-12	645.612E-3	-10.5092E-3	126.093E-12	657.622E-3	-7.07156E-3
3.34417E-3	127.283E-12	644.236E-3	1.84889E-3	124.832E-12	677.499E-3	-8.69685E-3
3.33917E-3	128.566E-12	653.857E-3	14.1125E-3	125.317E-12	699.070E-3	-9.99306E-3
3.33417E-3	127.823E-12	672.472E-3	12.6691E-3	124.881E-12	685.580E-3	2.71377E-3
3.32916E-3	126.261E-12	676.824E-3	-4.41852E-3	123.230E-12	666.490E-3	22.0789E-3
3.32416E-3	126.974E-12	668.862E-3	-26.3758E-3	123.577E-12	661.536E-3	2.72592E-3
3.31916E-3	127.965E-12	679.478E-3	-41.1564E-3	123.546E-12	651.827E-3	-39.0191E-3
3.31416E-3	127.528E-12	684.308E-3	-38.6130E-3	122.419E-12	663.663E-3	-42.0535E-3
3.30915E-3	125.479E-12	665.690E-3	-39.6131E-3	122.317E-12	681.557E-3	-29.6000E-3
3.30415E-3	124.263E-12	650.290E-3	-39.9457E-3	123.130E-12	670.646E-3	-24.5726E-3
3.29915E-3	124.298E-12	649.556E-3	-17.5769E-3	122.775E-12	657.957E-3	-26.4720E-3
3.29415E-3	124.947E-12	651.813E-3	-3.43961E-3	122.075E-12	661.575E-3	-49.3374E-3
3.28914E-3	123.333E-12	659.144E-3	-3.51635E-3	121.846E-12	673.759E-3	-48.6202E-3
3.28414E-3	121.054E-12	655.313E-3	-11.9723E-3	122.632E-12	686.807E-3	-16.1004E-3
3.27914E-3	121.552E-12	636.572E-3	-33.2597E-3	122.718E-12	687.705E-3	-1.32788E-3
3.27414E-3	121.595E-12	629.798E-3	-37.2845E-3	121.742E-12	679.793E-3	-10.7740E-3
3.26913E-3	121.587E-12	653.480E-3	-14.5802E-3	121.428E-12	682.449E-3	-18.2501E-3
3.26413E-3	120.638E-12	692.400E-3	5.65908E-3	122.354E-12	680.849E-3	-15.3582E-3
3.25913E-3	120.548E-12	682.743E-3	2.25583E-3	122.443E-12	667.602E-3	-16.2787E-3
3.25413E-3	121.010E-12	642.765E-3	-24.7245E-3	121.379E-12	653.589E-3	-15.5415E-3
3.24912E-3	121.263E-12	633.154E-3	-35.0492E-3	120.755E-12	644.965E-3	-16.8207E-3
3.24412E-3	121.928E-12	645.676E-3	-20.7596E-3	120.638E-12	639.740E-3	-23.6738E-3
3.23912E-3	120.735E-12	658.214E-3	-20.3657E-3	122.056E-12	641.425E-3	-20.1059E-3
3.23412E-3	121.165E-12	664.015E-3	-22.7823E-3	121.691E-12	677.184E-3	-7.34193E-3
3.22911E-3	122.134E-12	670.687E-3	-29.5557E-3	119.890E-12	714.255E-3	-4.83955E-3
3.22411E-3	121.993E-12	671.407E-3	-44.1105E-3	119.438E-12	703.801E-3	-10.5285E-3
3.21911E-3	121.575E-12	660.074E-3	-34.6227E-3	121.297E-12	685.368E-3	-7.78880E-3
3.21411E-3	121.812E-12	668.276E-3	-15.2727E-3	121.118E-12	679.187E-3	-5.39921E-3
3.20910E-3	121.500E-12	688.506E-3	-288.094E-6	119.395E-12	672.100E-3	1.46348E-3
3.20410E-3	121.390E-12	673.032E-3	5.49413E-3	118.922E-12	680.112E-3	10.1110E-3
3.19910E-3	120.431E-12	650.073E-3	-10.7185E-3	119.743E-12	678.183E-3	-6.78381E-3
3.19410E-3	120.066E-12	663.484E-3	-27.9625E-3	120.017E-12	658.198E-3	-28.1891E-3
3.18909E-3	119.543E-12	682.288E-3	-23.4500E-3	120.618E-12	669.937E-3	-24.2017E-3
3.18409E-3	119.192E-12	671.343E-3	8.18572E-3	119.504E-12	701.501E-3	-7.01090E-3
3.17909E-3	118.052E-12	649.563E-3	31.7090E-3	118.876E-12	703.119E-3	294.572E-6
3.17409E-3	117.476E-12	658.627E-3	14.1792E-3	119.868E-12	683.106E-3	-6.00498E-3
3.16908E-3	116.571E-12	685.216E-3	-4.53799E-3	119.983E-12	672.644E-3	-19.2018E-3
3.16408E-3	116.473E-12	691.210E-3	-9.81212E-3	118.810E-12	674.198E-3	-23.5539E-3
3.15908E-3	116.387E-12	683.500E-3	-17.6359E-3	118.610E-12	684.369E-3	-7.06618E-3
3.15408E-3	116.678E-12	673.856E-3	-19.8746E-3	118.726E-12	684.719E-3	-522.033E-6
3.14907E-3	115.989E-12	653.987E-3	-8.12025E-3	118.746E-12	668.016E-3	-9.23898E-3
3.14407E-3	116.052E-12	641.666E-3	-6.82958E-3	118.104E-12	657.200E-3	-20.8753E-3
3.13907E-3	116.359E-12	650.755E-3	-26.2914E-3	116.902E-12	657.519E-3	-49.9352E-3
3.13407E-3	117.238E-12	661.931E-3	-40.5636E-3	116.193E-12	650.046E-3	-48.9920E-3
3.12906E-3	116.838E-12	673.840E-3	-38.7647E-3	116.046E-12	631.461E-3	-11.4772E-3
3.12406E-3	116.264E-12	684.910E-3	-25.6260E-3	115.402E-12	622.496E-3	-6.11639E-3
3.11906E-3	117.053E-12	683.298E-3	-15.5201E-3	114.902E-12	636.031E-3	-23.9319E-3
3.11406E-3	118.317E-12	679.940E-3	-16.2428E-3	113.904E-12	655.637E-3	-34.1231E-3
3.10905E-3	117.070E-12	686.500E-3	-22.2531E-3	113.473E-12	675.233E-3	-32.9442E-3
3.10405E-3	115.949E-12	700.687E-3	-28.3877E-3	114.229E-12	694.589E-3	-15.1204E-3
3.09905E-3	116.476E-12	688.068E-3	-30.3789E-3	114.521E-12	698.172E-3	-2.28041E-3
3.09405E-3	116.252E-12	669.228E-3	-15.2377E-3	113.348E-12	693.214E-3	-9.14257E-3
3.08904E-3	114.400E-12	677.488E-3	475.900E-6	112.256E-12	679.971E-3	-16.2507E-3
3.08404E-3	113.951E-12	685.467E-3	-13.5398E-3	113.303E-12	656.287E-3	-23.9136E-3
3.07904E-3	113.255E-12	679.851E-3	-43.8692E-3	113.737E-12	651.944E-3	-43.1173E-3
3.07404E-3	112.464E-12	660.802E-3	-47.6176E-3	113.489E-12	649.521E-3	-40.8463E-3
3.06903E-3	112.284E-12	644.021E-3	-25.8046E-3	113.759E-12	641.483E-3	-4.09365E-3
3.06403E-3	111.614E-12	638.621E-3	-8.98430E-3	114.057E-12	664.546E-3	-9.62497E-3
3.05903E-3	110.428E-12	630.437E-3	-13.1988E-3	113.931E-12	688.001E-3	-43.0988E-3
3.05403E-3	111.779E-12	616.788E-3	-29.5837E-3	112.930E-12	686.840E-3	-25.1982E-3
3.04902E-3	110.665E-12	633.623E-3	-31.4826E-3	112.692E-12	684.612E-3	-4.70753E-3
3.04402E-3	110.032E-12	677.635E-3	-17.6947E-3	113.111E-12	673.625E-3	-19.4720E-3
3.03902E-3	110.946E-12	700.379E-3	1.10556E-3	112.932E-12	670.169E-3	-36.6320E-3
3.03402E-3	112.777E-12	699.486E-3	3.31492E-3	112.324E-12	690.104E-3	-41.9419E-3
3.02901E-3	111.845E-12	699.869E-3	-13.1033E-3	112.931E-12	695.301E-3	-6.23120E-3
3.02401E-3	111.156E-12	701.446E-3	-4.97511E-3	113.144E-12	687.193E-3	30.6912E-3
3.01901E-3	111.550E-12	687.038E-3	13.3282E-3	111.825E-12	682.158E-3	13.2357E-3
3.01401E-3	111.822E-12	680.072E-3	10.6516E-3	110.283E-12	671.027E-3	-12.4503E-3
3.00900E-3	111.770E-12	689.854E-3	-7.24907E-3	111.287E-12	669.226E-3	-19.4982E-3
3.00400E-3	111.207E-12	691.655E-3	-29.0957E-3	111.717E-12	691.238E-3	-13.0444E-3
2.99900E-3	110.670E-12	693.759E-3	-37.8517E-3	110.997E-12	712.303E-3	-10.4672E-3
2.99400E-3	110.510E-12	703.422E-3	-39.2116E-3	110.169E-12	702.754E-3	-15.6357E-3
2.98899E-3	110.659E-12	703.440E-3	-41.2172E-3	110.427E-12	680.459E-3	-20.6851E-3
2.98399E-3	109.058E-12	678.304E-3	-29.2765E-3	111.243E-12	673.007E-3	-28.9783E-3
2.97899E-3	108.119E-12	658.708E-3	-8.59567E-3	111.422E-12	672.405E-3	-27.1425E-3
2.97399E-3	107.462E-12	679.383E-3	-13.9399E-3	110.718E-12	680.758E-3	-27.1938E-3
2.96898E-3	107.852E-12	694.904E-3	-33.2102E-3	110.236E-12	686.959E-3	-32.5580E-3
2.96398E-3	108.057E-12	679.941E-3	-34.1842E-3	110.482E-12	674.667E-3	-20.8469E-3
2.95898E-3	106.964E-12	677.493E-3	-34.0592E-3	110.966E-12	671.611E-3	217.320E-6
2.95398E-3	106.663E-12	692.069E-3	-25.5644E-3	110.630E-12	683.221E-3	6.91438E-3
2.94897E-3	107.411E-12	688.559E-3	-6.99226E-3	109.021E-12	689.227E-3	11.4424E-3
2.94397E-3	107.618E-12	667.985E-3	-10.2514E-3	107.987E-12	685.194E-3	11.1138E-3
2.93897E-3	107.867E-12	671.347E-3	-13.3480E-3	108.906E-12	677.885E-3	-20.3302E-3
2.93397E-3	108.038E-12	686.454E-3	-4.62231E-3	109.051E-12	676.979E-3	-44.1019E-3
2.92896E-3	107.747E-12	686.388E-3	-4.81130E-3	107.459E-12	692.537E-3	-27.3420E-3
2.92396E-3	107.772E-12	681.468E-3	-9.28876E-3	106.642E-12	702.948E-3	-14.1976E-3
2.91896E-3	108.854E-12	678.088E-3	-12.9179E-3	106.300E-12	673.899E-3	-28.9753E-3
2.91396E-3	107.743E-12	682.608E-3	-24.5619E-3	106.167E-12	647.439E-3	-29.9270E-3
2.90895E-3	107.197E-12	698.804E-3	-23.0456E-3	105.850E-12	660.431E-3	-14.0264E-3
2.90395E-3	107.065E-12	716.055E-3	-11.6380E-3	105.369E-12	676.278E-3	-8.25493E-3
2.89895E-3	107.705E-12	714.478E-3	-25.6672E-3	103.862E-12	675.863E-3	-1.58005E-3
2.89395E-3	107.024E-12	709.361E-3	-31.7804E-3	104.922E-12	669.886E-3	-10.6299E-3
2.88894E-3	106.219E-12	706.425E-3	-4.03363E-3	105.499E-12	656.526E-3	-42.7045E-3
2.88394E-3	105.038E-12	695.282E-3	10.6329E-3	104.025E-12	651.604E-3	-47.0452E-3
2.87894E-3	105.287E-12	693.398E-3	-6.88735E-3	103.764E-12	667.844E-3	-30.9601E-3
2.87394E-3	105.660E-12	693.537E-3	-29.5807E-3	104.694E-12	675.099E-3	-28.4550E-3
2.86893E-3	103.960E-12	679.400E-3	-39.5694E-3	104.719E-12	667.310E-3	-21.6574E-3
2.86393E-3	102.810E-12	674.187E-3	-29.8855E-3	103.816E-12	669.588E-3	-10.0128E-3
2.85893E-3	102.898E-12	680.341E-3	-13.5118E-3	103.561E-12	691.118E-3	-7.27059E-3
2.85393E-3	102.930E-12	677.649E-3	-9.70653E-3	103.393E-12	716.937E-3	-8.16670E-3
2.84892E-3	102.508E-12	666.404E-3	-20.2858E-3	103.827E-12	716.866E-3	-13.4953E-3
2.84392E-3	101.527E-12	659.949E-3	-26.1479E-3	104.289E-12	688.128E-3	-5.79034E-3
2.83892E-3	101.401E-12	665.160E-3	-17.1742E-3	103.192E-12	669.527E-3	19.5733E-3
2.83392E-3	101.715E-12	667.668E-3	-2.44608E-3	102.868E-12	675.290E-3	18.9603E-3
2.82891E-3	102.602E-12	666.356E-3	6.52850E-3	103.715E-12	692.489E-3	-3.32648E-3
2.82391E-3	101.406E-12	666.743E-3	2.81820E-3	103.910E-12	711.401E-3	-13.8073E-3
2.81891E-3	101.058E-12	677.807E-3	3.71067E-3	101.843E-12	706.281E-3	-11.7713E-3
2.81391E-3	101.065E-12	692.557E-3	6.17739E-3	101.529E-12	674.955E-3	-11.9252E-3
2.80890E-3	101.637E-12	691.093E-3	-7.80413E-3	101.931E-12	649.176E-3	-12.9670E-3
2.80390E-3	100.867E-12	698.832E-3	-26.4873E-3	101.638E-12	670.121E-3	3.09309E-3
2.79890E-3	100.925E-12	722.516E-3	-28.4287E-3	101.271E-12	709.543E-3	14.8739E-3
2.79390E-3	100.927E-12	713.783E-3	-9.25940E-3	100.412E-12	698.242E-3	16.8536E-3
2.78889E-3	100.817E-12	697.357E-3	2.97949E-3	100.453E-12	673.739E-3	3.71501E-3
2.78389E-3	100.088E-12	703.202E-3	-7.29065E-3	101.212E-12	675.160E-3	-36.2792E-3
2.77889E-3	100.110E-12	695.650E-3	-24.2648E-3	100.677E-12	682.249E-3	-41.7393E-3
2.77389E-3	100.334E-12	685.282E-3	-26.3429E-3	99.6624E-12	697.206E-3	-10.5579E-3
2.76888E-3	100.083E-12	682.049E-3	-10.1970E-3	100.066E-12	699.928E-3	-9.10991E-3
2.76388E-3	99.6726E-12	673.027E-3	-10.6254E-3	100.511E-12	692.079E-3	-20.3348E-3
2.75888E-3	98.6544E-12	674.287E-3	-27.2182E-3	100.923E-12	713.460E-3	-22.2873E-3
2.75388E-3	98.5243E-12	691.683E-3	-20.7688E-3	100.465E-12	738.917E-3	-37.4487E-3
2.74887E-3	98.5473E-12	693.168E-3	787.615E-6	99.7354E-12	722.218E-3	-45.9472E-3
2.74387E-3	98.1320E-12	678.876E-3	9.13190E-3	99.7559E-12	701.471E-3	-26.0907E-3
2.73887E-3	97.3506E-12	679.468E-3	-2.97366E-3	99.2481E-12	707.894E-3	-11.0785E-3
2.73387E-3	97.0318E-12	688.981E-3	-12.6321E-3	99.4157E-12	704.894E-3	-23.5833E-3
2.72886E-3	97.2877E-12	692.933E-3	-17.4367E-3	98.3893E-12	698.449E-3	-27.8893E-3
2.72386E-3	96.8405E-12	700.367E-3	-25.9988E-3	97.2429E-12	701.510E-3	-25.4917E-3
2.71886E-3	96.7059E-12	707.476E-3	-11.5982E-3	97.5181E-12	688.503E-3	-42.6787E-3
2.71386E-3	96.3754E-12	694.553E-3	-2.94666E-3	97.2861E-12	670.178E-3	-46.5776E-3
2.70885E-3	97.5299E-12	673.219E-3	-21.0895E-3	95.9013E-12	668.790E-3	-39.9856E-3
2.70385E-3	97.9489E-12	666.283E-3	-26.7677E-3	94.7178E-12	682.432E-3	-30.0174E-3
2.69885E-3	97.4821E-12	668.700E-3	-28.9210E-3	94.9578E-12	703.880E-3	-3.74429E-3
2.69385E-3	97.2425E-12	673.723E-3	-35.5130E-3	95.0497E-12	711.969E-3	2.26998E-3
2.68884E-3	97.2872E-12	675.164E-3	-29.3757E-3	94.5927E-12	694.841E-3	-9.42977E-3
2.68384E-3	97.9831E-12	672.400E-3	-21.7056E-3	93.6621E-12	675.763E-3	-12.6184E-3
2.67884E-3	96.9550E-12	685.699E-3	-23.0401E-3	93.4121E-12	689.718E-3	-16.6224E-3
2.67384E-3	96.1309E-12	703.397E-3	-24.1615E-3	93.8248E-12	708.081E-3	-21.8638E-3
2.66883E-3	96.2275E-12	706.506E-3	-25.1477E-3	93.6387E-12	694.950E-3	-14.8165E-3
2.66383E-3	95.6628E-12	704.570E-3	-31.0637E-3	93.3909E-12	693.700E-3	-4.30504E-3
2.65883E-3	94.5604E-12	708.141E-3	-24.7536E-3	93.1543E-12	708.094E-3	-18.4299E-3
2.65383E-3	94.2169E-12	714.338E-3	-15.4074E-3	93.5509E-12	707.247E-3	-33.9119E-3
2.64882E-3	93.9924E-12	708.731E-3	-12.6433E-3	93.6578E-12	703.151E-3	-33.4004E-3
2.64382E-3	92.8353E-12	691.536E-3	-20.5405E-3	93.9250E-12	699.694E-3	-24.3298E-3
2.63882E-3	92.2774E-12	684.878E-3	-33.6788E-3	93.6582E-12	690.816E-3	10.8183E-3
2.63382E-3	92.9398E-12	694.299E-3	-26.9749E-3	93.6937E-12	696.699E-3	23.9668E-3
2.62881E-3	92.5799E-12	701.280E-3	-3.48809E-3	94.2593E-12	702.840E-3	-13.8049E-3
2.62381E-3	92.2050E-12	709.096E-3	15.8289E-3	94.1362E-12	690.826E-3	-39.1757E-3
2.61881E-3	92.2683E-12	720.486E-3	7.03048E-3	93.8021E-12	692.473E-3	-24.3969E-3
2.61381E-3	92.0676E-12	713.451E-3	-4.57723E-3	92.5757E-12	698.164E-3	-12.8815E-3
2.60880E-3	92.1746E-12	695.253E-3	1.79747E-3	92.6201E-12	693.191E-3	-21.7363E-3
2.60380E-3	92.8752E-12	696.520E-3	2.73527E-3	92.1406E-12	698.693E-3	-23.5040E-3
2.59880E-3	93.2761E-12	714.818E-3	-208.471E-6	92.2063E-12	708.266E-3	-12.4246E-3
2.59380E-3	92.2004E-12	712.940E-3	-4.32627E-3	91.9027E-12	716.404E-3	5.54020E-3
2.58879E-3	91.8611E-12	699.005E-3	-17.5300E-3	91.4026E-12	734.311E-3	19.5995E-3
2.58379E-3	91.5811E-12	701.500E-3	-19.5992E-3	91.6317E-12	724.943E-3	14.1455E-3
2.57879E-3	91.9829E-12	706.284E-3	2.19628E-3	91.7776E-12	686.613E-3	5.34327E-3
2.57379E-3	90.7636E-12	709.609E-3	3.02570E-3	91.4182E-12	696.220E-3	5.98254E-3
2.56878E-3	89.5927E-12	710.274E-3	-14.1192E-3	90.6325E-12	739.093E-3	-15.5551E-3
2.56378E-3	89.1853E-12	702.274E-3	-8.96542E-3	90.7435E-12	741.212E-3	-37.0952E-3
2.55878E-3	88.5753E-12	698.858E-3	3.57983E-3	90.3736E-12	726.175E-3	-32.1685E-3
2.55378E-3	87.8089E-12	693.947E-3	8.29783E-3	90.5647E-12	715.605E-3	-33.1258E-3
2.54877E-3	87.3774E-12	686.109E-3	8.65967E-3	91.4148E-12	697.453E-3	-32.0001E-3
2.54377E-3	86.9843E-12	690.772E-3	6.06978E-3	89.9460E-12	703.128E-3	-13.4820E-3
2.53877E-3	86.4936E-12	696.393E-3	1.18862E-3	89.3128E-12	709.634E-3	-14.3865E-3
2.53377E-3	86.0482E-12	692.530E-3	-8.54811E-3	89.8666E-12	696.647E-3	-29.5108E-3
2.52876E-3	85.9258E-12	688.379E-3	-27.1521E-3	89.9344E-12	701.295E-3	-23.0028E-3
2.52376E-3	86.0962E-12	690.519E-3	-35.3385E-3	88.6528E-12	713.452E-3	-33.3212E-3
2.51876E-3	86.2259E-12	690.290E-3	-30.3335E-3	87.8989E-12	716.598E-3	-43.5893E-3
2.51376E-3	86.0448E-12	681.735E-3	-34.6689E-3	87.2822E-12	720.776E-3	-14.1290E-3
2.50875E-3	86.5996E-12	684.375E-3	-36.5663E-3	86.7313E-12	735.601E-3	-1.99431E-3
2.50375E-3	87.0510E-12	694.207E-3	-27.8358E-3	86.5642E-12	729.051E-3	-24.0268E-3
2.49875E-3	87.0321E-12	710.849E-3	-23.9193E-3	85.7599E-12	703.108E-3	-40.4523E-3
2.49375E-3	87.2189E-12	734.736E-3	-33.0252E-3	85.1546E-12	709.196E-3	-45.2226E-3
2.48874E-3	87.2776E-12	735.849E-3	-40.7012E-3	85.1680E-12	717.074E-3	-42.4179E-3
2.48374E-3	86.6996E-12	729.734E-3	-37.8223E-3	85.0943E-12	700.197E-3	-26.7692E-3
2.47874E-3	86.5131E-12	731.667E-3	-30.7054E-3	84.4736E-12	693.971E-3	-25.4672E-3
2.47374E-3	86.6087E-12	730.968E-3	-13.6224E-3	83.6993E-12	703.276E-3	-49.5484E-3
2.46873E-3	85.9801E-12	723.908E-3	1.62441E-3	83.4797E-12	712.408E-3	-50.4226E-3
2.46373E-3	84.9706E-12	709.774E-3	-2.23574E-3	83.5259E-12	713.278E-3	-24.6277E-3
2.45873E-3	84.5351E-12	704.162E-3	-14.0851E-3	83.7378E-12	704.797E-3	-16.7683E-3
2.45373E-3	84.5287E-12	708.684E-3	-15.2534E-3	83.0699E-12	703.190E-3	-17.6683E-3
2.44872E-3	84.2603E-12	717.348E-3	-2.65324E-3	83.4371E-12	726.884E-3	-15.7536E-3
2.44372E-3	83.6082E-12	725.219E-3	12.5010E-3	83.5675E-12	745.519E-3	-24.8165E-3
2.43872E-3	82.9563E-12	720.798E-3	16.5925E-3	84.4021E-12	737.158E-3	-27.6270E-3
2.43372E-3	83.7322E-12	707.654E-3	-3.44383E-3	84.1929E-12	726.310E-3	-21.7076E-3
2.42871E-3	83.4744E-12	702.490E-3	-31.8773E-3	83.3638E-12	714.858E-3	-18.7430E-3
2.42371E-3	83.5464E-12	702.169E-3	-45.1719E-3	83.2396E-12	708.441E-3	-14.6500E-3
2.41871E-3	82.9686E-12	708.998E-3	-43.0930E-3	83.4240E-12	713.610E-3	-4.32804E-3
2.41371E-3	83.1834E-12	725.396E-3	-26.5902E-3	83.2416E-12	717.949E-3	2.37299E-3
2.40870E-3	82.3594E-12	735.683E-3	-21.2245E-3	82.8650E-12	716.336E-3	-12.7300E-3
2.40370E-3	82.4583E-12	745.511E-3	-34.2540E-3	82.8789E-12	717.651E-3	-46.4317E-3
2.39870E-3	82.3319E-12	752.772E-3	-33.5005E-3	81.8855E-12	727.266E-3	-60.3338E-3
2.39370E-3	81.7156E-12	751.289E-3	-18.8758E-3	81.9438E-12	725.126E-3	-36.5615E-3
2.38869E-3	82.4605E-12	745.925E-3	-13.7525E-3	82.0188E-12	714.050E-3	-19.6329E-3
2.38369E-3	82.9487E-12	745.183E-3	-26.3304E-3	80.9690E-12	717.162E-3	-22.4589E-3
2.37869E-3	82.4216E-12	747.293E-3	-42.7993E-3	80.2996E-12	731.695E-3	-14.7949E-3
2.37369E-3	81.2810E-12	742.829E-3	-51.6193E-3	80.5886E-12	751.022E-3	-7.77223E-3
2.36868E-3	81.4914E-12	741.359E-3	-43.9430E-3	80.7346E-12	759.707E-3	-27.3570E-3
2.36368E-3	81.7199E-12	745.913E-3	-30.6548E-3	80.0617E-12	747.673E-3	-35.7199E-3
2.35868E-3	81.2673E-12	742.665E-3	-29.9417E-3	80.3134E-12	737.062E-3	-8.28592E-3
2.35368E-3	80.5132E-12	737.083E-3	-30.5386E-3	80.3863E-12	737.816E-3	3.29980E-3
2.34867E-3	80.4652E-12	738.687E-3	-24.7899E-3	80.9935E-12	745.201E-3	-9.80490E-3
2.34367E-3	79.9357E-12	737.200E-3	-20.3813E-3	80.8369E-12	760.739E-3	-12.0122E-3
2.33867E-3	79.1004E-12	738.845E-3	-12.7539E-3	80.0033E-12	773.602E-3	-5.79626E-3
2.33367E-3	79.2681E-12	739.884E-3	-5.99541E-3	80.1005E-12	758.532E-3	-8.22005E-3
2.32866E-3	78.8705E-12	731.569E-3	-7.92013E-3	80.8638E-12	724.361E-3	-11.2002E-3
2.32366E-3	78.7042E-12	732.885E-3	-11.3159E-3	80.4477E-12	714.716E-3	-19.8113E-3
2.31866E-3	78.3198E-12	736.647E-3	-10.7324E-3	79.9740E-12	721.821E-3	-32.7675E-3
2.31366E-3	78.1221E-12	735.497E-3	-11.3673E-3	79.1329E-12	724.227E-3	-27.4186E-3
2.30865E-3	77.4009E-12	741.343E-3	-20.0988E-3	78.9036E-12	728.088E-3	-10.2820E-3
2.30365E-3	77.3399E-12	744.686E-3	-26.2188E-3	78.5279E-12	716.359E-3	-10.1431E-3
2.29865E-3	77.6143E-12	735.641E-3	-20.8306E-3	78.3726E-12	704.819E-3	-17.9123E-3
2.29365E-3	77.2361E-12	730.042E-3	-14.6806E-3	76.8785E-12	714.140E-3	-23.8078E-3
2.28864E-3	77.4725E-12	727.191E-3	-22.2514E-3	75.7539E-12	714.019E-3	-40.6457E-3
2.28364E-3	77.1674E-12	725.502E-3	-36.9980E-3	75.5223E-12	714.838E-3	-39.3064E-3
2.27864E-3	77.0932E-12	737.759E-3	-42.2739E-3	75.1793E-12	732.669E-3	-20.3576E-3
2.27364E-3	77.2632E-12	753.752E-3	-32.0980E-3	74.5492E-12	735.950E-3	-5.38129E-3
2.26863E-3	77.5745E-12	756.704E-3	-18.8407E-3	74.1923E-12	733.792E-3	-484.191E-6
2.26363E-3	76.5261E-12	757.920E-3	-14.7860E-3	73.2470E-12	743.042E-3	-22.4512E-3
2.25863E-3	75.8196E-12	764.669E-3	-17.3172E-3	73.3304E-12	735.652E-3	-35.5529E-3
2.25363E-3	75.9840E-12	755.067E-3	-25.3766E-3	73.9871E-12	726.901E-3	-11.9322E-3
2.24862E-3	75.9175E-12	745.605E-3	-21.4388E-3	74.2536E-12	743.834E-3	1.10391E-3
2.24362E-3	75.0136E-12	743.905E-3	-1.04482E-3	73.1793E-12	750.189E-3	-10.8670E-3
2.23862E-3	74.4244E-12	739.707E-3	6.21179E-3	73.6493E-12	734.263E-3	-11.9012E-3
2.23362E-3	74.1667E-12	747.796E-3	1.95085E-3	73.7102E-12	736.642E-3	-3.26450E-3
2.22861E-3	73.0903E-12	763.781E-3	-890.320E-6	74.1251E-12	752.390E-3	-338.179E-6
2.22361E-3	73.0154E-12	763.409E-3	-10.9027E-3	73.4240E-12	751.487E-3	-4.92099E-3
2.21861E-3	72.1616E-12	752.593E-3	-31.4831E-3	73.6269E-12	751.563E-3	-13.5307E-3
2.21361E-3	71.3763E-12	756.553E-3	-35.2388E-3	73.2889E-12	768.444E-3	-20.1494E-3
2.20860E-3	71.3699E-12	763.961E-3	-19.7651E-3	73.0695E-12	782.168E-3	-7.50843E-3
2.20360E-3	71.6786E-12	767.860E-3	-13.2689E-3	73.0023E-12	779.796E-3	12.8249E-3
2.19860E-3	71.3487E-12	763.681E-3	-2.69810E-3	72.5195E-12	769.171E-3	-2.19288E-3
2.19360E-3	70.7375E-12	743.759E-3	2.41276E-3	71.9143E-12	761.145E-3	-26.4968E-3
2.18859E-3	71.0760E-12	741.767E-3	-13.3673E-3	71.5706E-12	767.263E-3	-32.0739E-3
2.18359E-3	71.4947E-12	756.912E-3	-25.6029E-3	71.9109E-12	786.665E-3	-35.2668E-3
2.17859E-3	71.9878E-12	752.022E-3	-27.0897E-3	71.2686E-12	791.375E-3	-22.3726E-3
2.17359E-3	71.1233E-12	744.104E-3	-27.8006E-3	70.9431E-12	775.527E-3	-9.95464E-3
2.16858E-3	71.1732E-12	744.884E-3	-34.1019E-3	70.6802E-12	763.053E-3	-25.9357E-3
2.16358E-3	71.6275E-12	739.387E-3	-42.4357E-3	70.5548E-12	755.418E-3	-31.6561E-3
2.15858E-3	72.1762E-12	750.718E-3	-37.1355E-3	70.4945E-12	759.974E-3	-20.1054E-3
2.15358E-3	71.2861E-12	785.449E-3	-27.2925E-3	70.3428E-12	776.059E-3	-27.8732E-3
2.14857E-3	70.1594E-12	798.381E-3	-23.1904E-3	69.8176E-12	776.148E-3	-36.2077E-3
2.14357E-3	70.3488E-12	788.220E-3	-20.9688E-3	69.7894E-12	769.854E-3	-23.1361E-3
2.13857E-3	70.1195E-12	788.457E-3	-18.0022E-3	70.2078E-12	774.180E-3	-18.0283E-3
2.13357E-3	69.6028E-12	786.236E-3	-19.5796E-3	69.5566E-12	772.783E-3	-23.6471E-3
2.12856E-3	68.1639E-12	779.100E-3	-33.1071E-3	69.0715E-12	765.868E-3	-19.3035E-3
2.12356E-3	68.0470E-12	779.656E-3	-28.6425E-3	69.3002E-12	760.050E-3	-13.8427E-3
2.11856E-3	68.3000E-12	775.360E-3	-3.35358E-3	69.3785E-12	750.257E-3	-15.1465E-3
2.11356E-3	67.6045E-12	763.032E-3	5.02093E-3	68.9551E-12	760.495E-3	-13.7713E-3
2.10855E-3	66.3834E-12	763.220E-3	1.39410E-3	68.9325E-12	794.863E-3	-16.6072E-3
2.10355E-3	66.1618E-12	768.087E-3	-2.19011E-3	68.3628E-12	809.977E-3	-21.7804E-3
2.09855E-3	66.4560E-12	764.237E-3	-20.8545E-3	67.7069E-12	806.608E-3	-2.12581E-3
2.09355E-3	66.4805E-12	768.503E-3	-37.6126E-3	67.6910E-12	794.555E-3	7.46865E-3
2.08854E-3	66.5097E-12	777.939E-3	-25.0375E-3	67.0897E-12	763.567E-3	-11.2126E-3
2.08354E-3	66.3859E-12	777.464E-3	-13.0609E-3	66.1264E-12	761.054E-3	-8.56774E-3
2.07854E-3	66.3273E-12	775.770E-3	-15.2475E-3	65.6482E-12	783.561E-3	7.68863E-3
2.07354E-3	66.4079E-12	783.916E-3	-19.8751E-3	65.5875E-12	770.553E-3	8.58842E-3
2.06853E-3	66.9231E-12	780.566E-3	-32.5219E-3	65.1962E-12	755.152E-3	1.74236E-3
2.06353E-3	66.5618E-12	774.344E-3	-40.9319E-3	64.3746E-12	775.059E-3	-9.21729E-3
2.05853E-3	66.4894E-12	787.278E-3	-39.3187E-3	64.0322E-12	787.176E-3	-17.2002E-3
2.05353E-3	66.6361E-12	800.851E-3	-36.0892E-3	63.5101E-12	783.400E-3	-11.1031E-3
2.04852E-3	66.3095E-12	807.598E-3	-27.7798E-3	63.4005E-12	795.856E-3	-11.2747E-3
2.04352E-3	65.7511E-12	799.939E-3	-12.2150E-3	62.9351E-12	802.763E-3	-26.6329E-3
2.03852E-3	65.0550E-12	778.854E-3	-1.91512E-3	62.7412E-12	780.500E-3	-30.7426E-3
2.03352E-3	64.6489E-12	782.414E-3	-7.48359E-3	62.7298E-12	773.653E-3	-20.5868E-3
2.02851E-3	63.9032E-12	794.210E-3	-24.6238E-3	62.8623E-12	787.771E-3	-18.6563E-3
2.02351E-3	63.9594E-12	772.607E-3	-30.7998E-3	62.6030E-12	793.749E-3	-20.4271E-3
2.01851E-3	62.7117E-12	757.979E-3	-25.2492E-3	62.7381E-12	815.777E-3	-13.6858E-3
2.01351E-3	62.6111E-12	767.194E-3	-18.7267E-3	63.2239E-12	831.457E-3	-20.4097E-3
2.00850E-3	62.2622E-12	777.025E-3	-21.4756E-3	63.0528E-12	811.560E-3	-27.8208E-3
2.00350E-3	61.6411E-12	794.138E-3	-34.9252E-3	63.0777E-12	810.601E-3	-12.4740E-3
1.99850E-3	61.1791E-12	810.834E-3	-38.9735E-3	62.8924E-12	835.391E-3	-9.59430E-3
1.99350E-3	61.2304E-12	801.455E-3	-27.7296E-3	62.5696E-12	839.668E-3	-16.2988E-3
1.98849E-3	61.3245E-12	785.421E-3	-9.28792E-3	62.2951E-12	831.837E-3	-5.76557E-3
1.98349E-3	61.0844E-12	782.871E-3	-1.84813E-3	62.4230E-12	830.694E-3	-10.7256E-3
1.97849E-3	60.6385E-12	787.825E-3	-6.98808E-3	61.5281E-12	829.715E-3	-22.8766E-3
1.97349E-3	60.4715E-12	804.677E-3	-21.1547E-3	60.5817E-12	833.091E-3	-10.6781E-3
1.96848E-3	60.3992E-12	819.746E-3	-18.8380E-3	60.4933E-12	839.675E-3	-9.69620E-3
1.96348E-3	60.4646E-12	821.703E-3	2.44187E-3	59.9924E-12	828.390E-3	-16.5468E-3
1.95848E-3	60.1597E-12	815.955E-3	3.50031E-3	59.3626E-12	822.317E-3	-9.30623E-3
1.95348E-3	59.6645E-12	813.983E-3	-12.8634E-3	58.7838E-12	825.368E-3	-8.75784E-3
1.94847E-3	59.3461E-12	829.039E-3	-18.6789E-3	58.5303E-12	818.492E-3	-14.0090E-3
1.94347E-3	59.0040E-12	846.988E-3	-10.1880E-3	58.3592E-12	823.775E-3	-9.45474E-3
1.93847E-3	59.0430E-12	839.709E-3	-12.2288E-3	58.0817E-12	828.975E-3	-20.6785E-3
1.93347E-3	58.2473E-12	820.898E-3	-13.9964E-3	57.3657E-12	825.025E-3	-42.3990E-3
1.92846E-3	57.5133E-12	814.766E-3	-2.74742E-3	57.3037E-12	827.488E-3	-30.2851E-3
1.92346E-3	57.4973E-12	822.201E-3	2.63402E-3	57.2506E-12	830.510E-3	-7.13780E-3
1.91846E-3	57.1513E-12	821.767E-3	2.20798E-3	57.4536E-12	825.973E-3	-6.68010E-3
1.91346E-3	56.2889E-12	805.317E-3	1.71778E-3	57.5206E-12	830.354E-3	-11.8760E-3
1.90845E-3	56.1152E-12	802.326E-3	-7.83132E-3	57.1330E-12	854.574E-3	-13.2107E-3
1.90345E-3	56.1611E-12	812.592E-3	-10.1134E-3	56.8930E-12	872.563E-3	-13.1566E-3
1.89845E-3	55.2760E-12	819.822E-3	7.89940E-3	57.1175E-12	873.691E-3	-4.03492E-3
1.89345E-3	55.0203E-12	831.120E-3	11.0550E-3	57.1785E-12	876.779E-3	-1.72314E-3
1.88844E-3	54.9830E-12	833.979E-3	685.773E-6	56.6294E-12	886.569E-3	-10.1036E-3
1.88344E-3	54.6200E-12	829.106E-3	-5.28824E-3	55.8763E-12	886.054E-3	-12.6335E-3
1.87844E-3	54.3733E-12	837.821E-3	-17.2155E-3	55.7850E-12	869.984E-3	-16.1800E-3
1.87344E-3	54.1301E-12	839.323E-3	-18.6199E-3	55.2875E-12	849.676E-3	-20.6591E-3
1.86843E-3	54.3133E-12	827.100E-3	-11.1904E-3	54.3486E-12	838.314E-3	-10.3729E-3
1.86343E-3	54.0238E-12	830.758E-3	-15.3435E-3	53.5434E-12	844.261E-3	-5.22368E-3
1.85843E-3	53.7805E-12	844.557E-3	-18.5415E-3	53.5953E-12	847.899E-3	-16.1482E-3
1.85343E-3	53.9561E-12	844.975E-3	-13.3243E-3	53.2211E-12	842.821E-3	-15.1751E-3
1.84842E-3	54.5792E-12	838.821E-3	-9.27075E-3	52.5688E-12	855.925E-3	-10.8705E-3
1.84342E-3	53.9988E-12	844.921E-3	-14.4256E-3	52.1913E-12	874.302E-3	-14.8576E-3
1.83842E-3	53.5743E-12	857.816E-3	-23.6221E-3	52.2734E-12	871.958E-3	-11.7258E-3
1.83342E-3	53.5048E-12	858.080E-3	-26.3015E-3	52.2152E-12	872.819E-3	-13.8138E-3
1.82841E-3	53.5266E-12	865.273E-3	-29.9692E-3	51.8033E-12	886.939E-3	-31.5280E-3
1.82341E-3	52.8079E-12	886.734E-3	-37.2443E-3	51.8568E-12	902.477E-3	-35.9525E-3
1.81841E-3	52.0457E-12	904.503E-3	-34.8124E-3	51.8437E-12	910.016E-3	-20.4514E-3
1.81341E-3	51.5959E-12	913.720E-3	-16.7949E-3	51.9765E-12	896.495E-3	-13.5424E-3
1.80840E-3	51.3683E-12	902.735E-3	3.40218E-3	51.7047E-12	881.792E-3	-20.9057E-3
1.80340E-3	50.6843E-12	890.217E-3	848.240E-6	51.0661E-12	887.358E-3	-24.0685E-3
1.79840E-3	50.1998E-12	886.592E-3	-14.4280E-3	50.9876E-12	895.762E-3	-17.4156E-3
1.79340E-3	49.5913E-12	880.699E-3	-19.2977E-3	50.8421E-12	903.991E-3	-9.94722E-3
1.78839E-3	49.1674E-12	879.539E-3	-19.7364E-3	50.2947E-12	927.726E-3	-86.7573E-6
1.78339E-3	48.8831E-12	873.712E-3	-24.9465E-3	49.9157E-12	947.669E-3	165.091E-6
1.77839E-3	48.9164E-12	862.010E-3	-26.6360E-3	49.5745E-12	947.492E-3	-14.0405E-3
1.77339E-3	48.4635E-12	868.394E-3	-26.4363E-3	48.9821E-12	947.508E-3	-13.0578E-3
1.76838E-3	48.2863E-12	888.912E-3	-27.6732E-3	48.5708E-12	949.097E-3	-8.58954E-3
1.76338E-3	48.6104E-12	887.018E-3	-15.8259E-3	48.5251E-12	939.529E-3	-10.6762E-3
1.75838E-3	48.6231E-12	876.032E-3	-2.23137E-3	48.0609E-12	944.958E-3	-6.59427E-3
1.75338E-3	48.5777E-12	895.171E-3	2.97225E-3	47.3681E-12	957.750E-3	-17.9899E-3
1.74837E-3	48.7182E-12	925.181E-3	290.754E-6	47.5153E-12	948.540E-3	-25.2693E-3
1.74337E-3	48.6073E-12	940.921E-3	-19.6207E-3	47.4460E-12	950.525E-3	-11.4157E-3
1.73837E-3	48.4194E-12	955.907E-3	-26.6198E-3	47.0472E-12	964.819E-3	-16.1356E-3
1.73337E-3	47.9746E-12	973.302E-3	-11.3930E-3	46.7886E-12	960.123E-3	-25.7657E-3
1.72836E-3	47.5266E-12	979.035E-3	-7.90038E-3	46.4571E-12	953.664E-3	-17.5423E-3
1.72336E-3	46.9936E-12	974.538E-3	-16.2892E-3	46.4529E-12	966.783E-3	-16.2213E-3
1.71836E-3	46.5546E-12	969.323E-3	-22.1822E-3	46.2756E-12	977.408E-3	-21.8593E-3
1.71336E-3	46.2101E-12	964.860E-3	-25.5684E-3	45.6353E-12	975.152E-3	-16.7053E-3
1.70835E-3	45.0972E-12	966.490E-3	-21.4184E-3	45.2036E-12	976.583E-3	-17.9470E-3
1.70335E-3	44.4175E-12	969.693E-3	62.1424E-6	45.1119E-12	971.511E-3	-30.3305E-3
1.69835E-3	43.6770E-12	959.341E-3	7.74350E-3	44.9242E-12	972.844E-3	-17.0201E-3
1.69335E-3	43.3606E-12	951.711E-3	-11.5168E-3	44.3042E-12	994.492E-3	-1.36763E-3
1.68834E-3	43.0334E-12	952.490E-3	-27.3033E-3	43.7737E-12	1.00411E+0	-8.57578E-3
1.68334E-3	42.5630E-12	953.107E-3	-34.8334E-3	43.5030E-12	1.00192E+0	-2.87905E-3
1.67834E-3	41.8764E-12	958.891E-3	-31.6545E-3	43.3803E-12	1.00504E+0	-503.671E-6
1.67334E-3	41.6971E-12	955.970E-3	-21.7855E-3	42.8318E-12	1.00566E+0	-22.7980E-3
1.66833E-3	42.0210E-12	952.173E-3	-15.7258E-3	42.6825E-12	1.00503E+0	-25.8641E-3
1.66333E-3	41.4824E-12	962.483E-3	-20.7394E-3	42.0091E-12	1.00907E+0	-15.8663E-3
1.65833E-3	41.5061E-12	972.193E-3	-30.6695E-3	41.6326E-12	1.01031E+0	-33.3402E-3
1.65333E-3	41.5521E-12	972.824E-3	-24.9802E-3	41.3478E-12	1.00425E+0	-36.2807E-3
1.64832E-3	41.7968E-12	989.169E-3	-22.3368E-3	40.9744E-12	1.00346E+0	-19.4474E-3
1.64332E-3	41.6690E-12	1.02338E+0	-30.8169E-3	40.3293E-12	1.01354E+0	-24.2401E-3
1.63832E-3	41.0907E-12	1.02189E+0	-29.8293E-3	40.0716E-12	1.02368E+0	-32.0683E-3
1.63332E-3	40.8947E-12	1.01108E+0	-19.9065E-3	39.7637E-12	1.03117E+0	-34.9506E-3
1.62831E-3	40.5065E-12	1.03003E+0	4.20749E-3	39.4152E-12	1.03709E+0	-33.7684E-3
1.62331E-3	40.1550E-12	1.04019E+0	16.5575E-3	39.4534E-12	1.03850E+0	-12.4897E-3
1.61831E-3	39.4575E-12	1.04821E+0	-6.57677E-3	38.9222E-12	1.04047E+0	35.5923E-6
1.61331E-3	38.6467E-12	1.06787E+0	-29.6242E-3	38.5739E-12	1.04458E+0	-8.17831E-3
1.60830E-3	38.0809E-12	1.07233E+0	-27.7738E-3	38.5436E-12	1.04391E+0	-18.6422E-3
1.60330E-3	37.8119E-12	1.05495E+0	-21.1086E-3	38.1933E-12	1.05037E+0	-28.4285E-3
1.59830E-3	37.7535E-12	1.04054E+0	-18.2427E-3	37.5687E-12	1.07032E+0	-30.0191E-3
1.59330E-3	36.8386E-12	1.04177E+0	-6.67008E-3	37.2039E-12	1.08677E+0	-17.2418E-3
1.58829E-3	36.1023E-12	1.05537E+0	-4.30739E-3	37.3458E-12	1.10819E+0	342.172E-6
1.58329E-3	36.0386E-12	1.06976E+0	-11.3083E-3	37.2323E-12	1.12328E+0	-7.54025E-3
1.57829E-3	36.2576E-12	1.06041E+0	-9.70225E-3	36.9333E-12	1.12250E+0	-22.6292E-3
1.57329E-3	35.7048E-12	1.05826E+0	-6.99057E-3	36.2451E-12	1.13348E+0	-23.1134E-3
1.56828E-3	35.2778E-12	1.08475E+0	-8.26875E-3	36.1974E-12	1.13772E+0	-32.0677E-3
1.56328E-3	35.1041E-12	1.08711E+0	-14.8649E-3	36.3432E-12	1.11843E+0	-31.9910E-3
1.55828E-3	35.0939E-12	1.08007E+0	-33.9203E-3	35.8178E-12	1.11521E+0	-17.6071E-3
1.55328E-3	35.0141E-12	1.10383E+0	-43.5511E-3	35.0072E-12	1.12738E+0	-22.2765E-3
1.54827E-3	34.6342E-12	1.12456E+0	-32.3755E-3	34.6150E-12	1.11773E+0	-33.4543E-3
1.54327E-3	34.0403E-12	1.13024E+0	-27.4280E-3	34.6025E-12	1.10739E+0	-30.9877E-3
1.53827E-3	33.9194E-12	1.13468E+0	-30.6130E-3	33.7639E-12	1.12189E+0	-16.0536E-3
1.53327E-3	33.4971E-12	1.12720E+0	-22.5474E-3	33.0495E-12	1.13404E+0	4.42227E-3
1.52826E-3	32.9601E-12	1.10545E+0	-5.42573E-3	32.4547E-12	1.13152E+0	712.743E-6
1.52326E-3	32.4966E-12	1.09622E+0	-4.33282E-3	32.3157E-12	1.12971E+0	-23.3185E-3
1.51826E-3	31.7553E-12	1.11424E+0	-9.92017E-3	31.8792E-12	1.13610E+0	-27.0478E-3
1.51326E-3	31.6155E-12	1.13308E+0	-8.41987E-3	31.1756E-12	1.14801E+0	-11.7419E-3
1.50825E-3	31.4684E-12	1.13571E+0	-11.3384E-3	30.7456E-12	1.15024E+0	-15.2109E-3
1.50325E-3	30.5645E-12	1.12959E+0	-8.42720E-3	30.4518E-12	1.14137E+0	-34.0201E-3
1.49825E-3	29.8183E-12	1.12985E+0	4.60542E-3	30.0998E-12	1.14840E+0	-31.9261E-3
1.49325E-3	29.5162E-12	1.14171E+0	10.7289E-3	29.8043E-12	1.17066E+0	-25.1812E-3
1.48824E-3	29.3013E-12	1.14050E+0	-4.07342E-3	29.8550E-12	1.18616E+0	-35.6777E-3
1.48324E-3	28.6627E-12	1.13085E+0	-26.7325E-3	29.4200E-12	1.19169E+0	-36.7282E-3
1.47824E-3	28.0961E-12	1.13260E+0	-27.6518E-3	28.9765E-12	1.18951E+0	-34.0510E-3
1.47324E-3	27.8448E-12	1.12812E+0	-16.5038E-3	28.7922E-12	1.17154E+0	-44.8552E-3
1.46823E-3	27.5994E-12	1.11463E+0	-21.5156E-3	28.5991E-12	1.15484E+0	-35.4303E-3
1.46323E-3	27.2887E-12	1.11227E+0	-29.5507E-3	28.0733E-12	1.15742E+0	-7.96972E-3
1.45823E-3	26.9214E-12	1.12307E+0	-26.0106E-3	27.2912E-12	1.15357E+0	4.33960E-3
1.45323E-3	26.4860E-12	1.13692E+0	-9.62919E-3	26.8703E-12	1.14307E+0	3.25488E-3
1.44822E-3	26.2192E-12	1.14502E+0	2.01976E-3	26.4819E-12	1.15060E+0	-9.62570E-3
1.44322E-3	26.1343E-12	1.14305E+0	-5.02141E-3	25.9003E-12	1.15781E+0	-27.0256E-3
1.43822E-3	26.0202E-12	1.13233E+0	-13.1051E-3	25.1969E-12	1.14610E+0	-26.7889E-3
1.43322E-3	25.4897E-12	1.13640E+0	-13.0255E-3	24.7782E-12	1.13921E+0	-16.7601E-3
1.42821E-3	25.1595E-12	1.15364E+0	1.02506E-3	24.4943E-12	1.13145E+0	-15.1318E-3
1.42321E-3	24.9019E-12	1.15613E+0	12.9453E-3	24.0099E-12	1.11114E+0	-4.03754E-3
1.41821E-3	24.5958E-12	1.15849E+0	-815.063E-6	23.6134E-12	1.11280E+0	6.73100E-3
1.41321E-3	24.2127E-12	1.16296E+0	-12.5787E-3	23.0396E-12	1.12502E+0	-4.11642E-3
1.40820E-3	23.8147E-12	1.15734E+0	-6.05437E-3	22.8589E-12	1.12987E+0	-7.85090E-3
1.40320E-3	23.3130E-12	1.15661E+0	-9.29089E-3	22.4569E-12	1.13364E+0	-6.89702E-3
1.39820E-3	23.1089E-12	1.16135E+0	-17.0457E-3	22.3530E-12	1.11517E+0	-20.4016E-3
1.39320E-3	22.5395E-12	1.16687E+0	-11.2955E-3	22.1541E-12	1.09986E+0	-16.5093E-3
1.38819E-3	21.7992E-12	1.16975E+0	-12.4566E-3	21.9123E-12	1.11436E+0	3.76410E-3
1.38319E-3	21.4147E-12	1.16341E+0	-18.8359E-3	21.5259E-12	1.11350E+0	13.0809E-3
1.37819E-3	21.1348E-12	1.14289E+0	-12.0871E-3	21.1053E-12	1.08232E+0	12.5944E-3
1.37319E-3	20.6796E-12	1.11846E+0	-6.33245E-3	20.9221E-12	1.06667E+0	-614.598E-6
1.36818E-3	20.1295E-12	1.10106E+0	1.92036E-3	20.4593E-12	1.07445E+0	-21.9788E-3
1.36318E-3	19.7978E-12	1.09046E+0	9.28689E-3	20.0397E-12	1.08275E+0	-29.4597E-3
1.35818E-3	19.5254E-12	1.09300E+0	-11.5188E-3	19.6246E-12	1.08134E+0	-20.2252E-3
1.35318E-3	19.2599E-12	1.09350E+0	-30.9987E-3	19.2838E-12	1.06834E+0	-13.7002E-3
1.34817E-3	18.9533E-12	1.08777E+0	-25.9275E-3	18.7833E-12	1.04620E+0	-15.5956E-3
1.34317E-3	18.5765E-12	1.08109E+0	-17.9676E-3	18.3068E-12	1.02782E+0	-15.8011E-3
1.33817E-3	18.3300E-12	1.07496E+0	-17.5004E-3	17.9388E-12	1.02429E+0	-18.7499E-3
1.33317E-3	18.2805E-12	1.07831E+0	-11.7140E-3	17.6344E-12	1.01820E+0	-23.1001E-3
1.32816E-3	17.9462E-12	1.07923E+0	-5.77081E-3	17.3279E-12	1.00291E+0	-21.7416E-3
1.32316E-3	17.6450E-12	1.07594E+0	-7.26324E-3	16.8340E-12	993.703E-3	-24.3070E-3
1.31816E-3	17.2917E-12	1.06906E+0	-3.74646E-3	16.6217E-12	984.557E-3	-26.2942E-3
1.31316E-3	16.8985E-12	1.05605E+0	-4.86349E-3	16.4386E-12	979.496E-3	-23.7821E-3
1.30815E-3	16.5442E-12	1.05085E+0	-9.75210E-3	16.1874E-12	987.541E-3	-22.4288E-3
1.30315E-3	16.2539E-12	1.04963E+0	-11.6677E-3	15.8509E-12	980.309E-3	-18.4995E-3
1.29815E-3	15.8402E-12	1.03383E+0	-10.9246E-3	15.5458E-12	955.760E-3	-12.6302E-3
1.29315E-3	15.1997E-12	1.01408E+0	-17.9263E-3	15.5007E-12	947.576E-3	-12.3519E-3
1.28814E-3	14.8225E-12	999.777E-3	-28.4250E-3	15.2453E-12	934.832E-3	-14.6294E-3
1.28314E-3	14.6413E-12	983.975E-3	-19.0108E-3	14.8586E-12	903.449E-3	-18.8205E-3
1.27814E-3	14.1401E-12	968.192E-3	-3.16280E-3	14.4456E-12	893.249E-3	-29.5889E-3
1.27314E-3	13.6214E-12	940.525E-3	-2.81606E-3	14.3661E-12	894.853E-3	-34.0095E-3
1.26813E-3	13.2844E-12	903.187E-3	-9.36518E-3	14.0277E-12	888.926E-3	-26.1057E-3
1.26313E-3	13.2133E-12	877.997E-3	-12.7004E-3	13.5080E-12	874.744E-3	-25.1046E-3
1.25813E-3	12.9768E-12	868.062E-3	-14.4965E-3	13.1784E-12	837.685E-3	-31.4708E-3
1.25313E-3	12.5607E-12	864.519E-3	-17.2285E-3	12.9925E-12	807.857E-3	-22.2019E-3
1.24812E-3	12.3898E-12	857.563E-3	-26.6231E-3	12.5374E-12	804.913E-3	-11.6355E-3
1.24312E-3	12.2767E-12	842.369E-3	-31.4241E-3	12.1762E-12	796.413E-3	-19.8591E-3
1.23812E-3	12.2581E-12	814.144E-3	-22.9326E-3	12.0491E-12	781.529E-3	-25.1822E-3
1.23312E-3	12.0108E-12	790.786E-3	-19.1422E-3	11.8106E-12	771.293E-3	-21.7091E-3
1.22811E-3	11.7230E-12	792.722E-3	-17.0724E-3	11.4129E-12	750.598E-3	-25.5143E-3
1.22311E-3	11.6147E-12	791.606E-3	-8.07343E-3	11.2392E-12	717.015E-3	-28.1177E-3
1.21811E-3	11.3609E-12	778.837E-3	-8.11872E-3	11.1176E-12	694.240E-3	-26.9577E-3
1.21311E-3	11.0359E-12	772.039E-3	-11.3009E-3	10.8143E-12	681.475E-3	-28.5208E-3
1.20810E-3	10.7594E-12	756.050E-3	-16.2254E-3	10.4525E-12	663.780E-3	-21.6801E-3
1.20310E-3	10.5463E-12	734.695E-3	-18.9672E-3	10.2313E-12	653.049E-3	-15.7038E-3
1.19810E-3	10.2060E-12	720.485E-3	-9.40391E-3	10.0740E-12	640.266E-3	-16.6867E-3
1.19310E-3	9.89012E-12	702.603E-3	-1.76501E-3	9.83084E-12	621.276E-3	-7.55598E-3
1.18809E-3	9.61834E-12	683.869E-3	-8.78170E-3	9.51261E-12	610.340E-3	-3.33121E-3
1.18309E-3	9.38825E-12	670.126E-3	-12.8783E-3	9.33443E-12	595.764E-3	-9.84712E-3
1.17809E-3	9.04120E-12	652.147E-3	-9.44543E-3	9.23222E-12	569.663E-3	-5.18459E-3
1.17309E-3	8.75108E-12	625.977E-3	-18.6142E-3	9.01854E-12	551.150E-3	-10.5799E-3
1.16808E-3	8.57960E-12	604.250E-3	-25.0758E-3	8.73919E-12	548.049E-3	-34.6335E-3
1.16308E-3	8.43918E-12	589.565E-3	-19.3472E-3	8.54744E-12	533.832E-3	-35.3841E-3
1.15808E-3	8.19254E-12	571.281E-3	-17.1640E-3	8.45876E-12	515.258E-3	-9.67821E-3
1.15308E-3	7.99239E-12	553.612E-3	-27.8312E-3	8.27669E-12	502.368E-3	-204.407E-6
1.14807E-3	7.94929E-12	540.695E-3	-38.3169E-3	8.05468E-12	476.688E-3	-8.89032E-3
1.14307E-3	7.89303E-12	524.610E-3	-34.2322E-3	7.93629E-12	464.272E-3	-19.0909E-3
1.13807E-3	7.70501E-12	518.446E-3	-22.6413E-3	7.83521E-12	464.432E-3	-32.0537E-3
1.13307E-3	7.55358E-12	520.218E-3	-14.9064E-3	7.63872E-12	449.204E-3	-33.0441E-3
1.12806E-3	7.54080E-12	505.335E-3	-11.3768E-3	7.45112E-12	431.250E-3	-23.7159E-3
1.12306E-3	7.40191E-12	483.148E-3	-9.14807E-3	7.37662E-12	413.341E-3	-21.6669E-3
1.11806E-3	7.18121E-12	460.540E-3	-11.1411E-3	7.15173E-12	389.004E-3	-20.7676E-3
1.11306E-3	6.99509E-12	437.841E-3	-13.7239E-3	6.93399E-12	367.549E-3	-18.4253E-3
1.10805E-3	6.88904E-12	438.460E-3	-17.1672E-3	6.74641E-12	358.313E-3	-17.9018E-3
1.10305E-3	6.79738E-12	437.721E-3	-20.5286E-3	6.59340E-12	342.632E-3	-16.3932E-3
1.09805E-3	6.60341E-12	407.327E-3	-19.7214E-3	6.45416E-12	325.649E-3	-20.9983E-3
1.09305E-3	6.37375E-12	388.523E-3	-19.8648E-3	6.25009E-12	332.792E-3	-33.6214E-3
1.08804E-3	6.25244E-12	388.417E-3	-12.8488E-3	6.12085E-12	330.542E-3	-31.5396E-3
1.08304E-3	6.10472E-12	370.081E-3	-2.79970E-3	6.03873E-12	303.757E-3	-15.8499E-3
1.07804E-3	5.92343E-12	345.801E-3	-13.7057E-3	5.93469E-12	286.339E-3	-17.9824E-3
1.07304E-3	5.81909E-12	339.923E-3	-19.4684E-3	5.72883E-12	281.914E-3	-27.0720E-3
1.06803E-3	5.70778E-12	336.393E-3	-8.25324E-3	5.66050E-12	289.312E-3	-16.8973E-3
1.06303E-3	5.55841E-12	324.731E-3	-10.7303E-3	5.67948E-12	298.358E-3	-7.36302E-3
1.05803E-3	5.45290E-12	311.595E-3	-11.0746E-3	5.61091E-12	285.121E-3	-14.3161E-3
1.05303E-3	5.33667E-12	298.633E-3	2.73414E-3	5.46570E-12	268.670E-3	-9.41724E-3
1.04802E-3	5.35784E-12	281.217E-3	-3.21556E-3	5.53022E-12	257.019E-3	2.80087E-3
1.04302E-3	5.33811E-12	266.957E-3	-19.1180E-3	5.57897E-12	230.534E-3	-5.76880E-3
1.03802E-3	5.17798E-12	262.558E-3	-21.5678E-3	5.38836E-12	196.303E-3	-19.6635E-3
1.03302E-3	5.10466E-12	255.236E-3	-21.9499E-3	5.15871E-12	180.769E-3	-22.3056E-3
1.02801E-3	5.04924E-12	248.688E-3	-16.3720E-3	4.97211E-12	177.470E-3	-13.7946E-3
1.02301E-3	4.80606E-12	229.621E-3	-12.1772E-3	4.87904E-12	168.803E-3	-779.297E-6
1.01801E-3	4.68729E-12	197.897E-3	-17.7974E-3	4.75988E-12	161.198E-3	-3.47372E-3
1.01301E-3	4.74160E-12	189.478E-3	-14.5034E-3	4.65693E-12	158.038E-3	-22.7686E-3
1.00800E-3	4.76641E-12	190.788E-3	-11.9683E-3	4.54121E-12	159.625E-3	-26.1956E-3
1.00300E-3	4.58051E-12	182.504E-3	-28.8576E-3	4.52369E-12	173.203E-3	-10.5348E-3
997.999E-6	4.52690E-12	176.265E-3	-38.9797E-3	4.40783E-12	182.835E-3	-12.1957E-3
992.997E-6	4.50514E-12	176.428E-3	-26.4791E-3	4.31180E-12	167.439E-3	-16.6916E-3
987.994E-6	4.50573E-12	181.126E-3	-9.98084E-3	4.27585E-12	151.071E-3	-3.80633E-3
982.991E-6	4.40230E-12	187.237E-3	-4.18711E-3	4.31510E-12	142.754E-3	-2.98877E-3
977.989E-6	4.25753E-12	174.968E-3	-9.40705E-3	4.21125E-12	129.333E-3	-12.3938E-3
972.986E-6	4.24198E-12	148.335E-3	-20.5063E-3	4.18977E-12	128.234E-3	-11.2553E-3
967.984E-6	4.21771E-12	133.903E-3	-24.3484E-3	4.23401E-12	134.920E-3	-14.4797E-3
962.981E-6	4.12369E-12	132.809E-3	-14.1270E-3	4.20204E-12	125.969E-3	-17.8248E-3
957.979E-6	4.01359E-12	130.347E-3	-15.9535E-3	4.17131E-12	115.195E-3	-8.38016E-3
952.976E-6	4.02875E-12	126.466E-3	-32.9851E-3	4.12277E-12	107.186E-3	-16.8483E-3
947.974E-6	3.92683E-12	128.595E-3	-29.5147E-3	4.12980E-12	92.9087E-3	-29.7269E-3
942.971E-6	3.87616E-12	129.410E-3	-16.3968E-3	4.04353E-12	88.6902E-3	-16.8143E-3
937.969E-6	3.89255E-12	130.708E-3	-21.7030E-3	4.00299E-12	103.540E-3	-16.1527E-3
932.966E-6	3.85168E-12	130.226E-3	-23.1752E-3	3.92576E-12	104.967E-3	-30.1819E-3
927.964E-6	3.78615E-12	122.033E-3	-16.3540E-3	3.94439E-12	98.7117E-3	-21.9117E-3
922.961E-6	3.75156E-12	113.940E-3	-23.2914E-3	3.83452E-12	103.178E-3	-15.8281E-3
917.959E-6	3.78869E-12	110.949E-3	-27.0958E-3	3.72274E-12	96.3251E-3	-25.9570E-3
912.956E-6	3.79226E-12	101.644E-3	-19.9832E-3	3.66688E-12	94.0309E-3	-20.5021E-3
907.954E-6	3.73026E-12	98.4563E-3	-18.5831E-3	3.68954E-12	103.621E-3	-18.7001E-3
902.951E-6	3.69067E-12	112.833E-3	-16.9450E-3	3.64149E-12	98.6901E-3	-31.1207E-3
897.949E-6	3.71844E-12	105.756E-3	-9.23181E-3	3.52139E-12	88.4418E-3	-25.9744E-3
892.946E-6	3.73061E-12	88.3160E-3	-9.21412E-3	3.52259E-12	85.4908E-3	-18.9327E-3
887.944E-6	3.65512E-12	90.7602E-3	-12.0280E-3	3.57042E-12	78.9817E-3	-22.9837E-3
882.941E-6	3.57682E-12	86.4513E-3	-10.4236E-3	3.57521E-12	82.1263E-3	-19.4449E-3
877.939E-6	3.57963E-12	77.7436E-3	-17.0866E-3	3.48473E-12	94.4207E-3	-20.4157E-3
872.936E-6	3.59123E-12	87.1106E-3	-17.2117E-3	3.47630E-12	89.4225E-3	-33.3103E-3
867.934E-6	3.45538E-12	85.7826E-3	-14.0107E-3	3.55025E-12	75.9155E-3	-31.3806E-3
862.931E-6	3.42828E-12	63.6650E-3	-16.8259E-3	3.47041E-12	74.6811E-3	-12.2858E-3
857.929E-6	3.37311E-12	61.2945E-3	-12.4306E-3	3.40928E-12	71.6874E-3	-6.33638E-3
852.926E-6	3.38455E-12	77.9611E-3	-8.87707E-3	3.45571E-12	61.0201E-3	-15.6435E-3
847.924E-6	3.27810E-12	79.4935E-3	-10.6143E-3	3.42235E-12	64.5967E-3	-24.4969E-3
842.921E-6	3.22435E-12	69.4732E-3	-10.0676E-3	3.37508E-12	68.5366E-3	-19.9705E-3
837.919E-6	3.21399E-12	61.5590E-3	-2.05716E-3	3.29846E-12	53.5677E-3	-686.881E-6
832.916E-6	3.18772E-12	60.9295E-3	-1.88267E-3	3.30372E-12	48.9460E-3	5.11433E-3
827.914E-6	3.17505E-12	74.6359E-3	-11.7248E-3	3.26126E-12	59.9952E-3	-6.16963E-3
822.911E-6	3.18692E-12	85.5241E-3	-10.0126E-3	3.18299E-12	56.6144E-3	-5.75992E-3
817.909E-6	3.20333E-12	78.6642E-3	-14.9746E-3	3.13486E-12	54.8547E-3	-1.38615E-3
812.906E-6	3.10679E-12	61.6289E-3	-32.1608E-3	3.15955E-12	68.2100E-3	-13.5015E-3
807.904E-6	3.18449E-12	48.8407E-3	-32.3049E-3	3.15337E-12	66.4849E-3	-20.8081E-3
802.901E-6	3.20899E-12	46.6118E-3	-24.8357E-3	3.08943E-12	57.5320E-3	-19.7561E-3
797.899E-6	3.21927E-12	59.6072E-3	-23.7494E-3	3.04052E-12	55.4399E-3	-25.6690E-3
792.896E-6	3.16308E-12	72.6823E-3	-20.5590E-3	3.09069E-12	48.9357E-3	-23.8050E-3
787.894E-6	3.12831E-12	66.7945E-3	-31.1675E-3	3.10384E-12	50.1325E-3	-13.6699E-3
782.891E-6	3.16047E-12	63.9789E-3	-47.5873E-3	3.01961E-12	52.1688E-3	-15.1357E-3
777.889E-6	3.09172E-12	68.9376E-3	-34.9269E-3	2.97052E-12	43.5624E-3	-20.8621E-3
772.886E-6	3.04751E-12	62.0528E-3	-15.2889E-3	3.02633E-12	54.5581E-3	-20.4388E-3
767.884E-6	2.92712E-12	55.8865E-3	-11.1222E-3	2.96815E-12	81.1936E-3	-17.1866E-3
762.881E-6	2.93405E-12	53.9756E-3	-6.38675E-3	2.87782E-12	78.6751E-3	-14.5656E-3
757.879E-6	2.93297E-12	44.5197E-3	-4.07877E-3	2.90875E-12	54.3809E-3	-12.6168E-3
752.876E-6	2.83928E-12	47.0553E-3	-5.74382E-3	2.92174E-12	44.6286E-3	-18.9844E-3
747.874E-6	2.72301E-12	58.8624E-3	-2.71466E-3	2.85770E-12	41.4160E-3	-29.2657E-3
742.871E-6	2.82639E-12	57.5175E-3	-7.29346E-3	2.79903E-12	33.0215E-3	-24.4671E-3
737.869E-6	2.80389E-12	51.7966E-3	-17.2571E-3	2.81001E-12	33.9345E-3	-24.3082E-3
732.866E-6	2.75850E-12	50.1436E-3	-11.3864E-3	2.80138E-12	45.3819E-3	-27.4064E-3
727.864E-6	2.69073E-12	46.1700E-3	-7.90957E-3	2.76622E-12	48.6156E-3	-14.2350E-3
722.861E-6	2.72716E-12	41.9795E-3	-15.7409E-3	2.77101E-12	49.8879E-3	-15.5251E-3
717.859E-6	2.74527E-12	42.3357E-3	-14.9265E-3	2.72671E-12	59.6027E-3	-25.9468E-3
712.856E-6	2.75199E-12	47.8028E-3	-10.9621E-3	2.80892E-12	58.1600E-3	-19.6462E-3
707.854E-6	2.72869E-12	58.1236E-3	-13.6373E-3	2.78823E-12	43.8827E-3	-17.2925E-3
702.851E-6	2.72831E-12	62.6829E-3	-15.1915E-3	2.77144E-12	42.1561E-3	-22.9038E-3
697.849E-6	2.69406E-12	56.3923E-3	-17.2851E-3	2.75405E-12	56.3073E-3	-26.0288E-3
692.846E-6	2.66754E-12	54.0202E-3	-28.7493E-3	2.77327E-12	69.1577E-3	-28.5448E-3
687.844E-6	2.72330E-12	54.3923E-3	-34.1300E-3	2.65770E-12	68.4296E-3	-27.6401E-3
682.841E-6	2.66460E-12	43.0288E-3	-23.6652E-3	2.64765E-12	60.6552E-3	-17.9988E-3
677.839E-6	2.67952E-12	39.8633E-3	-16.1146E-3	2.62697E-12	61.3160E-3	-15.3277E-3
672.836E-6	2.56190E-12	47.2144E-3	-12.1044E-3	2.60460E-12	64.2010E-3	-17.6245E-3
667.834E-6	2.58178E-12	43.3073E-3	-8.87879E-3	2.53978E-12	64.6320E-3	-12.4229E-3
662.831E-6	2.54740E-12	41.5322E-3	-16.2128E-3	2.48864E-12	68.5733E-3	-19.0868E-3
657.829E-6	2.46145E-12	47.0045E-3	-19.6322E-3	2.50302E-12	65.1123E-3	-34.1055E-3
652.826E-6	2.46226E-12	48.4396E-3	-15.3206E-3	2.49756E-12	55.7295E-3	-32.1611E-3
647.824E-6	2.44884E-12	58.2208E-3	-16.0622E-3	2.40422E-12	61.6522E-3	-17.5428E-3
642.821E-6	2.45818E-12	68.0077E-3	-18.2068E-3	2.37480E-12	67.3258E-3	-16.2589E-3
637.819E-6	2.37416E-12	57.9164E-3	-16.8706E-3	2.46834E-12	63.8834E-3	-26.2665E-3
632.816E-6	2.31429E-12	45.8934E-3	-19.5820E-3	2.44398E-12	67.5156E-3	-24.2603E-3
627.814E-6	2.38069E-12	46.5686E-3	-21.6118E-3	2.38549E-12	67.9734E-3	-10.6625E-3
622.811E-6	2.42110E-12	51.6627E-3	-13.0170E-3	2.39975E-12	59.7036E-3	-1.05700E-3
617.809E-6	2.29618E-12	52.5088E-3	-10.1318E-3	2.41914E-12	55.5921E-3	-8.33533E-3
612.806E-6	2.25252E-12	59.6530E-3	-18.1758E-3	2.35934E-12	61.2768E-3	-14.4916E-3
607.804E-6	2.31378E-12	66.4827E-3	-17.9412E-3	2.26180E-12	62.1394E-3	-6.62820E-3
602.801E-6	2.36510E-12	58.9464E-3	-10.7799E-3	2.28342E-12	57.4340E-3	-13.6795E-3
597.799E-6	2.29021E-12	61.6325E-3	-9.23742E-3	2.31265E-12	56.5178E-3	-35.3345E-3
592.796E-6	2.16498E-12	64.4671E-3	-5.78387E-3	2.26950E-12	56.1792E-3	-30.2144E-3
587.794E-6	2.27155E-12	58.0176E-3	-2.27836E-3	2.21909E-12	63.0986E-3	-2.25323E-3
582.791E-6	2.23726E-12	61.1156E-3	-3.33899E-3	2.17058E-12	69.0255E-3	12.1086E-3
577.789E-6	2.20832E-12	53.7090E-3	286.944E-6	2.13373E-12	61.5497E-3	14.7975E-3
572.786E-6	2.21674E-12	42.2273E-3	-6.70748E-3	2.08018E-12	59.4528E-3	11.9523E-3
567.784E-6	2.13606E-12	59.2442E-3	-19.6366E-3	2.02294E-12	74.4503E-3	-7.77370E-3
562.781E-6	2.09261E-12	79.3041E-3	-12.2627E-3	2.05741E-12	85.5670E-3	-23.4245E-3
557.779E-6	2.04733E-12	70.9684E-3	-3.53390E-3	2.05836E-12	85.1378E-3	-18.4608E-3
552.776E-6	2.08464E-12	65.0103E-3	-13.3945E-3	1.98533E-12	86.6220E-3	-16.9144E-3
547.774E-6	2.02255E-12	77.4563E-3	-26.8216E-3	1.97582E-12	86.9955E-3	-19.3564E-3
542.771E-6	1.98937E-12	71.9208E-3	-37.1598E-3	2.01090E-12	81.8656E-3	-9.65195E-3
537.769E-6	1.90490E-12	53.5564E-3	-40.9508E-3	1.97271E-12	77.4847E-3	-3.95886E-3
532.766E-6	1.93865E-12	57.7941E-3	-28.0484E-3	1.98740E-12	82.1847E-3	-8.56362E-3
527.764E-6	1.90963E-12	62.4123E-3	-10.7958E-3	1.91178E-12	91.6843E-3	-14.8082E-3
522.761E-6	1.81663E-12	56.7908E-3	-2.40133E-3	1.97659E-12	87.7732E-3	-24.1002E-3
517.759E-6	1.79959E-12	64.8598E-3	110.421E-6	1.88143E-12	71.2091E-3	-24.3807E-3
512.756E-6	1.76456E-12	67.9078E-3	-3.56233E-3	1.82905E-12	66.0551E-3	-16.2961E-3
507.754E-6	1.81769E-12	70.6759E-3	-13.0129E-3	1.80215E-12	78.2402E-3	-17.8765E-3
502.751E-6	1.69109E-12	88.5048E-3	-16.6471E-3	1.85045E-12	89.6344E-3	-21.2117E-3
497.749E-6	1.67258E-12	91.5909E-3	-13.9442E-3	1.73034E-12	94.6024E-3	-10.2921E-3
492.746E-6	1.68399E-12	79.3501E-3	-14.7437E-3	1.64083E-12	97.2505E-3	-6.88701E-3
487.744E-6	1.70133E-12	75.3620E-3	-10.8855E-3	1.67899E-12	88.8280E-3	-16.0907E-3
482.741E-6	1.67683E-12	84.6591E-3	-16.0781E-3	1.67514E-12	75.5521E-3	-17.3143E-3
477.739E-6	1.63315E-12	93.3384E-3	-40.4190E-3	1.60991E-12	74.4304E-3	-23.7055E-3
472.736E-6	1.58673E-12	93.1887E-3	-40.1464E-3	1.52221E-12	78.3807E-3	-31.9884E-3
467.734E-6	1.64763E-12	90.2539E-3	-17.4480E-3	1.53336E-12	75.9598E-3	-15.3130E-3
462.731E-6	1.57473E-12	80.1525E-3	-18.6674E-3	1.50055E-12	68.7147E-3	-420.227E-6
457.729E-6	1.50431E-12	76.4057E-3	-30.8521E-3	1.47326E-12	64.2668E-3	-9.53868E-3
452.726E-6	1.51105E-12	80.6059E-3	-25.0959E-3	1.46592E-12	66.6036E-3	-11.6652E-3
447.724E-6	1.43119E-12	84.2875E-3	-17.2429E-3	1.45045E-12	79.3949E-3	-693.891E-6
442.721E-6	1.38543E-12	94.0138E-3	-17.7237E-3	1.50096E-12	80.2769E-3	-2.68117E-3
437.719E-6	1.40919E-12	94.5813E-3	-15.5351E-3	1.38421E-12	63.7672E-3	-20.9809E-3
432.716E-6	1.35643E-12	85.7259E-3	-9.49509E-3	1.37532E-12	70.5820E-3	-28.7689E-3
427.714E-6	1.26185E-12	78.0824E-3	-1.76352E-3	1.38379E-12	91.5820E-3	-14.6643E-3
422.711E-6	1.25712E-12	63.7761E-3	2.67759E-3	1.31449E-12	88.9093E-3	4.32825E-3
417.709E-6	1.19292E-12	60.8179E-3	-1.64560E-3	1.23606E-12	78.0355E-3	8.74202E-3
412.706E-6	1.23086E-12	83.8487E-3	-2.62299E-3	1.23430E-12	82.1418E-3	3.24061E-3
407.704E-6	1.11155E-12	90.3396E-3	1.21555E-3	1.19904E-12	79.2626E-3	3.19074E-3
402.701E-6	1.11911E-12	73.3244E-3	-5.01502E-3	1.20100E-12	57.5566E-3	2.91552E-3
397.699E-6	1.10699E-12	68.1831E-3	-13.5041E-3	1.11242E-12	35.1472E-3	-6.28443E-3
392.696E-6	1.12773E-12	69.2681E-3	-12.8711E-3	1.01414E-12	33.2749E-3	-20.9729E-3
387.694E-6	1.07250E-12	66.9159E-3	-16.9591E-3	1.05650E-12	54.5958E-3	-27.2218E-3
382.691E-6	1.02234E-12	65.2455E-3	-30.1148E-3	1.10171E-12	63.4364E-3	-27.6425E-3
377.689E-6	1.07874E-12	64.5217E-3	-26.8561E-3	933.156E-15	62.3240E-3	-27.9820E-3
372.686E-6	1.08611E-12	67.3192E-3	-15.8690E-3	942.895E-15	77.1702E-3	-18.8536E-3
367.684E-6	941.857E-15	74.2077E-3	-26.5311E-3	957.326E-15	78.2763E-3	-19.6948E-3
362.681E-6	941.936E-15	79.6316E-3	-33.1745E-3	944.918E-15	62.8387E-3	-31.1603E-3
357.679E-6	960.395E-15	77.5713E-3	-28.0905E-3	896.308E-15	69.8598E-3	-28.8920E-3
352.676E-6	950.411E-15	70.6955E-3	-24.7445E-3	876.175E-15	89.8038E-3	-17.6734E-3
347.674E-6	906.204E-15	62.6628E-3	-16.1179E-3	910.895E-15	86.5557E-3	-9.05634E-3
342.671E-6	762.545E-15	59.1880E-3	-18.0393E-3	862.765E-15	68.0832E-3	-7.09008E-3
337.669E-6	802.096E-15	66.4721E-3	-28.5391E-3	810.335E-15	61.8201E-3	-13.7829E-3
332.666E-6	774.159E-15	76.9065E-3	-33.0538E-3	750.791E-15	60.0425E-3	-19.2133E-3
327.664E-6	754.349E-15	72.8434E-3	-38.6671E-3	809.743E-15	65.9676E-3	-14.0416E-3
322.661E-6	691.125E-15	63.1557E-3	-44.9606E-3	719.158E-15	79.5232E-3	-3.51024E-3
317.659E-6	682.013E-15	65.1761E-3	-29.9405E-3	676.206E-15	72.0417E-3	4.45221E-3
312.656E-6	664.688E-15	69.9552E-3	-6.42293E-3	719.838E-15	59.4935E-3	-1.98747E-3
307.654E-6	622.025E-15	61.1365E-3	-4.55113E-3	679.528E-15	72.8416E-3	-18.4185E-3
302.651E-6	639.725E-15	60.7019E-3	-9.76775E-3	613.497E-15	85.5744E-3	-19.5191E-3
297.649E-6	615.145E-15	76.0135E-3	-6.91942E-3	568.366E-15	80.7611E-3	-23.6906E-6
292.646E-6	573.196E-15	80.9110E-3	-9.00307E-3	610.001E-15	69.9833E-3	4.00433E-3
287.644E-6	562.690E-15	74.5006E-3	-19.4432E-3	635.435E-15	54.1245E-3	-16.5345E-3
282.641E-6	593.181E-15	62.0192E-3	-20.8830E-3	523.723E-15	47.9392E-3	-19.1016E-3
277.639E-6	524.046E-15	51.4042E-3	-15.5151E-3	504.767E-15	49.7651E-3	-9.50990E-3
272.636E-6	469.960E-15	56.5422E-3	-13.5407E-3	491.034E-15	50.0858E-3	-7.36649E-3
267.634E-6	489.535E-15	59.6078E-3	-11.8191E-3	534.919E-15	51.6705E-3	58.1833E-6
262.631E-6	501.088E-15	50.9060E-3	-13.7550E-3	443.035E-15	53.9758E-3	-4.99588E-3
257.629E-6	530.236E-15	57.5294E-3	-21.9737E-3	426.093E-15	53.6595E-3	-20.9873E-3
252.626E-6	384.083E-15	66.0855E-3	-15.4031E-3	459.863E-15	53.9417E-3	-13.8415E-3
247.624E-6	349.171E-15	54.5388E-3	67.6793E-6	443.052E-15	58.9443E-3	-1.51232E-3
242.621E-6	448.781E-15	43.8277E-3	-7.68823E-3	404.225E-15	49.7271E-3	-860.047E-6
237.619E-6	485.751E-15	47.0286E-3	-20.0533E-3	388.539E-15	38.9162E-3	902.771E-6
232.616E-6	369.958E-15	49.1987E-3	-22.8340E-3	357.210E-15	40.3688E-3	-3.50083E-3
227.614E-6	273.252E-15	45.2928E-3	-27.4728E-3	366.758E-15	38.4238E-3	-12.0494E-3
222.611E-6	326.597E-15	38.0626E-3	-24.9699E-3	278.109E-15	39.0816E-3	-12.0752E-3
217.609E-6	313.483E-15	28.6063E-3	-19.2412E-3	279.382E-15	44.5271E-3	-9.16412E-3
212.606E-6	262.702E-15	24.8619E-3	-18.9231E-3	329.623E-15	45.9463E-3	-9.19982E-3
207.604E-6	266.190E-15	25.6028E-3	-20.4612E-3	305.819E-15	47.7482E-3	-11.7969E-3
202.601E-6	288.869E-15	27.5354E-3	-23.9178E-3	242.743E-15	50.8768E-3	-17.3223E-3
197.599E-6	221.625E-15	38.0098E-3	-30.1519E-3	253.224E-15	51.1642E-3	-19.1577E-3
192.596E-6	223.378E-15	43.0471E-3	-27.1475E-3	235.288E-15	47.0413E-3	-9.26062E-3
187.594E-6	220.126E-15	40.1659E-3	-14.6064E-3	159.858E-15	43.0734E-3	-2.40139E-3
182.591E-6	213.961E-15	44.2763E-3	-15.5881E-3	142.829E-15	43.3224E-3	-7.14275E-3
177.589E-6	162.500E-15	41.9895E-3	-17.9425E-3	173.974E-15	41.8342E-3	-10.6096E-3
172.586E-6	135.104E-15	40.6484E-3	-6.93437E-3	167.688E-15	41.2310E-3	-6.14175E-3
167.584E-6	152.952E-15	54.8639E-3	6.14839E-3	131.407E-15	40.8431E-3	-6.10749E-3
162.581E-6	154.949E-15	62.4999E-3	7.66140E-3	90.3910E-15	35.6879E-3	-12.6719E-3
157.579E-6	109.277E-15	53.8105E-3	-5.74497E-3	137.100E-15	33.6143E-3	-9.62558E-3
152.576E-6	145.671E-15	47.6618E-3	-18.6768E-3	105.545E-15	36.5081E-3	-4.15466E-3
147.574E-6	162.578E-15	44.4287E-3	-19.0206E-3	37.0724E-15	38.3381E-3	2.38777E-3
142.571E-6	107.211E-15	35.3487E-3	-7.58277E-3	46.8991E-15	33.5019E-3	4.21450E-3
137.569E-6	73.7545E-15	26.1582E-3	-4.44353E-3	64.4859E-15	19.1238E-3	-11.1374E-3
132.566E-6	22.4937E-15	14.6307E-3	-4.15999E-3	115.250E-15	13.3833E-3	-23.4398E-3
127.564E-6	90.5217E-15	3.50841E-3	1.16382E-3	23.7842E-15	22.0898E-3	-17.1112E-3
122.561E-6	106.321E-15	-700.562E-6	-11.3137E-3	-3.07130E-15	21.4043E-3	-9.71650E-3
117.559E-6	-4.29201E-15	1.64145E-3	-21.3244E-3	47.3350E-15	25.4037E-3	-6.96030E-3
112.556E-6	-43.8079E-15	10.6810E-3	-9.48124E-3	4.88071E-15	33.1666E-3	-2.79799E-3
107.554E-6	52.7846E-15	21.0002E-3	-1.76365E-3	-23.2042E-15	11.7309E-3	-7.45499E-3
102.551E-6	54.5023E-15	24.3428E-3	-15.2469E-3	22.5809E-15	-10.5247E-3	-16.6424E-3
97.5488E-6	-3.23696E-15	13.0230E-3	-31.4034E-3	-12.9939E-15	-573.983E-6	-18.1363E-3
92.5463E-6	-71.0557E-15	114.040E-6	-35.1811E-3	-11.8168E-15	18.1219E-3	-20.3652E-3
87.5438E-6	-52.2569E-15	7.59140E-3	-25.8829E-3	-67.1931E-15	15.5081E-3	-21.3761E-3
82.5413E-6	-15.0255E-15	20.5538E-3	-12.8807E-3	-31.8625E-15	4.73744E-3	-22.0710E-3
77.5388E-6	-23.5006E-15	24.5610E-3	-19.1749E-3	-60.4356E-15	9.21367E-3	-27.6241E-3
72.5363E-6	-60.8978E-15	32.1080E-3	-30.4272E-3	-54.9425E-15	19.0875E-3	-25.7122E-3
67.5338E-6	-70.1664E-15	28.0392E-3	-29.4145E-3	-102.454E-15	23.5429E-3	-22.6429E-3
62.5313E-6	-97.6845E-15	14.8637E-3	-37.0477E-3	-47.4090E-15	28.8905E-3	-26.9558E-3
57.5288E-6	-88.5554E-15	19.9541E-3	-41.8112E-3	-69.2508E-15	29.8354E-3	-29.0061E-3
52.5263E-6	-92.8627E-15	22.5045E-3	-32.9145E-3	-121.802E-15	19.4750E-3	-28.5531E-3
47.5238E-6	-67.1146E-15	19.0725E-3	-27.3862E-3	-155.528E-15	12.4254E-3	-21.7045E-3
42.5213E-6	-121.994E-15	30.7156E-3	-26.0333E-3	-86.9772E-15	15.2345E-3	-10.3473E-3
37.5188E-6	-153.671E-15	33.3779E-3	-19.0348E-3	-59.9648E-15	16.6588E-3	-7.36937E-3
32.5163E-6	-103.492E-15	19.2886E-3	-15.8890E-3	-160.054E-15	14.0552E-3	-13.4070E-3
27.5138E-6	-100.231E-15	15.4191E-3	-25.1014E-3	-133.146E-15	3.18815E-3	-20.5640E-3
22.5113E-6	-117.120E-15	14.5743E-3	-23.6402E-3	-102.018E-15	-200.850E-6	-19.6375E-3
17.5088E-6	-196.361E-15	15.6165E-3	-18.5017E-3	-84.0039E-15	20.4523E-3	-18.5763E-3
12.5063E-6	-154.273E-15	29.1616E-3	-22.5571E-3	-174.711E-15	33.6795E-3	-23.0276E-3
7.50375E-6	-129.022E-15	30.6449E-3	-22.0996E-3	-208.664E-15	30.3231E-3	-14.4610E-3
2.50125E-6	-217.706E-15	17.2940E-3	-26.7592E-3	-144.568E-15	25.4426E-3	-3.63477E-3
-2.50125E-6	-232.895E-15	19.3070E-3	-33.5715E-3	-159.897E-15	18.8628E-3	-6.99337E-3
-7.50375E-6	-155.537E-15	35.3842E-3	-24.8899E-3	-199.979E-15	29.5942E-3	-9.42632E-3
-12.5063E-6	-136.145E-15	38.8269E-3	-24.8011E-3	-223.713E-15	49.5927E-3	-10.0768E-3
-17.5088E-6	-229.625E-15	34.5615E-3	-31.4420E-3	-193.013E-15	49.4087E-3	-11.0922E-3
-22.5113E-6	-256.864E-15	37.7167E-3	-21.6579E-3	-221.054E-15	31.9472E-3	2.28453E-3
-27.5138E-6	-241.300E-15	30.8448E-3	-12.4616E-3	-258.076E-15	23.0289E-3	13.4083E-3
-32.5163E-6	-227.977E-15	22.9226E-3	-15.9715E-3	-251.083E-15	31.3361E-3	7.41788E-3
-37.5188E-6	-237.595E-15	23.0045E-3	-14.7574E-3	-198.044E-15	35.6693E-3	6.40671E-3
-42.5213E-6	-304.009E-15	17.3359E-3	-12.5551E-3	-283.048E-15	33.1490E-3	3.62582E-3
-47.5238E-6	-268.112E-15	16.9084E-3	-22.9650E-3	-321.274E-15	29.0936E-3	-13.9792E-3
-52.5263E-6	-251.833E-15	25.4820E-3	-31.0952E-3	-302.728E-15	22.6136E-3	-26.1392E-3
-57.5288E-6	-326.130E-15	23.5659E-3	-30.1953E-3	-304.881E-15	23.8812E-3	-25.8136E-3
-62.5313E-6	-298.978E-15	22.0125E-3	-23.8946E-3	-305.099E-15	28.4816E-3	-15.4559E-3
-67.5338E-6	-308.901E-15	36.1079E-3	-10.9656E-3	-344.118E-15	17.8836E-3	-3.31430E-3
-72.5363E-6	-324.962E-15	51.0280E-3	-3.05610E-3	-350.222E-15	13.4135E-3	-869.829E-6
-77.5388E-6	-321.125E-15	54.1400E-3	-10.8957E-3	-328.790E-15	32.5387E-3	-7.54844E-3
-82.5413E-6	-338.782E-15	47.0696E-3	-16.2899E-3	-387.593E-15	40.9147E-3	-9.30019E-3
-87.5438E-6	-332.897E-15	42.0920E-3	-13.3395E-3	-408.580E-15	33.0018E-3	2.86728E-3
-92.5463E-6	-356.726E-15	44.0046E-3	-24.3732E-3	-326.697E-15	30.8508E-3	6.73812E-3
-97.5488E-6	-400.166E-15	48.8137E-3	-27.7970E-3	-382.867E-15	37.1465E-3	-2.18818E-3
-102.551E-6	-375.918E-15	41.6475E-3	-17.9045E-3	-430.928E-15	45.0206E-3	-12.6644E-3
-107.554E-6	-419.985E-15	27.3225E-3	-20.4387E-3	-481.369E-15	47.0291E-3	-18.3443E-3
-112.556E-6	-478.422E-15	28.6853E-3	-11.3544E-3	-441.539E-15	48.6841E-3	-12.6072E-3
-117.559E-6	-456.562E-15	34.1238E-3	9.32576E-3	-402.477E-15	55.9383E-3	-12.2279E-3
-122.561E-6	-451.619E-15	38.1605E-3	6.52943E-3	-514.101E-15	60.2006E-3	-21.3485E-3
-127.564E-6	-453.441E-15	50.4981E-3	-10.4485E-3	-516.394E-15	55.7481E-3	-24.1085E-3
-132.566E-6	-551.891E-15	47.7313E-3	-18.3540E-3	-502.077E-15	62.9416E-3	-22.3783E-3
-137.569E-6	-552.248E-15	34.1891E-3	-19.7778E-3	-520.030E-15	72.6421E-3	-20.0077E-3
-142.571E-6	-521.739E-15	46.8943E-3	-15.1068E-3	-630.356E-15	62.8835E-3	-22.8371E-3
-147.574E-6	-529.055E-15	62.3096E-3	-6.14931E-3	-588.930E-15	60.8203E-3	-35.3701E-3
-152.576E-6	-574.561E-15	59.4475E-3	-6.60090E-3	-574.169E-15	70.3076E-3	-45.6732E-3
-157.579E-6	-652.686E-15	57.7315E-3	-11.4699E-3	-595.069E-15	70.4702E-3	-41.8472E-3
-162.581E-6	-657.054E-15	49.0447E-3	-7.89341E-3	-666.323E-15	73.2293E-3	-26.2868E-3
-167.584E-6	-635.544E-15	38.4909E-3	-9.46088E-3	-663.611E-15	77.8553E-3	-16.7931E-3
-172.586E-6	-663.123E-15	54.8248E-3	-9.97435E-3	-697.486E-15	76.9629E-3	-21.2847E-3
-177.589E-6	-710.774E-15	76.3448E-3	-8.57783E-3	-716.729E-15	76.9823E-3	-25.0089E-3
-182.591E-6	-699.840E-15	71.1074E-3	-26.6575E-3	-719.075E-15	76.9543E-3	-17.2643E-3
-187.594E-6	-742.233E-15	64.4846E-3	-38.0472E-3	-713.407E-15	73.2558E-3	-6.28796E-3
-192.596E-6	-791.741E-15	75.6306E-3	-17.1236E-3	-756.411E-15	68.6372E-3	-3.52310E-3
-197.599E-6	-785.463E-15	84.2020E-3	-1.67678E-3	-820.934E-15	68.7506E-3	-13.5436E-3
-202.601E-6	-814.499E-15	83.8870E-3	-15.0434E-3	-849.062E-15	71.7899E-3	-26.8138E-3
-207.604E-6	-851.163E-15	75.4367E-3	-28.0808E-3	-849.603E-15	81.5349E-3	-27.1490E-3
-212.606E-6	-921.171E-15	70.3571E-3	-29.1291E-3	-862.246E-15	92.3775E-3	-27.0920E-3
-217.609E-6	-908.728E-15	79.4843E-3	-27.5351E-3	-971.211E-15	93.0802E-3	-30.5323E-3
-222.611E-6	-911.649E-15	80.4655E-3	-24.8337E-3	-975.640E-15	95.9400E-3	-25.4068E-3
-227.614E-6	-998.973E-15	73.6926E-3	-27.5151E-3	-943.196E-15	104.592E-3	-25.2320E-3
-232.616E-6	-1.01822E-12	76.7332E-3	-32.0351E-3	-998.450E-15	105.169E-3	-24.3847E-3
-237.619E-6	-1.01769E-12	79.5566E-3	-15.9133E-3	-1.07902E-12	109.199E-3	-13.7790E-3
-242.621E-6	-1.07495E-12	74.6318E-3	3.99540E-3	-1.14545E-12	113.998E-3	-9.87258E-3
-247.624E-6	-1.19465E-12	80.6051E-3	1.12128E-3	-1.11424E-12	108.202E-3	-11.5886E-3
-252.626E-6	-1.22564E-12	98.7851E-3	-9.74760E-3	-1.16805E-12	112.728E-3	-11.7306E-3
-257.629E-6	-1.21030E-12	106.564E-3	-19.0864E-3	-1.25753E-12	129.933E-3	-18.4663E-3
-262.631E-6	-1.21949E-12	108.889E-3	-22.9525E-3	-1.26564E-12	137.572E-3	-25.5506E-3
-267.634E-6	-1.37754E-12	123.784E-3	-14.6519E-3	-1.27863E-12	134.145E-3	-22.4888E-3
-272.636E-6	-1.40553E-12	136.164E-3	-14.6214E-3	-1.33326E-12	128.747E-3	-20.0601E-3
-277.639E-6	-1.37444E-12	134.549E-3	-25.8337E-3	-1.38569E-12	125.228E-3	-24.4267E-3
-282.641E-6	-1.36433E-12	136.975E-3	-23.8792E-3	-1.43703E-12	126.802E-3	-21.5607E-3
-287.644E-6	-1.48209E-12	136.818E-3	-17.7886E-3	-1.44513E-12	134.571E-3	-6.19449E-3
-292.646E-6	-1.53405E-12	128.626E-3	-24.7874E-3	-1.50774E-12	140.809E-3	7.87229E-3
-297.649E-6	-1.57252E-12	129.073E-3	-24.2407E-3	-1.56847E-12	134.563E-3	11.0044E-3
-302.651E-6	-1.57240E-12	129.596E-3	-9.70605E-3	-1.63913E-12	130.839E-3	-8.44713E-3
-307.654E-6	-1.62594E-12	121.198E-3	-14.5599E-3	-1.64562E-12	138.325E-3	-25.4479E-3
-312.656E-6	-1.65003E-12	126.874E-3	-29.0882E-3	-1.70062E-12	145.527E-3	-13.7388E-3
-317.659E-6	-1.67625E-12	140.069E-3	-20.8556E-3	-1.80979E-12	154.750E-3	-1.53245E-3
-322.661E-6	-1.73899E-12	141.181E-3	-8.55032E-3	-1.82690E-12	159.527E-3	1.25831E-3
-327.664E-6	-1.82206E-12	140.898E-3	2.68238E-3	-1.95329E-12	161.540E-3	4.83404E-3
-332.666E-6	-1.84965E-12	133.255E-3	14.9927E-3	-1.98928E-12	168.029E-3	-4.15953E-3
-337.669E-6	-1.92183E-12	122.103E-3	5.97708E-3	-2.04070E-12	169.121E-3	-21.6155E-3
-342.671E-6	-2.00313E-12	136.023E-3	-6.89135E-3	-2.08268E-12	167.204E-3	-22.8347E-3
-347.674E-6	-2.03077E-12	157.146E-3	-10.5296E-3	-2.13282E-12	172.151E-3	-17.1892E-3
-352.676E-6	-2.08583E-12	161.312E-3	-18.6703E-3	-2.25834E-12	173.113E-3	-22.4102E-3
-357.679E-6	-2.21320E-12	169.180E-3	-18.4505E-3	-2.24174E-12	163.295E-3	-17.6551E-3
-362.681E-6	-2.30793E-12	172.089E-3	-14.5656E-3	-2.23991E-12	157.313E-3	-7.30624E-3
-367.684E-6	-2.37611E-12	175.907E-3	-32.3023E-3	-2.27222E-12	156.048E-3	-23.1857E-3
-372.686E-6	-2.36774E-12	199.708E-3	-42.9814E-3	-2.35134E-12	157.146E-3	-35.5312E-3
-377.689E-6	-2.43012E-12	213.166E-3	-25.2401E-3	-2.39455E-12	162.419E-3	-22.7165E-3
-382.691E-6	-2.54804E-12	206.331E-3	-19.5571E-3	-2.39022E-12	158.423E-3	-20.6335E-3
-387.694E-6	-2.58098E-12	190.336E-3	-28.9636E-3	-2.46265E-12	149.355E-3	-29.5141E-3
-392.696E-6	-2.52583E-12	171.309E-3	-24.1527E-3	-2.58671E-12	163.213E-3	-17.6331E-3
-397.699E-6	-2.58716E-12	160.264E-3	-13.1399E-3	-2.63614E-12	187.085E-3	-461.749E-6
-402.701E-6	-2.64614E-12	168.565E-3	-18.4640E-3	-2.66790E-12	189.395E-3	295.445E-6
-407.704E-6	-2.69415E-12	183.060E-3	-30.9300E-3	-2.68469E-12	183.739E-3	-6.05889E-3
-412.706E-6	-2.75366E-12	183.677E-3	-26.1986E-3	-2.83653E-12	192.879E-3	-14.5257E-3
-417.709E-6	-2.76355E-12	179.615E-3	-18.5339E-3	-2.91118E-12	201.186E-3	-20.0479E-3
-422.711E-6	-2.92169E-12	179.247E-3	-11.1220E-3	-2.96753E-12	188.105E-3	-21.8066E-3
-427.714E-6	-2.96393E-12	179.449E-3	-2.46340E-3	-2.99905E-12	173.715E-3	-23.1030E-3
-432.716E-6	-3.03599E-12	185.304E-3	-11.7325E-3	-3.12269E-12	174.705E-3	-23.1625E-3
-437.719E-6	-3.09764E-12	195.829E-3	-24.2587E-3	-3.19830E-12	181.404E-3	-15.8714E-3
-442.721E-6	-3.20078E-12	190.861E-3	-27.2166E-3	-3.25041E-12	190.415E-3	-2.58563E-3
-447.724E-6	-3.25602E-12	184.234E-3	-23.7325E-3	-3.31092E-12	197.186E-3	-3.69159E-3
-452.726E-6	-3.37208E-12	197.209E-3	-6.06883E-3	-3.32365E-12	193.045E-3	-17.0399E-3
-457.729E-6	-3.49473E-12	200.242E-3	7.73378E-3	-3.34105E-12	181.623E-3	-28.3973E-3
-462.731E-6	-3.53751E-12	191.687E-3	-9.10299E-3	-3.41392E-12	169.907E-3	-34.1033E-3
-467.734E-6	-3.63492E-12	192.584E-3	-21.4842E-3	-3.51852E-12	164.873E-3	-26.4353E-3
-472.736E-6	-3.67972E-12	191.389E-3	-10.4705E-3	-3.51203E-12	164.318E-3	-15.8446E-3
-477.739E-6	-3.78116E-12	190.636E-3	-10.1310E-3	-3.56523E-12	165.274E-3	-14.8920E-3
-482.741E-6	-3.79608E-12	194.260E-3	-16.1617E-3	-3.70447E-12	177.540E-3	-18.3381E-3
-487.744E-6	-3.78203E-12	183.134E-3	-7.92162E-3	-3.80551E-12	195.384E-3	-20.5872E-3
-492.746E-6	-3.81642E-12	169.315E-3	-6.22105E-3	-3.87621E-12	187.529E-3	-23.9096E-3
-497.749E-6	-3.98375E-12	178.815E-3	-14.3409E-3	-3.85222E-12	161.034E-3	-21.7740E-3
-502.751E-6	-3.98640E-12	189.520E-3	-8.22752E-3	-3.94116E-12	160.207E-3	-12.1024E-3
-507.754E-6	-3.99696E-12	187.929E-3	-4.21503E-3	-4.12779E-12	174.882E-3	-10.5427E-3
-512.756E-6	-3.95168E-12	185.233E-3	-12.7652E-3	-4.15168E-12	176.424E-3	-15.9155E-3
-517.759E-6	-4.13600E-12	172.155E-3	-11.1573E-3	-4.16948E-12	176.151E-3	-15.5967E-3
-522.761E-6	-4.21802E-12	162.216E-3	-10.7984E-3	-4.26755E-12	177.781E-3	-10.1076E-3
-527.764E-6	-4.18484E-12	176.527E-3	-15.1788E-3	-4.33182E-12	181.849E-3	-4.38670E-3
-532.766E-6	-4.21613E-12	180.190E-3	-11.7914E-3	-4.36087E-12	191.311E-3	-7.82148E-3
-537.769E-6	-4.27492E-12	167.182E-3	-24.9001E-3	-4.35073E-12	189.428E-3	-19.2542E-3
-542.771E-6	-4.44844E-12	165.979E-3	-39.6139E-3	-4.39949E-12	182.684E-3	-18.9527E-3
-547.774E-6	-4.44730E-12	165.519E-3	-26.7087E-3	-4.48071E-12	184.319E-3	-11.6281E-3
-552.776E-6	-4.43968E-12	160.999E-3	-16.5267E-3	-4.49257E-12	184.620E-3	-12.7803E-3
-557.779E-6	-4.60208E-12	166.336E-3	-22.9470E-3	-4.55425E-12	183.224E-3	-20.3317E-3
-562.781E-6	-4.70501E-12	177.428E-3	-16.8910E-3	-4.62022E-12	181.042E-3	-30.6836E-3
-567.784E-6	-4.77013E-12	177.747E-3	-3.97450E-3	-4.74733E-12	171.589E-3	-27.5599E-3
-572.786E-6	-4.84338E-12	170.079E-3	-1.05675E-3	-4.76829E-12	163.351E-3	-11.4567E-3
-577.789E-6	-4.95801E-12	166.632E-3	7.37456E-3	-4.90750E-12	163.733E-3	-3.06885E-3
-582.791E-6	-4.96615E-12	169.417E-3	10.3624E-3	-4.93314E-12	157.792E-3	-6.34300E-3
-587.794E-6	-5.00727E-12	176.924E-3	-2.84428E-3	-4.96538E-12	144.220E-3	-13.9516E-3
-592.796E-6	-5.04139E-12	179.873E-3	-8.78904E-3	-5.10110E-12	141.641E-3	-22.8498E-3
-597.799E-6	-5.13456E-12	164.803E-3	-11.4315E-3	-5.14318E-12	143.025E-3	-29.0729E-3
-602.801E-6	-5.18737E-12	148.142E-3	-18.7039E-3	-5.22240E-12	142.496E-3	-24.4065E-3
-607.804E-6	-5.17396E-12	147.035E-3	-16.3622E-3	-5.29406E-12	142.392E-3	-21.3715E-3
-612.806E-6	-5.23437E-12	147.939E-3	-15.2964E-3	-5.32785E-12	143.550E-3	-26.5863E-3
-617.809E-6	-5.30332E-12	148.205E-3	-23.9000E-3	-5.31611E-12	146.898E-3	-18.1694E-3
-622.811E-6	-5.27460E-12	148.064E-3	-20.1459E-3	-5.36964E-12	146.177E-3	-4.15829E-3
-627.814E-6	-5.33208E-12	143.616E-3	-13.3931E-3	-5.43762E-12	146.854E-3	-14.4526E-3
-632.816E-6	-5.34383E-12	141.684E-3	-24.2300E-3	-5.40481E-12	148.924E-3	-28.2024E-3
-637.819E-6	-5.40612E-12	146.554E-3	-25.4217E-3	-5.44985E-12	149.426E-3	-22.3861E-3
-642.821E-6	-5.39911E-12	146.928E-3	-9.36673E-3	-5.57222E-12	146.707E-3	-17.8149E-3
-647.824E-6	-5.47503E-12	137.289E-3	-1.69461E-3	-5.53757E-12	145.899E-3	-22.9162E-3
-652.826E-6	-5.54727E-12	134.055E-3	2.02721E-3	-5.55912E-12	151.226E-3	-22.4144E-3
-657.829E-6	-5.59211E-12	144.124E-3	2.41126E-3	-5.63722E-12	147.863E-3	-16.8396E-3
-662.831E-6	-5.68861E-12	148.222E-3	-4.49834E-3	-5.81347E-12	131.924E-3	-19.0842E-3
-667.834E-6	-5.71789E-12	137.949E-3	2.68037E-3	-5.87587E-12	130.282E-3	-28.9898E-3
-672.836E-6	-5.83780E-12	124.841E-3	10.2669E-3	-5.83193E-12	140.504E-3	-38.2272E-3
-677.839E-6	-5.99570E-12	116.790E-3	-2.06233E-3	-5.93598E-12	139.926E-3	-34.8887E-3
-682.841E-6	-5.99993E-12	123.335E-3	-10.4338E-3	-6.04528E-12	130.140E-3	-13.9019E-3
-687.844E-6	-6.11214E-12	131.542E-3	-6.55974E-3	-6.06573E-12	115.723E-3	492.606E-6
-692.846E-6	-6.16508E-12	127.015E-3	-5.58784E-3	-6.01721E-12	109.994E-3	-14.0149E-3
-697.849E-6	-6.17864E-12	129.137E-3	-11.1105E-3	-6.16146E-12	121.525E-3	-27.8585E-3
-702.851E-6	-6.26818E-12	131.632E-3	-13.5762E-3	-6.18135E-12	135.339E-3	-20.5632E-3
-707.854E-6	-6.29403E-12	127.493E-3	-10.8303E-3	-6.14387E-12	132.297E-3	-8.50129E-3
-712.856E-6	-6.31384E-12	135.435E-3	-5.19944E-3	-6.15817E-12	124.079E-3	-8.27421E-3
-717.859E-6	-6.23139E-12	133.908E-3	-10.0646E-3	-6.21155E-12	124.181E-3	-23.0285E-3
-722.861E-6	-6.21504E-12	115.444E-3	-26.0079E-3	-6.24206E-12	122.836E-3	-28.9204E-3
-727.864E-6	-6.28524E-12	115.842E-3	-27.1494E-3	-6.26463E-12	127.258E-3	-23.9857E-3
-732.866E-6	-6.29675E-12	131.240E-3	-9.77194E-3	-6.32900E-12	137.409E-3	-25.8835E-3
-737.869E-6	-6.25624E-12	138.437E-3	-708.156E-6	-6.39509E-12	129.407E-3	-27.8327E-3
-742.871E-6	-6.29383E-12	142.505E-3	-9.93011E-3	-6.48875E-12	121.478E-3	-22.0838E-3
-747.874E-6	-6.38338E-12	132.966E-3	-24.1782E-3	-6.50740E-12	138.893E-3	-21.2808E-3
-752.876E-6	-6.45222E-12	108.606E-3	-39.5364E-3	-6.56017E-12	141.604E-3	-23.0445E-3
-757.879E-6	-6.40713E-12	101.315E-3	-40.3662E-3	-6.72634E-12	115.735E-3	-13.6251E-3
-762.881E-6	-6.50366E-12	110.162E-3	-25.3088E-3	-6.79666E-12	100.453E-3	-11.8614E-3
-767.884E-6	-6.67655E-12	121.452E-3	-29.3064E-3	-6.81167E-12	102.481E-3	-31.5302E-3
-772.886E-6	-6.76522E-12	131.043E-3	-39.0997E-3	-6.82283E-12	107.315E-3	-40.9333E-3
-777.889E-6	-6.79545E-12	126.702E-3	-14.7935E-3	-6.95600E-12	119.649E-3	-25.8683E-3
-782.891E-6	-6.91542E-12	116.944E-3	7.92269E-3	-6.94235E-12	126.472E-3	-11.6439E-3
-787.894E-6	-6.98546E-12	125.087E-3	-3.67158E-3	-6.85238E-12	116.801E-3	-2.29449E-3
-792.896E-6	-7.10418E-12	128.437E-3	-9.00180E-3	-6.90226E-12	113.674E-3	4.62009E-3
-797.899E-6	-7.11054E-12	115.805E-3	-4.52148E-3	-6.97472E-12	117.614E-3	-3.50516E-3
-802.901E-6	-7.12444E-12	121.736E-3	-8.56494E-3	-6.93413E-12	117.084E-3	-10.9221E-3
-807.904E-6	-7.18672E-12	131.784E-3	-8.73487E-3	-6.90464E-12	122.102E-3	-9.80951E-3
-812.906E-6	-7.17836E-12	127.300E-3	-15.8920E-3	-7.00908E-12	125.978E-3	-15.5878E-3
-817.909E-6	-7.18052E-12	138.388E-3	-34.3887E-3	-7.05193E-12	114.111E-3	-20.4550E-3
-822.911E-6	-7.19754E-12	146.877E-3	-37.7517E-3	-7.07640E-12	103.705E-3	-15.9591E-3
-827.914E-6	-7.21841E-12	124.389E-3	-22.6949E-3	-7.12893E-12	113.922E-3	-18.3151E-3
-832.916E-6	-7.21587E-12	111.679E-3	-12.8917E-3	-7.24685E-12	130.501E-3	-29.4828E-3
-837.919E-6	-7.18379E-12	118.360E-3	-12.4964E-3	-7.32340E-12	141.574E-3	-27.6438E-3
-842.921E-6	-7.19833E-12	120.063E-3	-14.2220E-3	-7.39853E-12	144.388E-3	-21.8909E-3
-847.924E-6	-7.28432E-12	131.100E-3	-21.5618E-3	-7.46952E-12	131.158E-3	-22.5607E-3
-852.926E-6	-7.30965E-12	142.099E-3	-20.7233E-3	-7.57580E-12	122.328E-3	-17.3734E-3
-857.929E-6	-7.39161E-12	131.980E-3	-8.57105E-3	-7.59359E-12	129.491E-3	-6.23750E-3
-862.931E-6	-7.48451E-12	128.864E-3	-7.61101E-3	-7.60781E-12	132.012E-3	6.48568E-3
-867.934E-6	-7.52700E-12	141.601E-3	-9.47426E-3	-7.63709E-12	126.674E-3	9.95631E-3
-872.936E-6	-7.63580E-12	137.222E-3	-8.06139E-3	-7.70991E-12	126.912E-3	-5.93755E-3
-877.939E-6	-7.72549E-12	120.409E-3	-15.8586E-3	-7.72742E-12	130.857E-3	-22.3406E-3
-882.941E-6	-7.82716E-12	117.801E-3	-15.6263E-3	-7.65162E-12	133.961E-3	-15.0971E-3
-887.944E-6	-7.94249E-12	120.690E-3	-5.17070E-3	-7.64660E-12	139.981E-3	-6.75180E-3
-892.946E-6	-7.97221E-12	128.906E-3	-13.8647E-3	-7.68959E-12	135.081E-3	-19.3242E-3
-897.949E-6	-7.99546E-12	150.040E-3	-25.0718E-3	-7.76059E-12	127.513E-3	-32.6400E-3
-902.951E-6	-8.13679E-12	154.535E-3	-11.8315E-3	-7.68088E-12	138.458E-3	-36.9873E-3
-907.954E-6	-8.11356E-12	144.618E-3	-670.751E-6	-7.75999E-12	152.714E-3	-33.7746E-3
-912.956E-6	-8.17100E-12	150.704E-3	-6.55353E-3	-7.90833E-12	156.211E-3	-27.9062E-3
-917.959E-6	-8.08005E-12	154.024E-3	-15.6371E-3	-7.96075E-12	153.611E-3	-22.5853E-3
-922.961E-6	-8.16952E-12	145.709E-3	-22.0364E-3	-7.98746E-12	146.714E-3	-20.2737E-3
-927.964E-6	-8.20731E-12	147.242E-3	-23.8231E-3	-8.12014E-12	145.812E-3	-26.9520E-3
-932.966E-6	-8.12432E-12	147.016E-3	-14.7562E-3	-8.28504E-12	159.219E-3	-33.5777E-3
-937.969E-6	-8.13417E-12	140.126E-3	-5.59623E-3	-8.33046E-12	165.741E-3	-23.8986E-3
-942.971E-6	-8.20253E-12	153.980E-3	-13.9707E-3	-8.38551E-12	160.553E-3	-1.86335E-3
-947.974E-6	-8.19289E-12	164.639E-3	-23.9539E-3	-8.51087E-12	160.205E-3	-1.89844E-3
-952.976E-6	-8.17280E-12	155.179E-3	-27.7083E-3	-8.59091E-12	157.860E-3	-22.8607E-3
-957.979E-6	-8.34096E-12	160.838E-3	-26.7246E-3	-8.58039E-12	160.523E-3	-25.5543E-3
-962.981E-6	-8.45238E-12	171.806E-3	-14.0290E-3	-8.60749E-12	183.522E-3	-15.3156E-3
-967.984E-6	-8.48627E-12	175.268E-3	-19.2286E-3	-8.69312E-12	194.845E-3	-16.0233E-3
-972.986E-6	-8.58186E-12	182.374E-3	-36.4730E-3	-8.68625E-12	183.793E-3	-19.3843E-3
-977.989E-6	-8.72374E-12	185.491E-3	-23.5072E-3	-8.70282E-12	181.129E-3	-16.2546E-3
-982.991E-6	-8.85767E-12	179.492E-3	-10.2400E-3	-8.76496E-12	184.835E-3	-15.9015E-3
-987.994E-6	-8.87559E-12	181.556E-3	-15.5976E-3	-8.84059E-12	188.135E-3	-13.9987E-3
-992.997E-6	-9.03134E-12	189.191E-3	-9.80996E-3	-8.86075E-12	202.322E-3	-9.04119E-3
-997.999E-6	-9.12716E-12	187.977E-3	-10.9145E-3	-8.94329E-12	216.266E-3	-19.7502E-3
-1.00300E-3	-9.25223E-12	188.795E-3	-27.5175E-3	-8.93133E-12	222.059E-3	-32.4621E-3
-1.00800E-3	-9.27237E-12	190.611E-3	-24.5083E-3	-9.15606E-12	227.139E-3	-21.9471E-3
-1.01301E-3	-9.30297E-12	194.020E-3	-9.06528E-3	-9.26567E-12	232.747E-3	-11.9383E-3
-1.01801E-3	-9.45684E-12	208.993E-3	-12.3020E-3	-9.28795E-12	237.613E-3	-7.27638E-3
-1.02301E-3	-9.58910E-12	211.129E-3	-21.7971E-3	-9.46244E-12	236.658E-3	2.20737E-3
-1.02801E-3	-9.48502E-12	196.670E-3	-21.5037E-3	-9.63302E-12	239.975E-3	1.35442E-3
-1.03302E-3	-9.54586E-12	196.155E-3	-17.5752E-3	-9.68358E-12	252.734E-3	-1.98643E-3
-1.03802E-3	-9.70055E-12	208.548E-3	-5.59050E-3	-9.72742E-12	261.024E-3	-6.09109E-3
-1.04302E-3	-9.79741E-12	220.621E-3	-551.636E-6	-9.88662E-12	262.939E-3	-8.89058E-3
-1.04802E-3	-9.81710E-12	235.221E-3	-5.57129E-3	-10.0132E-12	262.237E-3	-8.56576E-3
-1.05303E-3	-9.85554E-12	247.080E-3	-7.70060E-3	-10.0217E-12	263.136E-3	-17.0754E-3
-1.05803E-3	-9.97345E-12	244.755E-3	-11.1760E-3	-9.98474E-12	270.602E-3	-23.7748E-3
-1.06303E-3	-9.98649E-12	249.086E-3	-19.7448E-3	-10.1446E-12	270.369E-3	-20.6185E-3
-1.06803E-3	-10.0582E-12	276.438E-3	-24.9639E-3	-10.2528E-12	266.610E-3	-21.8145E-3
-1.07304E-3	-10.2045E-12	292.524E-3	-18.4926E-3	-10.2110E-12	275.114E-3	-33.6305E-3
-1.07804E-3	-10.3367E-12	281.379E-3	-6.38396E-3	-10.3014E-12	290.672E-3	-39.7603E-3
-1.08304E-3	-10.4327E-12	274.615E-3	7.74434E-3	-10.4097E-12	323.224E-3	-28.9246E-3
-1.08804E-3	-10.5630E-12	281.476E-3	7.40247E-3	-10.5240E-12	352.837E-3	-10.3610E-3
-1.09305E-3	-10.6932E-12	292.216E-3	-8.10985E-3	-10.5567E-12	349.685E-3	2.72573E-3
-1.09805E-3	-10.8351E-12	307.906E-3	-18.2653E-3	-10.6569E-12	337.912E-3	1.83759E-3
-1.10305E-3	-11.0448E-12	318.045E-3	-18.4935E-3	-10.9282E-12	335.667E-3	-15.8958E-3
-1.10805E-3	-11.0934E-12	326.959E-3	-23.3190E-3	-11.0220E-12	348.396E-3	-30.8087E-3
-1.11306E-3	-11.3258E-12	344.299E-3	-20.8902E-3	-11.1109E-12	377.494E-3	-28.5226E-3
-1.11806E-3	-11.4746E-12	353.081E-3	-5.54002E-3	-11.2093E-12	398.088E-3	-21.7908E-3
-1.12306E-3	-11.4942E-12	359.924E-3	-2.63565E-3	-11.4058E-12	400.744E-3	-17.8913E-3
-1.12806E-3	-11.6060E-12	370.762E-3	-14.8017E-3	-11.5498E-12	407.419E-3	-12.1942E-3
-1.13307E-3	-11.8020E-12	363.442E-3	-21.2942E-3	-11.4990E-12	423.960E-3	-14.5270E-3
-1.13807E-3	-11.8931E-12	355.583E-3	-18.8881E-3	-11.6925E-12	436.028E-3	-21.2761E-3
-1.14307E-3	-11.8429E-12	380.734E-3	-17.0703E-3	-11.9694E-12	451.171E-3	-12.6788E-3
-1.14807E-3	-11.8967E-12	416.834E-3	-6.05729E-3	-12.0139E-12	475.801E-3	1.77574E-3
-1.15308E-3	-12.0839E-12	430.868E-3	390.573E-6	-12.1683E-12	490.278E-3	-2.36180E-3
-1.15808E-3	-12.2161E-12	441.354E-3	-12.8412E-3	-12.3651E-12	500.729E-3	-10.3101E-3
-1.16308E-3	-12.2319E-12	443.636E-3	-16.9805E-3	-12.7016E-12	526.507E-3	-2.44969E-3
-1.16808E-3	-12.3777E-12	434.135E-3	-16.4703E-3	-12.8842E-12	556.079E-3	-357.222E-6
-1.17309E-3	-12.6091E-12	450.568E-3	-23.9229E-3	-13.0263E-12	570.201E-3	-3.45365E-3
-1.17809E-3	-12.8969E-12	483.087E-3	-23.4769E-3	-13.2704E-12	579.023E-3	-5.01317E-3
-1.18309E-3	-13.0081E-12	498.105E-3	-25.8083E-3	-13.5804E-12	596.551E-3	-15.5789E-3
-1.18809E-3	-13.2314E-12	509.208E-3	-40.5473E-3	-13.5944E-12	608.569E-3	-20.1099E-3
-1.19310E-3	-13.6052E-12	535.087E-3	-40.3681E-3	-13.8271E-12	618.651E-3	-5.12120E-3
-1.19810E-3	-13.9169E-12	554.572E-3	-20.7441E-3	-14.0937E-12	639.080E-3	6.93545E-3
-1.20310E-3	-14.1183E-12	574.171E-3	-12.7646E-3	-14.2740E-12	656.194E-3	-3.38569E-3
-1.20810E-3	-14.4557E-12	606.634E-3	-17.9755E-3	-14.3849E-12	665.089E-3	-23.2203E-3
-1.21311E-3	-14.8215E-12	625.361E-3	-17.6882E-3	-14.5706E-12	677.283E-3	-33.6138E-3
-1.21811E-3	-15.0942E-12	633.964E-3	-16.1408E-3	-14.7820E-12	696.135E-3	-20.6083E-3
-1.22311E-3	-15.2666E-12	646.588E-3	-13.8866E-3	-14.9609E-12	715.630E-3	-83.4612E-6
-1.22811E-3	-15.5449E-12	660.846E-3	-12.4926E-3	-14.9946E-12	731.367E-3	-705.401E-6
-1.23312E-3	-15.7689E-12	679.980E-3	-21.8096E-3	-15.1940E-12	743.603E-3	-7.11015E-3
-1.23812E-3	-15.9440E-12	694.220E-3	-24.9022E-3	-15.6322E-12	763.639E-3	-1.92067E-3
-1.24312E-3	-16.0005E-12	708.717E-3	-19.0007E-3	-15.7895E-12	793.471E-3	-5.71781E-3
-1.24812E-3	-16.1047E-12	741.505E-3	-24.4039E-3	-15.9842E-12	809.274E-3	-16.0777E-3
-1.25313E-3	-16.2599E-12	769.757E-3	-28.5458E-3	-16.2593E-12	811.290E-3	-7.19230E-3
-1.25813E-3	-16.3750E-12	768.417E-3	-18.3243E-3	-16.7673E-12	828.114E-3	4.66561E-3
-1.26313E-3	-16.6054E-12	765.333E-3	-20.8816E-3	-17.0638E-12	852.983E-3	-1.41043E-3
-1.26813E-3	-16.8961E-12	780.073E-3	-24.8798E-3	-17.3420E-12	877.907E-3	-19.3907E-3
-1.27314E-3	-17.2469E-12	788.968E-3	-11.7991E-3	-17.7477E-12	906.309E-3	-33.6884E-3
-1.27814E-3	-17.3408E-12	800.554E-3	-11.8288E-3	-18.0978E-12	914.591E-3	-26.5354E-3
-1.28314E-3	-17.6423E-12	828.848E-3	-21.2669E-3	-18.4710E-12	910.266E-3	-13.7616E-3
-1.28814E-3	-18.2408E-12	845.431E-3	-13.2324E-3	-18.5886E-12	919.803E-3	-14.5470E-3
-1.29315E-3	-18.6283E-12	844.417E-3	-2.57843E-3	-18.7312E-12	929.179E-3	-12.8308E-3
-1.29815E-3	-18.9372E-12	859.886E-3	-1.97744E-3	-19.0366E-12	936.107E-3	-13.4943E-3
-1.30315E-3	-19.2723E-12	891.544E-3	2.81290E-3	-19.2661E-12	952.129E-3	-35.4690E-3
-1.30815E-3	-19.8644E-12	914.657E-3	3.45936E-3	-19.3800E-12	958.347E-3	-62.1918E-3
-1.31316E-3	-20.2972E-12	939.114E-3	1.12548E-3	-19.6509E-12	960.747E-3	-62.3126E-3
-1.31816E-3	-20.5662E-12	958.422E-3	919.102E-6	-19.9821E-12	983.917E-3	-35.2690E-3
-1.32316E-3	-20.8208E-12	966.209E-3	-8.50943E-3	-20.0622E-12	1.01251E+0	-19.4212E-3
-1.32816E-3	-21.1608E-12	988.009E-3	-14.6067E-3	-20.2294E-12	1.03049E+0	-22.5118E-3
-1.33317E-3	-21.5794E-12	1.01309E+0	-17.7857E-3	-20.7146E-12	1.04657E+0	-29.5137E-3
-1.33817E-3	-21.6119E-12	1.02724E+0	-30.1225E-3	-21.1480E-12	1.05881E+0	-37.2632E-3
-1.34317E-3	-21.7654E-12	1.04438E+0	-24.3924E-3	-21.3633E-12	1.06823E+0	-35.1261E-3
-1.34817E-3	-21.9803E-12	1.05292E+0	-3.30867E-3	-21.8974E-12	1.08304E+0	-24.6592E-3
-1.35318E-3	-22.2376E-12	1.04312E+0	-2.64971E-3	-22.3564E-12	1.10097E+0	-10.9068E-3
-1.35818E-3	-22.3212E-12	1.05332E+0	-22.1783E-3	-22.9491E-12	1.13067E+0	5.39719E-3
-1.36318E-3	-22.6978E-12	1.08200E+0	-32.4849E-3	-23.5746E-12	1.16102E+0	5.37551E-3
-1.36818E-3	-23.0417E-12	1.08211E+0	-23.5298E-3	-24.0363E-12	1.16780E+0	-9.64714E-3
-1.37319E-3	-23.4689E-12	1.07477E+0	-13.3657E-3	-24.5621E-12	1.16545E+0	-9.77533E-3
-1.37819E-3	-23.7803E-12	1.09855E+0	-3.21749E-3	-25.1879E-12	1.17459E+0	-4.52605E-3
-1.38319E-3	-24.2806E-12	1.12537E+0	-3.26066E-3	-25.3862E-12	1.17484E+0	-16.3145E-3
-1.38819E-3	-24.8449E-12	1.13084E+0	-21.4642E-3	-25.5921E-12	1.15846E+0	-29.0259E-3
-1.39320E-3	-25.1074E-12	1.12507E+0	-26.5447E-3	-26.1663E-12	1.16165E+0	-23.5472E-3
-1.39820E-3	-25.6488E-12	1.11771E+0	-15.3501E-3	-26.3699E-12	1.17365E+0	-9.59736E-3
-1.40320E-3	-26.3115E-12	1.12572E+0	-19.2351E-3	-26.3925E-12	1.16699E+0	-5.02741E-3
-1.40820E-3	-26.9146E-12	1.14741E+0	-32.2205E-3	-26.7147E-12	1.16436E+0	-12.6848E-3
-1.41321E-3	-27.3095E-12	1.15295E+0	-41.2353E-3	-27.1743E-12	1.17692E+0	-20.3433E-3
-1.41821E-3	-27.7250E-12	1.15843E+0	-40.4282E-3	-27.3558E-12	1.18805E+0	-15.6757E-3
-1.42321E-3	-28.4298E-12	1.18433E+0	-23.2113E-3	-27.6337E-12	1.20162E+0	-6.90624E-3
-1.42821E-3	-29.1122E-12	1.20103E+0	-5.60139E-3	-28.1377E-12	1.20356E+0	-4.89671E-3
-1.43322E-3	-29.3019E-12	1.21103E+0	-4.19299E-3	-28.7502E-12	1.19098E+0	-12.7169E-3
-1.43822E-3	-29.4959E-12	1.22420E+0	-8.22141E-3	-29.1050E-12	1.19855E+0	-27.3620E-3
-1.44322E-3	-30.1328E-12	1.21973E+0	-7.76522E-3	-29.3955E-12	1.22119E+0	-29.4711E-3
-1.44822E-3	-30.1806E-12	1.21389E+0	-9.70876E-3	-30.0412E-12	1.23956E+0	-15.1026E-3
-1.45323E-3	-30.6193E-12	1.23614E+0	-10.9873E-3	-30.5846E-12	1.24623E+0	535.958E-6
-1.45823E-3	-30.8140E-12	1.25181E+0	-10.8839E-3	-31.1490E-12	1.23726E+0	-10.6874E-3
-1.46323E-3	-31.2568E-12	1.23718E+0	-27.4699E-3	-31.6541E-12	1.22687E+0	-30.5922E-3
-1.46823E-3	-31.5872E-12	1.22643E+0	-41.1409E-3	-32.1431E-12	1.22997E+0	-25.2385E-3
-1.47324E-3	-31.9257E-12	1.21845E+0	-30.6048E-3	-32.6077E-12	1.23602E+0	-27.0738E-3
-1.47824E-3	-32.0907E-12	1.21397E+0	-16.2922E-3	-32.7894E-12	1.23377E+0	-36.1149E-3
-1.48324E-3	-32.5529E-12	1.22786E+0	-3.11390E-3	-33.2140E-12	1.22823E+0	-35.6896E-3
-1.48824E-3	-33.0274E-12	1.22385E+0	-1.69768E-3	-33.4852E-12	1.22434E+0	-44.8149E-3
-1.49325E-3	-33.3462E-12	1.20427E+0	-10.1542E-3	-33.7247E-12	1.21224E+0	-40.2704E-3
-1.49825E-3	-33.6616E-12	1.20422E+0	-13.0660E-3	-33.9328E-12	1.18872E+0	-21.6333E-3
-1.50325E-3	-34.2620E-12	1.20816E+0	-14.4157E-3	-34.3519E-12	1.17281E+0	-30.3600E-3
-1.50825E-3	-34.8410E-12	1.21235E+0	-10.9335E-3	-34.5938E-12	1.16975E+0	-33.7090E-3
-1.51326E-3	-34.9666E-12	1.22459E+0	-2.58329E-3	-34.9741E-12	1.18139E+0	-12.6817E-3
-1.51826E-3	-35.5217E-12	1.22092E+0	1.53611E-3	-35.0812E-12	1.19995E+0	-10.3550E-3
-1.52326E-3	-36.2545E-12	1.20126E+0	-4.25369E-3	-35.4230E-12	1.19247E+0	-23.2998E-3
-1.52826E-3	-36.7274E-12	1.19826E+0	-5.01866E-3	-36.0103E-12	1.17609E+0	-19.2510E-3
-1.53327E-3	-36.9316E-12	1.21024E+0	4.53423E-3	-36.4747E-12	1.18049E+0	-8.26794E-3
-1.53827E-3	-37.5123E-12	1.21514E+0	-5.54144E-3	-36.6486E-12	1.18525E+0	-14.3077E-3
-1.54327E-3	-38.0554E-12	1.21333E+0	-24.0629E-3	-37.1778E-12	1.18834E+0	-25.6866E-3
-1.54827E-3	-38.1048E-12	1.21919E+0	-21.6121E-3	-37.5818E-12	1.19236E+0	-20.5819E-3
-1.55328E-3	-38.4611E-12	1.21953E+0	-8.40972E-3	-38.0936E-12	1.17513E+0	-15.9418E-3
-1.55828E-3	-38.9132E-12	1.20513E+0	-4.46177E-3	-38.6772E-12	1.15154E+0	-20.5738E-3
-1.56328E-3	-39.3968E-12	1.19268E+0	-12.8404E-3	-38.6172E-12	1.15431E+0	-22.1038E-3
-1.56828E-3	-39.3352E-12	1.17973E+0	-22.1403E-3	-39.1746E-12	1.16503E+0	-23.9976E-3
-1.57329E-3	-39.3298E-12	1.17413E+0	-20.0251E-3	-39.6940E-12	1.15838E+0	-24.9158E-3
-1.57829E-3	-39.3434E-12	1.16819E+0	-3.24338E-3	-40.0353E-12	1.15499E+0	-24.7989E-3
-1.58329E-3	-39.7341E-12	1.14605E+0	1.31874E-3	-40.4840E-12	1.15853E+0	-19.9752E-3
-1.58829E-3	-39.9840E-12	1.13980E+0	-11.1855E-3	-40.9347E-12	1.14592E+0	-20.2459E-3
-1.59330E-3	-39.8328E-12	1.14457E+0	-10.6276E-3	-41.1413E-12	1.13092E+0	-26.8395E-3
-1.59830E-3	-40.2512E-12	1.11852E+0	3.33937E-3	-41.4199E-12	1.11838E+0	-27.1953E-3
-1.60330E-3	-41.0978E-12	1.08207E+0	6.39410E-3	-42.2195E-12	1.10066E+0	-24.2503E-3
-1.60830E-3	-41.4830E-12	1.07479E+0	-6.05688E-3	-42.3113E-12	1.10466E+0	-17.4376E-3
-1.61331E-3	-41.8751E-12	1.07857E+0	-17.2361E-3	-42.8043E-12	1.12957E+0	-13.6265E-3
-1.61831E-3	-42.7446E-12	1.08309E+0	-17.9988E-3	-43.3959E-12	1.12856E+0	-10.5790E-3
-1.62331E-3	-43.3151E-12	1.09384E+0	-14.0616E-3	-43.8756E-12	1.10505E+0	-10.5334E-3
-1.62831E-3	-43.8842E-12	1.10020E+0	-14.6612E-3	-44.1349E-12	1.09811E+0	-10.8568E-3
-1.63332E-3	-44.3890E-12	1.09938E+0	-19.8159E-3	-44.5327E-12	1.09522E+0	-4.46177E-3
-1.63832E-3	-45.2258E-12	1.09947E+0	-22.9353E-3	-44.3445E-12	1.08109E+0	-9.77582E-3
-1.64332E-3	-45.4745E-12	1.10332E+0	-29.3936E-3	-45.1512E-12	1.06124E+0	-28.3268E-3
-1.64832E-3	-46.1131E-12	1.10372E+0	-34.1063E-3	-45.3746E-12	1.03828E+0	-30.6463E-3
-1.65333E-3	-46.8916E-12	1.10732E+0	-27.5670E-3	-45.1765E-12	1.03184E+0	-17.7551E-3
-1.65833E-3	-47.1069E-12	1.11161E+0	-21.3204E-3	-45.3892E-12	1.03409E+0	-17.5018E-3
-1.66333E-3	-46.9611E-12	1.10938E+0	-24.6441E-3	-46.2295E-12	1.02633E+0	-22.5853E-3
-1.66833E-3	-47.1092E-12	1.10305E+0	-28.1939E-3	-46.7121E-12	1.03332E+0	-14.4140E-3
-1.67334E-3	-47.5513E-12	1.08385E+0	-16.0945E-3	-46.8288E-12	1.04345E+0	-13.2647E-3
-1.67834E-3	-47.6756E-12	1.06145E+0	-6.79863E-3	-47.4232E-12	1.03037E+0	-15.1992E-3
-1.68334E-3	-47.2691E-12	1.06017E+0	-11.4000E-3	-48.3054E-12	1.02918E+0	-765.730E-6
-1.68834E-3	-47.3832E-12	1.06515E+0	-13.1690E-3	-48.6891E-12	1.04286E+0	-505.894E-6
-1.69335E-3	-47.7965E-12	1.04850E+0	-23.0974E-3	-49.1356E-12	1.04303E+0	-10.9192E-3
-1.69835E-3	-48.4049E-12	1.02696E+0	-34.5053E-3	-49.6053E-12	1.04951E+0	-10.2954E-3
-1.70335E-3	-48.5567E-12	1.01385E+0	-26.5532E-3	-50.1310E-12	1.05711E+0	-8.53751E-3
-1.70835E-3	-48.8208E-12	1.00517E+0	-12.4540E-3	-50.8510E-12	1.03195E+0	-5.00717E-3
-1.71336E-3	-49.2256E-12	1.00565E+0	-4.23135E-3	-51.3340E-12	1.00582E+0	-7.60316E-3
-1.71836E-3	-50.3652E-12	1.00300E+0	897.591E-6	-51.2749E-12	1.00554E+0	-22.4606E-3
-1.72336E-3	-50.6234E-12	1.00143E+0	-5.98365E-3	-51.3683E-12	1.00514E+0	-34.4639E-3
-1.72836E-3	-50.8792E-12	1.00563E+0	-12.5470E-3	-51.6865E-12	992.981E-3	-30.9436E-3
-1.73337E-3	-51.7058E-12	997.258E-3	1.01337E-3	-51.7960E-12	976.304E-3	-11.7133E-3
-1.73837E-3	-52.5128E-12	988.058E-3	7.81501E-3	-52.1322E-12	962.058E-3	1.89165E-3
-1.74337E-3	-52.6382E-12	998.051E-3	3.04252E-3	-51.6992E-12	956.878E-3	-2.10646E-3
-1.74837E-3	-52.9894E-12	1.01196E+0	5.11063E-3	-51.5993E-12	961.966E-3	-15.4776E-3
-1.75338E-3	-53.5831E-12	1.01098E+0	-954.303E-6	-51.7689E-12	966.839E-3	-28.5700E-3
-1.75838E-3	-53.6724E-12	995.312E-3	-18.6821E-3	-52.6970E-12	964.258E-3	-24.0705E-3
-1.76338E-3	-53.9876E-12	978.861E-3	-22.0692E-3	-53.2126E-12	960.300E-3	-11.0122E-3
-1.76838E-3	-54.3130E-12	980.748E-3	-11.1986E-3	-53.2449E-12	958.239E-3	-12.7184E-3
-1.77339E-3	-54.3433E-12	989.767E-3	-13.8875E-3	-53.7419E-12	957.664E-3	-18.4323E-3
-1.77839E-3	-53.9584E-12	978.437E-3	-23.2805E-3	-54.4822E-12	962.299E-3	-22.5556E-3
-1.78339E-3	-53.9887E-12	956.337E-3	-21.1857E-3	-55.4125E-12	954.500E-3	-25.9308E-3
-1.78839E-3	-54.4062E-12	942.732E-3	-24.5498E-3	-55.9000E-12	934.442E-3	-17.0445E-3
-1.79340E-3	-54.4382E-12	940.338E-3	-30.3143E-3	-56.7471E-12	931.202E-3	-4.79486E-3
-1.79840E-3	-54.6100E-12	935.669E-3	-25.9866E-3	-57.2624E-12	944.995E-3	-6.52652E-3
-1.80340E-3	-54.9086E-12	918.785E-3	-16.3058E-3	-57.9365E-12	952.421E-3	-21.5064E-3
-1.80840E-3	-55.3496E-12	906.860E-3	-4.27777E-3	-58.0097E-12	944.231E-3	-31.6215E-3
-1.81341E-3	-55.9849E-12	902.356E-3	-2.19028E-3	-58.0817E-12	923.685E-3	-33.5998E-3
-1.81841E-3	-56.4023E-12	904.092E-3	-15.6647E-3	-58.1495E-12	902.799E-3	-26.7676E-3
-1.82341E-3	-56.3900E-12	908.540E-3	-25.3062E-3	-57.9478E-12	898.712E-3	-12.2821E-3
-1.82841E-3	-57.1566E-12	908.791E-3	-34.0202E-3	-57.7980E-12	898.851E-3	-13.2100E-3
-1.83342E-3	-58.3871E-12	911.615E-3	-51.7933E-3	-57.9337E-12	883.933E-3	-19.1875E-3
-1.83842E-3	-58.2884E-12	919.266E-3	-41.9110E-3	-57.7299E-12	872.093E-3	-8.58654E-3
-1.84342E-3	-58.6451E-12	929.267E-3	-2.65737E-3	-57.7384E-12	875.133E-3	-1.57799E-3
-1.84842E-3	-59.5940E-12	935.945E-3	7.98223E-3	-57.5754E-12	870.699E-3	-12.0197E-3
-1.85343E-3	-60.0934E-12	929.570E-3	-8.68991E-3	-57.7698E-12	864.116E-3	-26.3542E-3
-1.85843E-3	-60.1131E-12	908.418E-3	-11.2222E-3	-58.2077E-12	870.577E-3	-28.0181E-3
-1.86343E-3	-60.3780E-12	888.080E-3	-12.5283E-3	-58.3087E-12	873.288E-3	-21.7278E-3
-1.86843E-3	-61.0931E-12	889.273E-3	-6.05459E-3	-58.7625E-12	873.267E-3	-17.2873E-3
-1.87344E-3	-60.8429E-12	902.594E-3	6.02406E-3	-59.6603E-12	875.383E-3	-13.3602E-3
-1.87844E-3	-61.2239E-12	902.490E-3	-13.1751E-3	-60.2455E-12	875.474E-3	-14.3913E-3
-1.88344E-3	-61.5709E-12	899.009E-3	-27.5031E-3	-60.5370E-12	872.809E-3	-12.1052E-3
-1.88844E-3	-61.5303E-12	900.437E-3	-13.7671E-3	-61.0558E-12	861.709E-3	-3.35566E-3
-1.89345E-3	-61.3783E-12	897.892E-3	-18.3552E-3	-61.5022E-12	849.677E-3	-14.5835E-3
-1.89845E-3	-61.7383E-12	900.770E-3	-37.6977E-3	-62.0982E-12	851.947E-3	-25.5554E-3
-1.90345E-3	-61.7784E-12	900.740E-3	-36.8471E-3	-62.1481E-12	853.216E-3	-17.2677E-3
-1.90845E-3	-62.1664E-12	884.853E-3	-30.6717E-3	-62.2070E-12	842.149E-3	-18.0331E-3
-1.91346E-3	-62.1769E-12	871.156E-3	-33.7090E-3	-62.2122E-12	845.190E-3	-19.0501E-3
-1.91846E-3	-62.0162E-12	861.407E-3	-26.4975E-3	-62.5393E-12	848.008E-3	-13.6425E-3
-1.92346E-3	-62.3043E-12	848.698E-3	-21.5036E-3	-62.3196E-12	826.498E-3	-11.7286E-3
-1.92846E-3	-62.8659E-12	840.446E-3	-31.5889E-3	-61.8502E-12	813.316E-3	-13.0821E-3
-1.93347E-3	-63.1885E-12	836.878E-3	-19.6995E-3	-61.9280E-12	819.278E-3	-26.1113E-3
-1.93847E-3	-62.8800E-12	841.438E-3	-10.5414E-3	-62.2885E-12	812.651E-3	-30.4225E-3
-1.94347E-3	-63.7590E-12	849.343E-3	-20.3928E-3	-62.2236E-12	803.478E-3	-14.1594E-3
-1.94847E-3	-64.6254E-12	843.188E-3	-9.88677E-3	-62.2989E-12	809.149E-3	-9.03514E-3
-1.95348E-3	-65.0265E-12	827.017E-3	2.56331E-3	-62.5563E-12	807.423E-3	-16.2322E-3
-1.95848E-3	-65.2296E-12	824.703E-3	-3.01870E-3	-63.0648E-12	801.434E-3	-18.7489E-3
-1.96348E-3	-65.1295E-12	832.072E-3	-14.8466E-3	-63.9350E-12	812.588E-3	-22.2537E-3
-1.96848E-3	-65.7551E-12	839.013E-3	-24.6145E-3	-64.2880E-12	817.174E-3	-29.4268E-3
-1.97349E-3	-66.5327E-12	856.317E-3	-23.9372E-3	-64.4579E-12	809.479E-3	-30.3075E-3
-1.97849E-3	-66.4825E-12	870.944E-3	-13.2112E-3	-65.3853E-12	818.025E-3	-29.5467E-3
-1.98349E-3	-66.0684E-12	865.342E-3	-13.6381E-3	-66.2345E-12	837.370E-3	-29.7866E-3
-1.98849E-3	-66.7956E-12	844.791E-3	-25.2883E-3	-66.2485E-12	846.333E-3	-13.5527E-3
-1.99350E-3	-67.4602E-12	831.003E-3	-17.6108E-3	-66.6044E-12	840.692E-3	4.66363E-3
-1.99850E-3	-67.0978E-12	830.178E-3	-904.384E-6	-67.1739E-12	819.829E-3	-5.51367E-3
-2.00350E-3	-67.1909E-12	835.708E-3	-14.2755E-3	-67.5616E-12	796.347E-3	-23.1397E-3
-2.00850E-3	-67.0545E-12	839.729E-3	-31.6155E-3	-68.2314E-12	785.472E-3	-23.3306E-3
-2.01351E-3	-67.2583E-12	824.279E-3	-21.4632E-3	-68.5861E-12	789.796E-3	-24.8259E-3
-2.01851E-3	-67.4810E-12	809.878E-3	-6.21902E-3	-68.4049E-12	797.728E-3	-29.2053E-3
-2.02351E-3	-68.2598E-12	827.134E-3	-2.38442E-3	-68.3929E-12	800.546E-3	-25.9072E-3
-2.02851E-3	-67.9843E-12	832.019E-3	-5.99717E-3	-69.6342E-12	814.977E-3	-26.6836E-3
-2.03352E-3	-68.6096E-12	816.584E-3	-10.2358E-3	-69.9367E-12	829.804E-3	-20.8126E-3
-2.03852E-3	-69.1735E-12	816.205E-3	-3.98109E-3	-69.7362E-12	830.459E-3	-8.84311E-3
-2.04352E-3	-69.9341E-12	814.068E-3	4.44689E-3	-69.9507E-12	830.666E-3	-9.65960E-3
-2.04852E-3	-70.8015E-12	810.223E-3	-2.27356E-3	-70.9054E-12	819.614E-3	-15.2248E-3
-2.05353E-3	-71.4915E-12	813.219E-3	-11.6708E-3	-70.6410E-12	803.451E-3	-24.8937E-3
-2.05853E-3	-71.6479E-12	813.030E-3	-18.7352E-3	-70.9928E-12	810.483E-3	-37.6451E-3
-2.06353E-3	-72.6254E-12	812.133E-3	-16.7268E-3	-70.8795E-12	815.319E-3	-23.3577E-3
-2.06853E-3	-73.3220E-12	815.509E-3	-6.28247E-3	-71.0473E-12	806.820E-3	2.59553E-3
-2.07354E-3	-73.1998E-12	813.525E-3	-11.0315E-3	-71.6088E-12	805.458E-3	-6.60447E-3
-2.07854E-3	-73.8657E-12	805.919E-3	-28.1696E-3	-72.1168E-12	798.919E-3	-23.8080E-3
-2.08354E-3	-74.3311E-12	816.026E-3	-49.0912E-3	-71.5966E-12	786.041E-3	-25.8591E-3
-2.08854E-3	-74.1605E-12	822.637E-3	-58.6403E-3	-72.0706E-12	787.371E-3	-19.3408E-3
-2.09355E-3	-73.8149E-12	800.741E-3	-43.1431E-3	-72.5709E-12	789.759E-3	-4.77765E-3
-2.09855E-3	-73.8951E-12	798.585E-3	-20.5234E-3	-72.5907E-12	788.915E-3	2.35559E-3
-2.10355E-3	-73.9589E-12	816.022E-3	-2.32946E-3	-73.3013E-12	797.879E-3	7.43474E-3
-2.10855E-3	-73.6575E-12	811.359E-3	8.66726E-3	-74.1661E-12	799.695E-3	9.17762E-3
-2.11356E-3	-73.2315E-12	793.450E-3	1.14246E-3	-74.3920E-12	788.464E-3	-19.3482E-3
-2.11856E-3	-73.0383E-12	778.067E-3	-8.98448E-3	-74.4887E-12	782.921E-3	-47.6299E-3
-2.12356E-3	-72.7783E-12	770.629E-3	-9.91672E-3	-75.5827E-12	790.004E-3	-37.8604E-3
-2.12856E-3	-73.5073E-12	771.530E-3	-13.1789E-3	-76.3724E-12	802.448E-3	-18.6358E-3
-2.13357E-3	-73.4389E-12	776.072E-3	-13.8971E-3	-76.4520E-12	814.328E-3	-12.0636E-3
-2.13857E-3	-73.8923E-12	768.152E-3	-10.0641E-3	-76.7764E-12	807.904E-3	-11.1294E-3
-2.14357E-3	-74.1182E-12	750.663E-3	-3.35540E-3	-76.0490E-12	786.452E-3	-5.85494E-3
-2.14857E-3	-74.4373E-12	751.384E-3	8.92903E-3	-75.8968E-12	775.340E-3	-5.57345E-3
-2.15358E-3	-75.3064E-12	767.651E-3	11.3494E-3	-75.7804E-12	767.527E-3	-22.8547E-3
-2.15858E-3	-76.0138E-12	777.512E-3	-7.35130E-3	-75.4078E-12	753.157E-3	-31.7367E-3
-2.16358E-3	-76.7677E-12	775.756E-3	-13.6505E-3	-75.8825E-12	752.793E-3	-20.5715E-3
-2.16858E-3	-77.3760E-12	761.945E-3	-1.93651E-3	-75.7026E-12	752.043E-3	-11.7007E-3
-2.17359E-3	-77.4535E-12	754.591E-3	4.04715E-3	-75.1498E-12	739.409E-3	-9.14607E-3
-2.17859E-3	-77.4301E-12	765.037E-3	12.3761E-3	-75.6098E-12	752.692E-3	-20.9374E-3
-2.18359E-3	-77.6472E-12	767.732E-3	14.8168E-3	-76.1069E-12	767.125E-3	-39.2859E-3
-2.18859E-3	-77.5540E-12	768.356E-3	-9.89107E-3	-75.8191E-12	766.648E-3	-27.1536E-3
-2.19360E-3	-77.4706E-12	779.454E-3	-28.3554E-3	-76.5991E-12	777.692E-3	-13.5181E-3
-2.19860E-3	-77.0175E-12	784.884E-3	-22.6328E-3	-77.3898E-12	788.818E-3	-26.6895E-3
-2.20360E-3	-76.5150E-12	775.668E-3	-20.3921E-3	-77.9082E-12	793.551E-3	-33.9506E-3
-2.20860E-3	-77.9408E-12	761.331E-3	-8.37109E-3	-78.3606E-12	793.514E-3	-25.7569E-3
-2.21361E-3	-77.1713E-12	762.005E-3	2.67487E-3	-79.5942E-12	780.473E-3	-22.9763E-3
-2.21861E-3	-76.1990E-12	762.475E-3	-10.0626E-3	-80.4624E-12	763.346E-3	-27.1618E-3
-2.22361E-3	-76.7519E-12	749.232E-3	-14.0554E-3	-80.2734E-12	762.083E-3	-30.3016E-3
-2.22861E-3	-77.6992E-12	746.584E-3	-2.31062E-3	-80.4902E-12	762.035E-3	-18.5217E-3
-2.23362E-3	-77.9515E-12	750.621E-3	-7.68721E-3	-80.6845E-12	759.706E-3	-7.94595E-3
-2.23862E-3	-78.2833E-12	745.212E-3	-31.2401E-3	-80.7771E-12	766.403E-3	-24.5630E-3
-2.24362E-3	-78.6186E-12	738.886E-3	-37.8932E-3	-80.8166E-12	760.149E-3	-36.5412E-3
-2.24862E-3	-79.5426E-12	744.826E-3	-26.9857E-3	-79.9230E-12	747.484E-3	-28.9916E-3
-2.25363E-3	-81.3550E-12	761.175E-3	-23.5559E-3	-80.2068E-12	743.700E-3	-22.2934E-3
-2.25863E-3	-81.4851E-12	761.481E-3	-21.3474E-3	-79.9264E-12	747.587E-3	-21.8146E-3
-2.26363E-3	-81.2134E-12	747.883E-3	-20.7192E-3	-79.8826E-12	749.972E-3	-27.5496E-3
-2.26863E-3	-82.4229E-12	750.466E-3	-22.0134E-3	-79.3715E-12	747.222E-3	-29.1477E-3
-2.27364E-3	-83.4811E-12	765.968E-3	-18.1880E-3	-79.6233E-12	743.688E-3	-21.2541E-3
-2.27864E-3	-83.3823E-12	763.812E-3	-11.8968E-3	-79.7341E-12	728.575E-3	-17.3582E-3
-2.28364E-3	-84.0154E-12	746.810E-3	-8.73884E-3	-79.9559E-12	726.108E-3	-12.2970E-3
-2.28864E-3	-83.9685E-12	737.037E-3	-10.6232E-3	-80.5011E-12	743.326E-3	-9.53641E-3
-2.29365E-3	-83.9985E-12	748.554E-3	-15.3629E-3	-80.6171E-12	750.581E-3	-8.62458E-3
-2.29865E-3	-84.3211E-12	770.839E-3	-23.6111E-3	-81.9415E-12	759.524E-3	-5.09446E-3
-2.30365E-3	-84.8980E-12	778.337E-3	-31.7671E-3	-82.9048E-12	770.746E-3	-19.6441E-3
-2.30865E-3	-83.9867E-12	773.878E-3	-25.6377E-3	-83.7541E-12	765.393E-3	-36.5215E-3
-2.31366E-3	-84.2762E-12	771.328E-3	-12.1681E-3	-83.9165E-12	763.711E-3	-41.2287E-3
-2.31866E-3	-84.7185E-12	765.957E-3	-14.8205E-3	-85.4151E-12	766.981E-3	-41.1902E-3
-2.32366E-3	-83.9663E-12	751.752E-3	-27.2069E-3	-86.2218E-12	759.361E-3	-33.5089E-3
-2.32866E-3	-83.7269E-12	740.882E-3	-37.4383E-3	-86.0393E-12	753.281E-3	-33.9123E-3
-2.33367E-3	-84.7898E-12	738.301E-3	-26.7614E-3	-86.0468E-12	768.202E-3	-44.5451E-3
-2.33867E-3	-84.8354E-12	738.854E-3	-139.379E-6	-86.2757E-12	785.088E-3	-39.1231E-3
-2.34367E-3	-84.5066E-12	735.181E-3	1.83151E-3	-86.6408E-12	770.346E-3	-16.7517E-3
-2.34867E-3	-84.6898E-12	724.775E-3	-4.82329E-3	-85.7004E-12	748.138E-3	-7.10646E-6
-2.35368E-3	-85.6696E-12	708.219E-3	-5.41141E-3	-85.5497E-12	730.916E-3	-4.96974E-3
-2.35868E-3	-86.5021E-12	702.313E-3	-12.1693E-3	-84.7122E-12	718.043E-3	-19.8472E-3
-2.36368E-3	-86.8816E-12	713.647E-3	-14.2380E-3	-85.3472E-12	733.283E-3	-9.97776E-3
-2.36868E-3	-87.3943E-12	723.817E-3	-7.63629E-3	-86.0295E-12	746.154E-3	5.38101E-3
-2.37369E-3	-87.3351E-12	731.710E-3	2.18617E-3	-85.3843E-12	725.652E-3	-42.6279E-6
-2.37869E-3	-87.8046E-12	736.608E-3	-638.375E-6	-84.8692E-12	710.275E-3	-3.50954E-3
-2.38369E-3	-88.6839E-12	734.749E-3	-12.2230E-3	-85.6303E-12	718.082E-3	1.59824E-3
-2.38869E-3	-89.4160E-12	737.549E-3	-20.1564E-3	-86.0723E-12	727.981E-3	7.30379E-3
-2.39370E-3	-89.5220E-12	745.200E-3	-29.0647E-3	-86.1048E-12	736.510E-3	15.4959E-3
-2.39870E-3	-88.9355E-12	746.545E-3	-33.9128E-3	-87.0026E-12	735.728E-3	14.7240E-3
-2.40370E-3	-89.3029E-12	743.462E-3	-31.5070E-3	-87.2813E-12	726.385E-3	-1.62264E-3
-2.40870E-3	-89.2763E-12	746.689E-3	-29.5673E-3	-88.0371E-12	727.208E-3	-23.2382E-3
-2.41371E-3	-89.1427E-12	753.556E-3	-30.3549E-3	-89.0171E-12	737.210E-3	-37.1554E-3
-2.41871E-3	-88.3223E-12	743.371E-3	-35.5762E-3	-89.7739E-12	746.598E-3	-28.7542E-3
-2.42371E-3	-87.8726E-12	724.653E-3	-40.0382E-3	-89.7870E-12	745.042E-3	-8.94907E-3
-2.42871E-3	-88.3096E-12	722.698E-3	-38.5964E-3	-90.5568E-12	733.351E-3	-1.45263E-3
-2.43372E-3	-88.4478E-12	725.509E-3	-35.3338E-3	-91.2055E-12	721.872E-3	-6.28472E-3
-2.43872E-3	-88.1976E-12	722.687E-3	-29.6546E-3	-91.0071E-12	722.276E-3	-22.2754E-3
-2.44372E-3	-87.6290E-12	732.258E-3	-30.0267E-3	-90.7657E-12	730.491E-3	-35.3115E-3
-2.44872E-3	-87.8009E-12	737.032E-3	-29.9177E-3	-90.7837E-12	725.959E-3	-22.4407E-3
-2.45373E-3	-88.5687E-12	721.067E-3	-7.99646E-3	-91.1739E-12	715.168E-3	-15.9003E-3
-2.45873E-3	-89.1056E-12	713.123E-3	24.6013E-3	-90.7912E-12	705.480E-3	-30.2090E-3
-2.46373E-3	-90.0387E-12	714.863E-3	31.0992E-3	-90.8856E-12	695.302E-3	-42.3429E-3
-2.46873E-3	-90.6703E-12	719.670E-3	2.84768E-3	-91.1882E-12	708.631E-3	-45.1959E-3
-2.47374E-3	-91.1276E-12	728.687E-3	-33.0090E-3	-90.7040E-12	723.809E-3	-28.6396E-3
-2.47874E-3	-92.7991E-12	714.803E-3	-45.7486E-3	-90.4377E-12	709.997E-3	-11.8389E-3
-2.48374E-3	-93.7654E-12	701.916E-3	-32.3416E-3	-91.0345E-12	698.445E-3	-2.73597E-3
-2.48874E-3	-93.1246E-12	718.900E-3	-11.2042E-3	-91.3919E-12	703.571E-3	6.32687E-3
-2.49375E-3	-93.6335E-12	731.764E-3	4.50078E-3	-91.5063E-12	706.843E-3	-1.48526E-3
-2.49875E-3	-94.4857E-12	726.602E-3	-4.06313E-3	-91.7414E-12	711.655E-3	-17.3099E-3
-2.50375E-3	-94.4779E-12	730.525E-3	-27.7621E-3	-91.8259E-12	715.529E-3	-25.6012E-3
-2.50875E-3	-94.2661E-12	742.373E-3	-32.2754E-3	-92.5785E-12	707.496E-3	-23.5077E-3
-2.51376E-3	-94.2045E-12	741.983E-3	-29.7729E-3	-93.2353E-12	705.363E-3	-9.53625E-3
-2.51876E-3	-94.9515E-12	732.301E-3	-40.0878E-3	-93.7918E-12	714.683E-3	-9.57610E-3
-2.52376E-3	-94.1965E-12	712.295E-3	-36.8692E-3	-93.4582E-12	715.707E-3	-19.5480E-3
-2.52876E-3	-93.4997E-12	700.734E-3	-18.3697E-3	-94.4051E-12	714.905E-3	-9.70905E-3
-2.53377E-3	-93.5049E-12	706.144E-3	2.65512E-3	-94.9363E-12	716.818E-3	-4.30217E-3
-2.53877E-3	-93.3765E-12	705.736E-3	11.4864E-3	-94.5543E-12	707.886E-3	-13.5728E-3
-2.54377E-3	-92.3149E-12	710.219E-3	4.08112E-3	-94.9061E-12	692.327E-3	-18.1490E-3
-2.54877E-3	-92.3335E-12	713.439E-3	1.61246E-3	-96.2062E-12	694.480E-3	-26.8909E-3
-2.55378E-3	-93.0301E-12	696.575E-3	3.67238E-3	-96.5707E-12	713.645E-3	-36.4472E-3
-2.55878E-3	-93.0376E-12	691.710E-3	-4.82418E-3	-95.8176E-12	723.001E-3	-30.6773E-3
-2.56378E-3	-93.4701E-12	703.929E-3	-16.6308E-3	-96.0010E-12	716.879E-3	-17.0234E-3
-2.56878E-3	-94.2281E-12	709.103E-3	-13.2643E-3	-95.9065E-12	710.647E-3	-15.4684E-3
-2.57379E-3	-95.4887E-12	709.405E-3	-6.96270E-3	-95.7088E-12	717.755E-3	-13.2874E-3
-2.57879E-3	-96.4028E-12	712.647E-3	4.79639E-3	-95.3861E-12	723.391E-3	-1.12963E-3
-2.58379E-3	-96.9337E-12	713.808E-3	22.1239E-3	-95.0645E-12	714.034E-3	-2.50332E-3
-2.58879E-3	-97.5936E-12	706.032E-3	19.5427E-3	-95.2982E-12	713.779E-3	-10.4460E-3
-2.59380E-3	-98.4105E-12	718.453E-3	-5.98319E-3	-95.2507E-12	727.937E-3	-12.2113E-3
-2.59880E-3	-98.6583E-12	747.541E-3	-33.6049E-3	-95.1415E-12	724.104E-3	-15.2332E-3
-2.60380E-3	-98.3676E-12	758.319E-3	-36.4943E-3	-95.6272E-12	719.108E-3	-13.9769E-3
-2.60880E-3	-98.6451E-12	751.677E-3	-9.26390E-3	-96.0605E-12	726.962E-3	-7.52574E-3
-2.61381E-3	-98.6670E-12	741.229E-3	6.50317E-3	-96.4932E-12	723.374E-3	-15.3567E-3
-2.61881E-3	-98.3345E-12	731.027E-3	-8.35937E-3	-97.5020E-12	718.694E-3	-36.5849E-3
-2.62381E-3	-98.0143E-12	716.012E-3	-35.9135E-3	-98.4866E-12	717.180E-3	-42.0846E-3
-2.62881E-3	-97.5319E-12	694.909E-3	-55.1124E-3	-98.7239E-12	711.757E-3	-35.7587E-3
-2.63382E-3	-97.3324E-12	687.956E-3	-39.9843E-3	-98.7074E-12	713.082E-3	-31.8424E-3
-2.63882E-3	-97.0811E-12	701.762E-3	-14.3881E-3	-100.806E-12	718.440E-3	-21.4206E-3
-2.64382E-3	-96.8034E-12	719.722E-3	-13.0982E-3	-101.442E-12	710.140E-3	-16.5782E-3
-2.64882E-3	-96.8678E-12	722.490E-3	-19.2918E-3	-100.873E-12	701.805E-3	-17.0771E-3
-2.65383E-3	-97.1464E-12	699.783E-3	-16.4179E-3	-101.611E-12	712.767E-3	-19.7891E-3
-2.65883E-3	-97.6663E-12	676.675E-3	-2.98261E-3	-102.319E-12	719.696E-3	-30.0930E-3
-2.66383E-3	-99.0772E-12	666.763E-3	11.0876E-3	-102.169E-12	712.018E-3	-24.2669E-3
-2.66883E-3	-99.8398E-12	661.195E-3	5.63266E-3	-101.490E-12	708.432E-3	-18.5978E-3
-2.67384E-3	-99.8187E-12	679.355E-3	-7.29159E-3	-101.800E-12	701.943E-3	-40.3991E-3
-2.67884E-3	-100.417E-12	709.007E-3	-12.9984E-3	-100.780E-12	687.752E-3	-41.8701E-3
-2.68384E-3	-101.950E-12	715.412E-3	-24.3866E-3	-100.635E-12	690.510E-3	-7.37261E-3
-2.68884E-3	-103.530E-12	704.538E-3	-29.0934E-3	-101.089E-12	702.402E-3	21.9574E-3
-2.69385E-3	-103.447E-12	710.888E-3	-24.2407E-3	-99.7359E-12	700.693E-3	14.2336E-3
-2.69885E-3	-104.344E-12	742.790E-3	-26.4972E-3	-99.3505E-12	694.533E-3	-9.69053E-3
-2.70385E-3	-104.725E-12	744.274E-3	-25.9877E-3	-99.7626E-12	697.313E-3	-23.7890E-3
-2.70885E-3	-105.181E-12	726.896E-3	-20.0964E-3	-100.609E-12	695.562E-3	-42.2527E-3
-2.71386E-3	-105.097E-12	728.921E-3	-20.8017E-3	-100.487E-12	689.431E-3	-38.2838E-3
-2.71886E-3	-105.233E-12	727.090E-3	-30.5397E-3	-100.750E-12	693.541E-3	-14.4250E-3
-2.72386E-3	-104.635E-12	722.754E-3	-40.9361E-3	-101.832E-12	697.518E-3	-6.45713E-3
-2.72886E-3	-104.450E-12	705.228E-3	-39.6163E-3	-101.999E-12	685.061E-3	-5.33838E-3
-2.73387E-3	-105.070E-12	681.835E-3	-20.3045E-3	-103.218E-12	672.483E-3	2.71043E-3
-2.73887E-3	-104.482E-12	679.238E-3	5.14942E-3	-103.622E-12	678.451E-3	9.52252E-3
-2.74387E-3	-103.315E-12	690.102E-3	17.9150E-3	-104.607E-12	697.477E-3	9.96249E-3
-2.74887E-3	-103.505E-12	705.319E-3	21.4851E-3	-104.838E-12	713.641E-3	1.08596E-3
-2.75388E-3	-104.049E-12	712.033E-3	12.5812E-3	-105.840E-12	714.779E-3	-13.8819E-3
-2.75888E-3	-104.261E-12	705.363E-3	-10.2820E-3	-105.983E-12	715.130E-3	-13.2351E-3
-2.76388E-3	-103.194E-12	700.348E-3	-17.5811E-3	-105.946E-12	713.914E-3	-9.41483E-3
-2.76888E-3	-104.004E-12	703.622E-3	-8.97041E-3	-105.970E-12	695.445E-3	-22.6257E-3
-2.77389E-3	-104.678E-12	702.028E-3	-8.78608E-3	-105.639E-12	685.388E-3	-30.4939E-3
-2.77889E-3	-105.435E-12	696.160E-3	-18.2833E-3	-105.563E-12	688.800E-3	-31.6438E-3
-2.78389E-3	-105.302E-12	692.139E-3	-19.2848E-3	-104.920E-12	676.418E-3	-25.3412E-3
-2.78889E-3	-105.747E-12	692.363E-3	-14.4009E-3	-104.356E-12	662.876E-3	-8.14647E-3
-2.79390E-3	-106.181E-12	703.469E-3	-12.9092E-3	-103.922E-12	664.771E-3	-19.9813E-3
-2.79890E-3	-107.356E-12	713.979E-3	-6.21827E-3	-104.661E-12	681.245E-3	-37.0464E-3
-2.80390E-3	-107.886E-12	710.773E-3	-6.90831E-3	-105.003E-12	692.413E-3	-19.4555E-3
-2.80890E-3	-107.407E-12	708.141E-3	-17.8683E-3	-105.409E-12	683.696E-3	-9.95161E-3
-2.81391E-3	-107.418E-12	718.496E-3	-18.0183E-3	-105.530E-12	683.393E-3	-17.4221E-3
-2.81891E-3	-108.558E-12	712.879E-3	-3.56535E-3	-105.544E-12	700.196E-3	-10.5987E-3
-2.82391E-3	-109.284E-12	691.153E-3	2.73785E-3	-107.012E-12	699.351E-3	-5.45835E-3
-2.82891E-3	-108.581E-12	685.275E-3	-10.1288E-3	-107.999E-12	672.800E-3	-16.3691E-3
-2.83392E-3	-107.271E-12	679.085E-3	-18.2457E-3	-109.220E-12	676.903E-3	-19.1178E-3
-2.83892E-3	-107.617E-12	668.788E-3	-7.16439E-3	-109.322E-12	728.867E-3	-15.6581E-3
-2.84392E-3	-107.866E-12	683.752E-3	9.46969E-3	-110.981E-12	760.972E-3	-26.1431E-3
-2.84892E-3	-107.698E-12	713.876E-3	11.8214E-3	-111.516E-12	745.864E-3	-29.3982E-3
-2.85393E-3	-107.225E-12	711.809E-3	533.099E-6	-111.545E-12	714.687E-3	-20.5283E-3
-2.85893E-3	-106.959E-12	679.711E-3	-1.09387E-3	-112.761E-12	702.768E-3	-17.8754E-3
-2.86393E-3	-107.046E-12	662.227E-3	10.1334E-3	-111.856E-12	709.843E-3	-11.9715E-3
-2.86893E-3	-107.642E-12	652.288E-3	25.6810E-3	-111.477E-12	701.276E-3	124.128E-6
-2.87394E-3	-107.800E-12	665.315E-3	19.3734E-3	-111.657E-12	678.972E-3	-5.41272E-3
-2.87894E-3	-107.859E-12	693.203E-3	-9.95121E-3	-112.749E-12	661.926E-3	-14.2191E-3
-2.88394E-3	-108.601E-12	687.120E-3	-11.9246E-3	-111.512E-12	659.414E-3	1.22278E-3
-2.88894E-3	-109.725E-12	676.909E-3	2.17493E-3	-110.700E-12	663.057E-3	13.2150E-3
-2.89395E-3	-111.139E-12	674.949E-3	-2.38540E-3	-110.568E-12	675.449E-3	9.25463E-3
-2.89895E-3	-112.060E-12	676.377E-3	-19.8066E-3	-110.881E-12	705.597E-3	-1.84100E-3
-2.90395E-3	-112.624E-12	695.338E-3	-19.5884E-3	-110.541E-12	715.350E-3	-16.5592E-3
-2.90895E-3	-113.602E-12	722.241E-3	11.0324E-3	-110.669E-12	698.021E-3	-13.4911E-3
-2.91396E-3	-115.321E-12	726.792E-3	24.0765E-3	-111.369E-12	699.976E-3	-2.85646E-3
-2.91896E-3	-116.114E-12	700.356E-3	15.2167E-3	-111.163E-12	708.046E-3	-18.7445E-3
-2.92396E-3	-115.656E-12	681.407E-3	11.4098E-3	-111.814E-12	693.289E-3	-34.6621E-3
-2.92896E-3	-115.798E-12	690.939E-3	1.83193E-3	-112.297E-12	678.283E-3	-14.0852E-3
-2.93397E-3	-117.022E-12	713.519E-3	-13.8560E-3	-113.440E-12	673.478E-3	6.75748E-3
-2.93897E-3	-116.864E-12	724.333E-3	-29.4377E-3	-112.898E-12	677.046E-3	695.408E-6
-2.94397E-3	-115.516E-12	722.642E-3	-29.6702E-3	-113.162E-12	692.803E-3	-16.1425E-3
-2.94897E-3	-115.318E-12	722.012E-3	-16.6828E-3	-114.609E-12	698.466E-3	-23.6398E-3
-2.95398E-3	-114.715E-12	711.956E-3	-19.4306E-3	-115.512E-12	697.223E-3	-15.9214E-3
-2.95898E-3	-114.759E-12	693.963E-3	-24.0142E-3	-115.023E-12	704.732E-3	-13.2539E-3
-2.96398E-3	-114.377E-12	691.870E-3	-19.6802E-3	-114.257E-12	695.480E-3	-14.0749E-3
-2.96898E-3	-113.872E-12	693.908E-3	-7.48680E-3	-115.235E-12	674.462E-3	-2.84781E-3
-2.97399E-3	-113.029E-12	684.438E-3	-448.268E-6	-115.027E-12	673.202E-3	-2.69740E-3
-2.97899E-3	-113.128E-12	688.358E-3	-12.1947E-3	-114.507E-12	676.845E-3	-13.8620E-3
-2.98399E-3	-113.962E-12	698.415E-3	-20.6581E-3	-114.456E-12	666.196E-3	-20.9816E-3
-2.98899E-3	-113.932E-12	681.811E-3	-29.7471E-3	-114.707E-12	666.610E-3	-30.6265E-3
-2.99400E-3	-113.849E-12	661.218E-3	-31.9028E-3	-114.761E-12	689.302E-3	-28.7328E-3
-2.99900E-3	-114.509E-12	662.535E-3	-13.5437E-3	-114.568E-12	707.293E-3	-20.1179E-3
-3.00400E-3	-116.324E-12	668.941E-3	-18.6354E-3	-114.127E-12	712.216E-3	-28.4569E-3
-3.00900E-3	-116.722E-12	686.493E-3	-33.3926E-3	-113.399E-12	704.615E-3	-32.7900E-3
-3.01401E-3	-116.125E-12	719.367E-3	-27.7339E-3	-113.182E-12	670.171E-3	-18.6967E-3
-3.01901E-3	-117.271E-12	722.837E-3	-30.8591E-3	-113.557E-12	639.524E-3	-7.72134E-3
-3.02401E-3	-117.987E-12	701.208E-3	-38.8116E-3	-114.438E-12	634.778E-3	-9.37897E-3
-3.02901E-3	-117.472E-12	698.522E-3	-33.8697E-3	-114.562E-12	633.211E-3	-15.6659E-3
-3.03402E-3	-117.053E-12	704.891E-3	-18.7900E-3	-114.715E-12	633.393E-3	-17.1321E-3
-3.03902E-3	-117.168E-12	695.703E-3	-6.85780E-3	-115.546E-12	646.480E-3	-12.5890E-3
-3.04402E-3	-117.213E-12	679.226E-3	-2.46217E-3	-116.397E-12	671.723E-3	-9.80701E-3
-3.04902E-3	-116.792E-12	670.582E-3	-5.64341E-3	-117.662E-12	688.344E-3	-9.60718E-3
-3.05403E-3	-116.733E-12	675.747E-3	-16.8515E-3	-117.556E-12	689.574E-3	-11.8948E-3
-3.05903E-3	-116.230E-12	684.435E-3	-22.6268E-3	-118.190E-12	687.168E-3	-19.0072E-3
-3.06403E-3	-116.313E-12	683.731E-3	-29.7738E-3	-120.127E-12	678.344E-3	-15.0797E-3
-3.06903E-3	-115.905E-12	677.956E-3	-31.6324E-3	-120.933E-12	682.760E-3	-9.89016E-3
-3.07404E-3	-116.714E-12	672.654E-3	-15.7557E-3	-120.890E-12	700.244E-3	-25.0314E-3
-3.07904E-3	-116.210E-12	675.442E-3	-2.92809E-3	-121.434E-12	700.291E-3	-27.4380E-3
-3.08404E-3	-116.964E-12	680.755E-3	-11.3225E-3	-122.172E-12	694.805E-3	-10.2271E-3
-3.08904E-3	-117.459E-12	673.960E-3	-22.0310E-3	-121.859E-12	695.715E-3	-6.41167E-3
-3.09405E-3	-118.144E-12	659.926E-3	-12.8144E-3	-121.864E-12	696.604E-3	-640.843E-6
-3.09905E-3	-119.342E-12	648.694E-3	-8.57878E-3	-121.918E-12	696.687E-3	2.50907E-3
-3.10405E-3	-121.208E-12	652.315E-3	-18.5915E-3	-121.056E-12	682.894E-3	-11.0309E-3
-3.10905E-3	-122.350E-12	671.647E-3	-13.2401E-3	-121.723E-12	670.762E-3	-11.1987E-3
-3.11406E-3	-123.131E-12	698.789E-3	-6.94754E-3	-121.123E-12	681.999E-3	-5.70163E-3
-3.11906E-3	-123.669E-12	711.689E-3	-29.2045E-3	-120.128E-12	698.121E-3	-8.77290E-3
-3.12406E-3	-124.562E-12	687.035E-3	-34.1971E-3	-120.868E-12	699.989E-3	-18.9752E-3
-3.12906E-3	-125.940E-12	664.066E-3	-28.1487E-3	-120.934E-12	696.348E-3	-35.7782E-3
-3.13407E-3	-126.656E-12	685.238E-3	-36.1595E-3	-120.849E-12	691.836E-3	-46.4212E-3
-3.13907E-3	-125.300E-12	737.462E-3	-26.9235E-3	-120.743E-12	675.793E-3	-56.2323E-3
-3.14407E-3	-125.662E-12	766.640E-3	-31.9260E-3	-121.783E-12	664.493E-3	-49.6594E-3
-3.14907E-3	-125.600E-12	748.755E-3	-60.4554E-3	-122.819E-12	668.767E-3	-24.6058E-3
-3.15408E-3	-125.898E-12	722.184E-3	-63.3224E-3	-123.211E-12	692.531E-3	-5.65510E-3
-3.15908E-3	-125.314E-12	719.363E-3	-34.5472E-3	-123.689E-12	720.477E-3	-7.18855E-3
-3.16408E-3	-124.362E-12	714.626E-3	-7.71575E-3	-124.458E-12	715.883E-3	-30.4571E-3
-3.16908E-3	-123.858E-12	689.641E-3	-543.012E-6	-125.565E-12	700.286E-3	-38.8036E-3
-3.17409E-3	-124.686E-12	667.410E-3	-10.5833E-3	-126.085E-12	699.815E-3	-41.6577E-3
-3.17909E-3	-123.657E-12	668.090E-3	-15.0963E-3	-126.230E-12	698.876E-3	-50.1595E-3
-3.18409E-3	-123.403E-12	693.776E-3	-3.10052E-3	-126.700E-12	705.620E-3	-28.7307E-3
-3.18909E-3	-123.847E-12	710.272E-3	255.668E-6	-127.111E-12	711.759E-3	-13.3565E-3
-3.19410E-3	-124.417E-12	698.797E-3	-10.9754E-3	-126.647E-12	701.488E-3	-25.8835E-3
-3.19910E-3	-125.053E-12	684.202E-3	-26.4325E-3	-126.245E-12	686.308E-3	-18.0151E-3
-3.20410E-3	-125.247E-12	684.948E-3	-29.5132E-3	-126.001E-12	673.791E-3	-1.27469E-3
-3.20910E-3	-125.070E-12	692.310E-3	-25.5466E-3	-126.128E-12	665.489E-3	-2.93298E-3
-3.21411E-3	-125.237E-12	695.396E-3	-30.2638E-3	-125.132E-12	655.193E-3	-11.3801E-3
-3.21911E-3	-126.847E-12	693.569E-3	-26.8558E-3	-125.147E-12	648.268E-3	-22.1519E-3
-3.22411E-3	-127.020E-12	687.633E-3	-22.3583E-3	-124.701E-12	658.362E-3	-29.6292E-3
-3.22911E-3	-127.457E-12	686.182E-3	-16.0991E-3	-124.457E-12	677.302E-3	-19.2760E-3
-3.23412E-3	-127.445E-12	687.609E-3	-5.09072E-3	-124.423E-12	684.455E-3	-11.5621E-3
-3.23912E-3	-126.954E-12	693.354E-3	-17.0815E-3	-125.169E-12	681.911E-3	-18.6799E-3
-3.24412E-3	-127.858E-12	700.801E-3	-32.5490E-3	-124.895E-12	671.911E-3	-20.5052E-3
-3.24912E-3	-128.446E-12	699.891E-3	-26.6495E-3	-125.888E-12	658.094E-3	-21.1813E-3
-3.25413E-3	-127.241E-12	696.688E-3	-23.3702E-3	-127.381E-12	672.038E-3	-32.5642E-3
-3.25913E-3	-126.621E-12	705.069E-3	-20.6154E-3	-128.365E-12	705.322E-3	-32.0569E-3
-3.26413E-3	-127.438E-12	699.817E-3	3.72873E-3	-128.047E-12	713.992E-3	-6.02243E-3
-3.26913E-3	-127.185E-12	667.042E-3	11.3787E-3	-128.641E-12	719.840E-3	-2.51216E-3
-3.27414E-3	-126.137E-12	652.158E-3	-11.7077E-3	-129.673E-12	709.201E-3	-31.5761E-3
-3.27914E-3	-126.033E-12	658.301E-3	-17.7918E-3	-131.116E-12	660.532E-3	-29.0626E-3
-3.28414E-3	-125.460E-12	678.052E-3	-10.7633E-3	-131.169E-12	652.242E-3	-8.70905E-3
-3.28914E-3	-127.650E-12	697.644E-3	-15.5542E-3	-130.252E-12	675.651E-3	-14.3411E-3
-3.29415E-3	-127.743E-12	687.791E-3	-17.5740E-3	-130.048E-12	680.606E-3	-18.0185E-3
-3.29915E-3	-127.135E-12	671.435E-3	-11.2759E-3	-131.160E-12	681.060E-3	-30.4636E-3
-3.30415E-3	-126.639E-12	663.484E-3	-7.84805E-3	-129.911E-12	676.143E-3	-47.9254E-3
-3.30915E-3	-128.534E-12	656.769E-3	7.02912E-3	-128.330E-12	666.181E-3	-32.3413E-3
-3.31416E-3	-129.123E-12	655.088E-3	16.1395E-3	-128.765E-12	655.061E-3	-20.1739E-3
-3.31916E-3	-129.781E-12	660.940E-3	-4.36856E-3	-127.805E-12	646.231E-3	-9.87349E-3
-3.32416E-3	-130.967E-12	665.123E-3	-16.2009E-3	-126.830E-12	649.396E-3	10.6840E-3
-3.32916E-3	-131.847E-12	645.955E-3	-8.55817E-3	-127.208E-12	662.727E-3	3.73036E-3
-3.33417E-3	-133.814E-12	637.540E-3	-6.96762E-3	-128.163E-12	666.472E-3	-21.4089E-3
-3.33917E-3	-134.593E-12	674.456E-3	-1.85767E-3	-128.395E-12	642.286E-3	-37.9744E-3
-3.34417E-3	-134.208E-12	701.159E-3	-6.03675E-3	-128.581E-12	622.158E-3	-27.4021E-3
-3.34917E-3	-134.369E-12	689.553E-3	-33.4963E-3	-129.573E-12	633.777E-3	-1.90820E-3
-3.35418E-3	-134.864E-12	667.763E-3	-34.5417E-3	-130.696E-12	663.733E-3	12.9572E-3
-3.35918E-3	-134.900E-12	661.734E-3	-17.4201E-3	-130.539E-12	680.503E-3	21.4880E-3
-3.36418E-3	-134.233E-12	678.040E-3	-21.9826E-3	-131.278E-12	650.102E-3	21.1759E-3
-3.36918E-3	-134.451E-12	683.617E-3	-35.3292E-3	-132.367E-12	621.908E-3	3.66296E-3
-3.37419E-3	-134.011E-12	678.358E-3	-37.3422E-3	-133.159E-12	643.434E-3	-9.29944E-3
-3.37919E-3	-134.086E-12	686.868E-3	-32.8168E-3	-133.394E-12	669.486E-3	-11.6511E-3
-3.38419E-3	-134.286E-12	692.938E-3	-27.0838E-3	-134.420E-12	691.214E-3	-16.2611E-3
-3.38919E-3	-133.719E-12	696.735E-3	-16.6730E-3	-134.565E-12	706.687E-3	-28.3261E-3
-3.39420E-3	-133.757E-12	699.241E-3	-13.1941E-3	-134.146E-12	679.391E-3	-23.0799E-3
-3.39920E-3	-134.163E-12	688.911E-3	-11.9981E-3	-133.658E-12	646.262E-3	-3.13136E-3
-3.40420E-3	-134.111E-12	687.102E-3	-14.9927E-3	-134.286E-12	639.350E-3	-8.66689E-3
-3.40920E-3	-133.865E-12	697.283E-3	-14.4798E-3	-133.759E-12	636.019E-3	-24.2981E-3
-3.41421E-3	-134.407E-12	692.699E-3	-1.93078E-3	-133.066E-12	641.941E-3	-22.2599E-3
-3.41921E-3	-135.096E-12	670.469E-3	8.50144E-3	-133.406E-12	663.370E-3	-18.1553E-3
-3.42421E-3	-135.728E-12	649.237E-3	4.76829E-3	-134.468E-12	685.551E-3	-31.5322E-3
-3.42921E-3	-136.663E-12	656.198E-3	-10.7992E-3	-133.308E-12	690.042E-3	-29.6845E-3
-3.43422E-3	-137.267E-12	683.961E-3	-19.9169E-3	-133.996E-12	685.254E-3	3.27253E-3
-3.43922E-3	-137.150E-12	698.207E-3	-20.7380E-3	-136.014E-12	688.040E-3	10.2727E-3
-3.44422E-3	-137.288E-12	695.455E-3	-16.0288E-3	-136.077E-12	676.707E-3	-11.2457E-3
-3.44922E-3	-138.600E-12	691.199E-3	-14.2922E-3	-135.419E-12	663.077E-3	-16.3484E-3
-3.45423E-3	-137.471E-12	691.176E-3	-15.1950E-3	-136.991E-12	686.800E-3	-22.7609E-3
-3.45923E-3	-136.394E-12	690.461E-3	-20.4219E-3	-138.560E-12	714.691E-3	-43.8110E-3
-3.46423E-3	-137.649E-12	688.705E-3	-32.8813E-3	-138.710E-12	712.157E-3	-55.8147E-3
-3.46923E-3	-137.523E-12	684.872E-3	-26.6338E-3	-139.053E-12	694.937E-3	-52.7318E-3
-3.47424E-3	-136.836E-12	679.670E-3	-17.0947E-3	-140.433E-12	688.982E-3	-38.8472E-3
-3.47924E-3	-137.172E-12	659.718E-3	-40.2896E-3	-141.215E-12	698.601E-3	-32.4055E-3
-3.48424E-3	-136.588E-12	632.071E-3	-56.2907E-3	-141.824E-12	700.386E-3	-42.3118E-3
-3.48924E-3	-136.114E-12	638.207E-3	-31.0741E-3	-142.052E-12	699.092E-3	-20.6977E-3
-3.49425E-3	-136.316E-12	662.983E-3	3.84756E-3	-142.916E-12	707.963E-3	13.8383E-3
-3.49925E-3	-136.362E-12	675.989E-3	8.30006E-3	-143.824E-12	704.149E-3	-2.76011E-3
-3.50425E-3	-136.077E-12	662.770E-3	-14.6895E-3	-142.521E-12	700.578E-3	-23.5474E-3
-3.50925E-3	-137.825E-12	636.673E-3	-25.5746E-3	-142.195E-12	707.666E-3	-11.8778E-3
-3.51426E-3	-137.975E-12	627.350E-3	-16.2307E-3	-142.934E-12	699.722E-3	-7.86963E-3
-3.51926E-3	-138.492E-12	637.645E-3	-13.4661E-3	-142.090E-12	685.147E-3	-10.6949E-3
-3.52426E-3	-139.783E-12	654.231E-3	-13.3274E-3	-140.884E-12	664.987E-3	-2.45717E-3
-3.52926E-3	-141.210E-12	645.713E-3	-8.50591E-3	-140.180E-12	649.364E-3	-11.4632E-3
-3.53427E-3	-140.752E-12	634.544E-3	-20.7234E-3	-139.533E-12	653.755E-3	-21.4031E-3
-3.53927E-3	-142.615E-12	659.635E-3	-28.2736E-3	-139.292E-12	664.098E-3	9.34380E-3
-3.54427E-3	-143.673E-12	674.974E-3	-15.8047E-3	-139.515E-12	665.907E-3	24.9148E-3
-3.54927E-3	-143.673E-12	668.136E-3	-15.0268E-3	-138.700E-12	649.916E-3	-7.58781E-3
-3.55428E-3	-144.877E-12	672.650E-3	-10.4616E-3	-139.121E-12	642.050E-3	-27.5743E-3
-3.55928E-3	-145.297E-12	675.332E-3	-7.21375E-3	-139.319E-12	646.184E-3	-25.5650E-3
-3.56428E-3	-144.974E-12	687.867E-3	-14.9233E-3	-139.083E-12	632.698E-3	-27.4098E-3
-3.56928E-3	-144.140E-12	702.674E-3	-7.39650E-3	-139.633E-12	631.920E-3	-18.5117E-3
-3.57429E-3	-143.882E-12	700.711E-3	1.33167E-3	-140.923E-12	652.187E-3	-12.9030E-3
-3.57929E-3	-143.524E-12	699.882E-3	-2.72377E-3	-141.013E-12	658.545E-3	-32.1369E-3
-3.58429E-3	-142.637E-12	698.758E-3	-10.7930E-3	-141.547E-12	667.366E-3	-41.2525E-3
-3.58929E-3	-142.479E-12	700.735E-3	-16.5911E-3	-142.383E-12	689.622E-3	-43.7223E-3
-3.59430E-3	-142.240E-12	700.939E-3	-18.7238E-3	-143.161E-12	697.351E-3	-52.5829E-3
-3.59930E-3	-142.297E-12	686.867E-3	-17.2624E-3	-143.483E-12	683.637E-3	-35.0010E-3
-3.60430E-3	-142.288E-12	675.358E-3	-10.0207E-3	-145.151E-12	675.751E-3	-10.9967E-3
-3.60930E-3	-141.246E-12	670.117E-3	4.21901E-3	-143.698E-12	662.480E-3	-8.84269E-3
-3.61431E-3	-141.854E-12	663.771E-3	24.1448E-3	-143.727E-12	643.612E-3	-1.49896E-3
-3.61931E-3	-142.545E-12	646.744E-3	28.1086E-3	-143.509E-12	653.154E-3	14.2744E-3
-3.62431E-3	-142.480E-12	624.137E-3	-552.176E-6	-142.537E-12	660.370E-3	1.62721E-3
-3.62931E-3	-142.821E-12	629.260E-3	-26.1672E-3	-142.291E-12	641.442E-3	-27.5563E-3
-3.63432E-3	-144.596E-12	642.102E-3	-29.4677E-3	-142.236E-12	641.979E-3	-21.2612E-3
-3.63932E-3	-145.155E-12	646.128E-3	-26.5238E-3	-141.467E-12	670.558E-3	-5.36385E-3
-3.64432E-3	-145.557E-12	648.490E-3	-14.5511E-3	-141.243E-12	663.706E-3	-2.18819E-3
-3.64932E-3	-146.921E-12	644.180E-3	-507.456E-6	-141.238E-12	641.694E-3	10.8364E-3
-3.65433E-3	-148.148E-12	648.669E-3	-11.0583E-3	-141.643E-12	650.129E-3	10.0307E-3
-3.65933E-3	-148.394E-12	659.730E-3	-18.5757E-3	-141.849E-12	653.281E-3	-3.58132E-3
-3.66433E-3	-147.894E-12	673.787E-3	-11.0990E-3	-142.927E-12	660.855E-3	-6.12700E-3
-3.66933E-3	-147.807E-12	685.899E-3	-16.2227E-3	-143.494E-12	668.465E-3	-10.2949E-3
-3.67434E-3	-147.723E-12	680.212E-3	-5.02548E-3	-145.212E-12	654.021E-3	-10.9873E-3
-3.67934E-3	-148.410E-12	676.308E-3	7.68046E-3	-145.852E-12	650.550E-3	-10.7768E-3
-3.68434E-3	-145.784E-12	680.611E-3	5.71354E-3	-148.595E-12	663.562E-3	-14.2032E-3
-3.68934E-3	-144.806E-12	676.487E-3	11.7216E-3	-148.411E-12	668.556E-3	-15.0077E-3
-3.69435E-3	-146.274E-12	670.723E-3	9.66872E-3	-149.425E-12	660.831E-3	-12.4220E-3
-3.69935E-3	-147.191E-12	669.676E-3	-9.36996E-3	-149.735E-12	662.244E-3	-11.9534E-3
-3.70435E-3	-145.304E-12	670.753E-3	-41.5870E-3	-152.258E-12	670.432E-3	-45.0628E-3
-3.70935E-3	-144.846E-12	672.459E-3	-51.5466E-3	-152.483E-12	674.566E-3	-64.1712E-3
-3.71436E-3	-146.520E-12	661.488E-3	-34.0780E-3	-151.056E-12	688.560E-3	-38.0583E-3
-3.71936E-3	-148.810E-12	655.163E-3	-24.9549E-3	-150.528E-12	703.920E-3	-15.9023E-3
-3.72436E-3	-148.379E-12	662.966E-3	-9.79647E-3	-150.658E-12	703.631E-3	7.94411E-3
-3.72936E-3	-148.668E-12	676.163E-3	-2.26205E-3	-151.163E-12	677.260E-3	6.87363E-3
-3.73437E-3	-149.496E-12	687.630E-3	-22.4821E-3	-149.075E-12	636.410E-3	-29.1112E-3
-3.73937E-3	-152.601E-12	670.234E-3	-44.7193E-3	-149.375E-12	623.030E-3	-37.1892E-3
-3.74437E-3	-153.970E-12	653.372E-3	-57.8036E-3	-149.311E-12	654.447E-3	-19.5807E-3
-3.74937E-3	-153.950E-12	676.749E-3	-45.0519E-3	-148.911E-12	671.667E-3	-20.7244E-3
-3.75438E-3	-153.453E-12	703.031E-3	-26.4945E-3	-149.171E-12	647.422E-3	-27.9257E-3
-3.75938E-3	-154.975E-12	708.205E-3	-26.0014E-3	-150.750E-12	651.688E-3	-30.0181E-3
-3.76438E-3	-156.662E-12	692.821E-3	-9.78643E-3	-150.252E-12	684.203E-3	-32.7759E-3
-3.76938E-3	-155.355E-12	648.143E-3	8.89498E-3	-149.263E-12	707.002E-3	-13.6030E-3
-3.77439E-3	-153.761E-12	608.233E-3	13.9539E-3	-151.352E-12	712.650E-3	8.73626E-3
-3.77939E-3	-154.007E-12	621.318E-3	9.46669E-3	-152.102E-12	698.332E-3	-2.58877E-3
-3.78439E-3	-155.245E-12	671.124E-3	284.171E-6	-153.582E-12	678.134E-3	-28.7684E-3
-3.78939E-3	-156.119E-12	714.299E-3	2.37994E-3	-153.991E-12	666.987E-3	-31.3710E-3
-3.79440E-3	-153.635E-12	725.728E-3	4.48315E-3	-154.830E-12	670.546E-3	-22.1082E-3
-3.79940E-3	-152.241E-12	711.929E-3	-9.92570E-3	-154.599E-12	669.996E-3	-17.2790E-3
-3.80440E-3	-152.005E-12	712.322E-3	-22.2070E-3	-155.767E-12	667.836E-3	-3.28932E-3
-3.80940E-3	-153.676E-12	719.856E-3	-25.8334E-3	-156.166E-12	665.633E-3	6.14294E-3
-3.81441E-3	-153.706E-12	709.203E-3	-39.4870E-3	-156.076E-12	670.886E-3	-16.6747E-3
-3.81941E-3	-153.073E-12	687.900E-3	-33.9152E-3	-156.453E-12	695.307E-3	-39.4983E-3
-3.82441E-3	-153.021E-12	658.210E-3	-15.2319E-3	-156.483E-12	696.666E-3	-40.3756E-3
-3.82941E-3	-154.484E-12	637.227E-3	-17.7026E-3	-155.459E-12	676.546E-3	-24.1929E-3
-3.83442E-3	-155.224E-12	637.283E-3	-31.1639E-3	-154.001E-12	672.038E-3	1.12252E-3
-3.83942E-3	-154.906E-12	656.509E-3	-38.0494E-3	-154.126E-12	682.961E-3	4.46247E-3
-3.84442E-3	-155.205E-12	677.686E-3	-24.1050E-3	-153.465E-12	690.002E-3	12.3224E-3
-3.84942E-3	-155.662E-12	670.718E-3	-12.4089E-3	-152.690E-12	681.229E-3	27.5662E-3
-3.85443E-3	-156.643E-12	663.653E-3	-10.3721E-3	-152.268E-12	663.229E-3	17.3822E-3
-3.85943E-3	-156.973E-12	667.179E-3	-194.371E-6	-152.839E-12	653.107E-3	8.85709E-3
-3.86443E-3	-156.505E-12	666.545E-3	-6.27982E-3	-153.535E-12	658.237E-3	15.7389E-3
-3.86943E-3	-158.273E-12	685.301E-3	-22.2511E-3	-153.683E-12	662.990E-3	-9.76828E-3
-3.87444E-3	-158.777E-12	704.623E-3	-11.2318E-3	-153.372E-12	660.916E-3	-47.0854E-3
-3.87944E-3	-157.561E-12	703.216E-3	-3.22453E-3	-153.208E-12	655.560E-3	-38.6834E-3
-3.88444E-3	-156.433E-12	703.183E-3	-19.9151E-3	-154.621E-12	653.210E-3	-24.5816E-3
-3.88944E-3	-156.718E-12	681.388E-3	-48.9257E-3	-154.797E-12	661.294E-3	-38.7085E-3
-3.89445E-3	-156.597E-12	642.457E-3	-66.4152E-3	-156.151E-12	666.737E-3	-40.7007E-3
-3.89945E-3	-156.236E-12	643.397E-3	-48.8614E-3	-157.088E-12	659.862E-3	-31.8766E-3
-3.90445E-3	-154.695E-12	666.193E-3	-6.03158E-3	-156.982E-12	668.121E-3	-22.0651E-3
-3.90945E-3	-153.364E-12	671.070E-3	31.3632E-3	-157.047E-12	695.425E-3	1.17916E-3
-3.91446E-3	-154.162E-12	670.158E-3	27.3474E-3	-158.841E-12	701.487E-3	15.4553E-3
-3.91946E-3	-154.727E-12	665.860E-3	-3.19503E-3	-158.907E-12	681.036E-3	18.7849E-3
-3.92446E-3	-154.399E-12	652.259E-3	-9.86233E-3	-157.702E-12	671.951E-3	8.49019E-3
-3.92946E-3	-153.908E-12	658.622E-3	5.83913E-3	-157.415E-12	674.523E-3	-21.7067E-3
-3.93447E-3	-153.998E-12	685.244E-3	13.9527E-3	-157.797E-12	658.226E-3	-39.8540E-3
-3.93947E-3	-155.494E-12	683.415E-3	2.97674E-3	-157.805E-12	644.744E-3	-31.1985E-3
-3.94447E-3	-157.206E-12	650.931E-3	-19.9751E-3	-156.183E-12	648.785E-3	-25.5448E-3
-3.94947E-3	-158.498E-12	637.179E-3	-17.0115E-3	-156.190E-12	628.242E-3	-26.2453E-3
-3.95448E-3	-158.727E-12	649.361E-3	7.56684E-3	-156.225E-12	619.011E-3	-18.4186E-3
-3.95948E-3	-159.927E-12	656.530E-3	5.44673E-3	-155.180E-12	650.136E-3	-21.4206E-3
-3.96448E-3	-161.862E-12	659.029E-3	-3.93356E-3	-155.184E-12	654.604E-3	-19.2190E-3
-3.96948E-3	-163.825E-12	659.922E-3	5.57870E-3	-155.841E-12	657.666E-3	1.58891E-3
-3.97449E-3	-164.396E-12	679.142E-3	11.3591E-3	-155.218E-12	681.096E-3	5.77181E-3
-3.97949E-3	-165.428E-12	706.852E-3	21.2647E-3	-155.212E-12	667.135E-3	543.596E-6
-3.98449E-3	-166.683E-12	694.566E-3	25.7651E-3	-156.649E-12	648.806E-3	13.0282E-3
-3.98949E-3	-164.921E-12	691.669E-3	13.2575E-3	-158.834E-12	664.386E-3	18.6980E-3
-3.99450E-3	-164.173E-12	718.874E-3	9.21618E-3	-158.700E-12	673.373E-3	2.43419E-3
-3.99950E-3	-163.819E-12	719.248E-3	9.65769E-3	-158.596E-12	672.096E-3	2.69871E-3
-4.00450E-3	-164.059E-12	715.434E-3	18.6435E-3	-160.649E-12	687.847E-3	-1.74742E-3
-4.00950E-3	-162.220E-12	712.506E-3	12.9430E-3	-162.906E-12	690.285E-3	-31.8174E-3
-4.01451E-3	-160.810E-12	700.762E-3	-24.8915E-3	-162.755E-12	677.132E-3	-43.2404E-3
-4.01951E-3	-159.934E-12	695.597E-3	-31.8116E-3	-164.262E-12	669.653E-3	-41.0498E-3
-4.02451E-3	-160.728E-12	672.326E-3	508.912E-6	-166.085E-12	674.000E-3	-42.6708E-3
-4.02951E-3	-161.700E-12	642.381E-3	2.27155E-3	-165.450E-12	696.735E-3	-33.5482E-3
-4.03452E-3	-160.515E-12	625.945E-3	-32.1480E-3	-164.617E-12	705.993E-3	-16.4121E-3
-4.03952E-3	-160.897E-12	626.866E-3	-55.0676E-3	-165.650E-12	687.448E-3	-18.7306E-3
-4.04452E-3	-160.603E-12	649.542E-3	-52.1824E-3	-165.024E-12	679.234E-3	-38.8882E-3
-4.04952E-3	-163.085E-12	658.660E-3	-36.0406E-3	-164.805E-12	690.389E-3	-24.9096E-3
-4.05453E-3	-163.318E-12	657.396E-3	-28.5674E-3	-164.184E-12	689.872E-3	7.99282E-3
-4.05953E-3	-163.726E-12	667.285E-3	-15.1264E-3	-163.300E-12	658.060E-3	20.0607E-3
-4.06453E-3	-165.064E-12	668.052E-3	12.8950E-3	-162.687E-12	625.925E-3	5.78033E-3
-4.06953E-3	-167.099E-12	657.567E-3	17.8168E-3	-164.252E-12	632.819E-3	-12.0354E-3
-4.07454E-3	-168.239E-12	646.080E-3	15.2296E-3	-164.062E-12	658.887E-3	-8.99270E-3
-4.07954E-3	-167.487E-12	643.557E-3	14.4270E-3	-162.802E-12	688.997E-3	-19.3714E-3
-4.08454E-3	-167.948E-12	667.075E-3	-345.756E-6	-164.277E-12	702.888E-3	-44.1185E-3
-4.08954E-3	-167.796E-12	691.715E-3	5.21515E-3	-167.260E-12	682.086E-3	-40.5772E-3
-4.09455E-3	-168.451E-12	692.844E-3	394.069E-6	-167.416E-12	687.241E-3	-29.0384E-3
-4.09955E-3	-167.374E-12	701.776E-3	-29.4850E-3	-167.729E-12	704.722E-3	-41.2694E-3
-4.10455E-3	-166.153E-12	718.442E-3	-35.3830E-3	-168.125E-12	683.439E-3	-25.6586E-3
-4.10955E-3	-166.051E-12	703.484E-3	-29.2929E-3	-170.342E-12	678.642E-3	4.27972E-3
-4.11456E-3	-164.878E-12	679.117E-3	-24.2073E-3	-172.042E-12	692.942E-3	-25.7689E-3
-4.11956E-3	-163.833E-12	684.204E-3	-13.7871E-3	-171.476E-12	692.444E-3	-67.5770E-3
-4.12456E-3	-164.349E-12	709.231E-3	-6.76353E-3	-171.108E-12	695.794E-3	-61.2203E-3
-4.12956E-3	-165.515E-12	708.941E-3	-4.56813E-3	-172.416E-12	702.527E-3	-33.9060E-3
-4.13457E-3	-164.144E-12	656.499E-3	-22.0338E-3	-172.759E-12	691.749E-3	-13.5304E-3
-4.13957E-3	-164.568E-12	618.392E-3	-36.6381E-3	-171.346E-12	688.045E-3	6.04851E-3
-4.14457E-3	-165.281E-12	628.344E-3	-40.7332E-3	-171.175E-12	701.357E-3	8.92665E-3
-4.14957E-3	-166.198E-12	647.314E-3	-50.3332E-3	-169.829E-12	697.864E-3	-28.6334E-3
-4.15458E-3	-167.552E-12	660.659E-3	-35.4743E-3	-168.345E-12	683.495E-3	-65.9235E-3
-4.15958E-3	-168.929E-12	670.235E-3	-22.1473E-3	-167.852E-12	676.360E-3	-65.6304E-3
-4.16458E-3	-169.233E-12	691.192E-3	-24.3641E-3	-167.297E-12	673.495E-3	-46.2283E-3
-4.16958E-3	-171.394E-12	715.066E-3	-10.4056E-3	-165.773E-12	674.170E-3	-27.8361E-3
-4.17459E-3	-173.425E-12	719.466E-3	-3.90098E-3	-165.455E-12	675.868E-3	-17.2566E-3
-4.17959E-3	-174.208E-12	698.071E-3	-14.9586E-3	-166.538E-12	671.519E-3	-22.6020E-3
-4.18459E-3	-173.507E-12	668.554E-3	-10.8387E-3	-166.894E-12	669.784E-3	-14.3472E-3
-4.18959E-3	-173.215E-12	659.585E-3	-1.95323E-3	-166.913E-12	669.703E-3	-1.42129E-3
-4.19460E-3	-174.767E-12	671.599E-3	-6.36130E-3	-166.686E-12	652.955E-3	-5.74343E-3
-4.19960E-3	-173.556E-12	669.761E-3	-3.04636E-3	-167.391E-12	648.156E-3	1.13775E-3
-4.20460E-3	-173.412E-12	648.888E-3	-5.95816E-3	-167.725E-12	667.374E-3	11.2543E-3
-4.20960E-3	-171.656E-12	666.984E-3	-20.4679E-3	-168.014E-12	663.711E-3	13.1696E-3
-4.21461E-3	-171.050E-12	680.349E-3	-1.42092E-3	-170.333E-12	645.310E-3	6.91494E-3
-4.21961E-3	-171.564E-12	654.610E-3	24.9455E-3	-170.751E-12	637.490E-3	-17.5193E-3
-4.22461E-3	-170.926E-12	655.813E-3	29.2106E-3	-170.643E-12	643.451E-3	-39.1287E-3
-4.22961E-3	-169.577E-12	659.315E-3	19.3708E-3	-172.428E-12	651.579E-3	-26.4439E-3
-4.23462E-3	-169.430E-12	652.227E-3	-1.68250E-3	-172.587E-12	653.423E-3	-5.39979E-3
-4.23962E-3	-171.180E-12	670.722E-3	-19.5243E-3	-171.920E-12	646.826E-3	-10.0448E-3
-4.24462E-3	-172.352E-12	701.943E-3	-35.6687E-3	-171.559E-12	637.282E-3	-25.1127E-3
-4.24962E-3	-170.512E-12	712.962E-3	-55.1225E-3	-172.734E-12	656.622E-3	-36.4692E-3
-4.25463E-3	-170.051E-12	683.815E-3	-69.8783E-3	-172.377E-12	691.346E-3	-36.6900E-3
-4.25963E-3	-171.301E-12	648.968E-3	-49.2606E-3	-171.258E-12	686.985E-3	-4.12287E-3
-4.26463E-3	-173.082E-12	639.154E-3	-10.5326E-3	-172.006E-12	669.707E-3	30.2328E-3
-4.26963E-3	-174.025E-12	645.074E-3	-354.667E-6	-172.932E-12	671.629E-3	21.1406E-3
-4.27464E-3	-174.212E-12	668.682E-3	7.84272E-3	-171.294E-12	677.707E-3	-5.50656E-3
-4.27964E-3	-175.020E-12	695.972E-3	14.9251E-3	-170.724E-12	694.237E-3	80.7323E-6
-4.28464E-3	-176.568E-12	685.898E-3	5.89688E-3	-171.493E-12	689.175E-3	23.2420E-3
-4.28964E-3	-176.557E-12	664.457E-3	2.28523E-3	-172.096E-12	651.229E-3	25.6119E-3
-4.29465E-3	-176.518E-12	673.142E-3	-11.3144E-3	-171.417E-12	621.721E-3	11.2782E-3
-4.29965E-3	-174.767E-12	673.994E-3	-19.7664E-3	-171.836E-12	631.415E-3	-15.9668E-3
-4.30465E-3	-176.751E-12	660.914E-3	-12.9756E-3	-173.801E-12	669.319E-3	-29.4111E-3
-4.30965E-3	-178.022E-12	662.477E-3	-9.51515E-3	-174.626E-12	697.108E-3	-5.61237E-3
-4.31466E-3	-175.679E-12	670.253E-3	-7.39525E-3	-174.022E-12	689.177E-3	13.0579E-3
-4.31966E-3	-174.181E-12	652.874E-3	-1.35930E-3	-175.013E-12	680.717E-3	-8.46923E-3
-4.32466E-3	-174.969E-12	636.581E-3	-3.17209E-3	-177.468E-12	673.363E-3	-30.0640E-3
-4.32966E-3	-175.391E-12	643.418E-3	-34.5289E-3	-177.990E-12	644.650E-3	-23.9169E-3
-4.33467E-3	-174.544E-12	652.499E-3	-54.7130E-3	-178.730E-12	645.634E-3	-17.6410E-3
-4.33967E-3	-172.716E-12	674.364E-3	-29.5103E-3	-178.400E-12	663.251E-3	-19.9121E-3
-4.34467E-3	-172.703E-12	684.373E-3	-7.10070E-3	-178.633E-12	664.291E-3	-28.2776E-3
-4.34967E-3	-175.538E-12	661.340E-3	-3.34536E-3	-179.820E-12	664.322E-3	-29.0362E-3
-4.35468E-3	-176.208E-12	646.831E-3	-4.29618E-3	-179.377E-12	669.707E-3	-13.6032E-3
-4.35968E-3	-175.302E-12	649.851E-3	-23.4457E-3	-178.488E-12	679.501E-3	-12.5196E-3
-4.36468E-3	-175.623E-12	653.512E-3	-47.6066E-3	-177.373E-12	679.137E-3	-23.1266E-3
-4.36968E-3	-176.828E-12	661.955E-3	-47.3885E-3	-178.351E-12	674.258E-3	-4.35070E-3
-4.37469E-3	-178.376E-12	671.289E-3	-38.5899E-3	-177.794E-12	668.683E-3	18.1644E-3
-4.37969E-3	-179.099E-12	678.314E-3	-43.4389E-3	-176.508E-12	661.584E-3	-5.09728E-3
-4.38469E-3	-178.726E-12	666.255E-3	-33.8167E-3	-175.869E-12	679.074E-3	-23.1837E-3
-4.38969E-3	-179.627E-12	648.348E-3	-16.9159E-3	-175.717E-12	704.746E-3	-22.4259E-3
-4.39470E-3	-182.164E-12	670.346E-3	-6.83399E-3	-176.195E-12	665.399E-3	-34.4669E-3
-4.39970E-3	-182.885E-12	679.764E-3	-13.8829E-3	-177.109E-12	600.935E-3	-49.7377E-3
-4.40470E-3	-182.250E-12	657.988E-3	-29.8235E-3	-176.927E-12	603.227E-3	-55.0677E-3
-4.40970E-3	-182.757E-12	658.668E-3	-21.0500E-3	-176.863E-12	640.654E-3	-45.0081E-3
-4.41471E-3	-182.186E-12	668.671E-3	-6.03867E-3	-179.139E-12	661.580E-3	-31.2458E-3
-4.41971E-3	-183.042E-12	682.483E-3	3.90556E-3	-180.999E-12	649.999E-3	-24.2336E-3
-4.42471E-3	-182.330E-12	699.590E-3	12.8929E-3	-180.371E-12	620.967E-3	-16.9747E-3
-4.42971E-3	-180.287E-12	697.188E-3	5.60825E-3	-182.059E-12	606.556E-3	-13.8014E-3
-4.43472E-3	-179.632E-12	685.187E-3	-27.8053E-3	-182.888E-12	639.196E-3	-32.8104E-3
-4.43972E-3	-178.738E-12	694.633E-3	-46.2753E-3	-182.925E-12	699.232E-3	-38.1004E-3
-4.44472E-3	-179.591E-12	685.157E-3	-31.9327E-3	-183.457E-12	715.893E-3	-1.55062E-3
-4.44972E-3	-178.991E-12	629.404E-3	-27.6445E-3	-184.197E-12	689.922E-3	17.8265E-3
-4.45473E-3	-178.335E-12	603.079E-3	-36.1437E-3	-182.140E-12	670.514E-3	1.92211E-3
-4.45973E-3	-178.240E-12	629.613E-3	-32.4789E-3	-183.092E-12	675.814E-3	-2.73051E-3
-4.46473E-3	-178.891E-12	647.584E-3	-25.4085E-3	-183.729E-12	685.293E-3	-2.39348E-3
-4.46973E-3	-179.452E-12	646.741E-3	-14.8031E-3	-181.343E-12	674.243E-3	3.64261E-3
-4.47474E-3	-180.784E-12	651.400E-3	644.357E-6	-180.284E-12	648.420E-3	20.7519E-3
-4.47974E-3	-183.937E-12	651.698E-3	-10.8455E-3	-182.191E-12	641.468E-3	15.6229E-3
-4.48474E-3	-183.511E-12	646.123E-3	-38.1397E-3	-182.023E-12	654.410E-3	-15.4015E-3
-4.48974E-3	-185.372E-12	651.932E-3	-49.4698E-3	-179.722E-12	668.706E-3	-31.1975E-3
-4.49475E-3	-186.114E-12	661.240E-3	-65.0208E-3	-179.522E-12	676.399E-3	-2.34862E-3
-4.49975E-3	-186.576E-12	666.929E-3	-70.0639E-3	-179.668E-12	668.344E-3	8.60000E-3
-4.50475E-3	-186.064E-12	676.528E-3	-52.5237E-3	-181.424E-12	656.094E-3	-11.6974E-3
-4.50975E-3	-186.148E-12	696.891E-3	-58.0057E-3	-182.707E-12	664.254E-3	-8.71257E-3
-4.51476E-3	-185.862E-12	717.504E-3	-58.2950E-3	-182.000E-12	693.888E-3	-11.3015E-3
-4.51976E-3	-186.397E-12	706.957E-3	-18.2031E-3	-183.092E-12	701.874E-3	-28.4590E-3
-4.52476E-3	-186.100E-12	692.229E-3	23.5419E-3	-185.130E-12	693.869E-3	-23.1973E-3
-4.52976E-3	-184.885E-12	690.689E-3	26.0428E-3	-187.338E-12	699.216E-3	-14.9335E-3
-4.53477E-3	-183.529E-12	687.157E-3	-14.4576E-3	-186.982E-12	699.264E-3	-32.9711E-3
-4.53977E-3	-184.091E-12	678.891E-3	-46.7852E-3	-187.253E-12	687.115E-3	-24.6306E-3
-4.54477E-3	-184.368E-12	663.047E-3	-48.5196E-3	-187.920E-12	666.414E-3	12.1288E-3
-4.54977E-3	-182.400E-12	654.445E-3	-30.1194E-3	-188.436E-12	647.670E-3	12.3402E-3
-4.55478E-3	-182.578E-12	653.857E-3	12.2281E-3	-188.501E-12	665.949E-3	-9.11761E-3
-4.55978E-3	-184.972E-12	653.382E-3	31.3824E-3	-187.141E-12	685.213E-3	-17.9651E-3
-4.56478E-3	-185.163E-12	649.606E-3	6.66997E-3	-186.114E-12	665.010E-3	-22.0995E-3
-4.56978E-3	-185.462E-12	654.412E-3	1.87109E-3	-186.430E-12	660.769E-3	-17.8703E-3
-4.57479E-3	-186.824E-12	675.428E-3	22.7128E-3	-187.506E-12	678.502E-3	-792.481E-6
-4.57979E-3	-187.201E-12	683.701E-3	29.1809E-3	-185.829E-12	668.437E-3	-529.995E-6
-4.58479E-3	-189.753E-12	673.768E-3	22.2879E-3	-184.297E-12	652.831E-3	-9.27877E-3
-4.58979E-3	-193.392E-12	679.443E-3	20.8366E-3	-184.897E-12	669.910E-3	-18.8381E-3
-4.59480E-3	-192.278E-12	692.405E-3	18.1302E-3	-185.576E-12	670.383E-3	-42.4042E-3
-4.59980E-3	-191.450E-12	685.792E-3	13.2912E-3	-184.980E-12	637.020E-3	-36.9060E-3
-4.60480E-3	-195.046E-12	682.003E-3	31.7332E-3	-184.149E-12	624.751E-3	-14.9331E-3
-4.60980E-3	-194.928E-12	683.398E-3	41.5113E-3	-185.210E-12	636.288E-3	-25.2212E-3
-4.61481E-3	-193.154E-12	657.481E-3	473.589E-6	-185.925E-12	657.093E-3	-20.2675E-3
-4.61981E-3	-191.850E-12	633.831E-3	-52.8195E-3	-186.936E-12	681.880E-3	18.1489E-3
-4.62481E-3	-191.611E-12	668.272E-3	-59.3272E-3	-186.502E-12	675.159E-3	32.4381E-3
-4.62981E-3	-191.249E-12	711.503E-3	-40.5293E-3	-186.623E-12	640.957E-3	724.375E-6
-4.63482E-3	-192.241E-12	712.405E-3	-47.7418E-3	-188.602E-12	640.972E-3	-40.7413E-3
-4.63982E-3	-189.903E-12	719.084E-3	-45.4574E-3	-189.912E-12	676.963E-3	-53.9668E-3
-4.64482E-3	-188.078E-12	717.794E-3	-23.8821E-3	-189.907E-12	684.025E-3	-30.7089E-3
-4.64982E-3	-188.749E-12	690.402E-3	-22.7863E-3	-191.088E-12	666.943E-3	1.53930E-3
-4.65483E-3	-189.816E-12	691.900E-3	-28.5348E-3	-190.646E-12	644.470E-3	10.7877E-3
-4.65983E-3	-188.010E-12	693.898E-3	-35.1024E-3	-190.025E-12	620.676E-3	-5.23748E-3
-4.66483E-3	-186.879E-12	676.227E-3	-42.6445E-3	-190.562E-12	633.447E-3	-29.2822E-3
-4.66983E-3	-188.918E-12	663.053E-3	-45.7487E-3	-190.515E-12	658.654E-3	-31.5923E-3
-4.67484E-3	-191.735E-12	664.244E-3	-32.2154E-3	-190.818E-12	646.887E-3	-19.3369E-3
-4.67984E-3	-191.094E-12	672.043E-3	7.37812E-3	-189.889E-12	637.990E-3	-22.5270E-3
-4.68484E-3	-190.677E-12	658.937E-3	14.8495E-3	-189.501E-12	646.001E-3	-38.3810E-3
-4.68984E-3	-189.834E-12	635.551E-3	-22.7191E-3	-189.377E-12	655.478E-3	-40.7612E-3
-4.69485E-3	-192.425E-12	631.799E-3	-48.9534E-3	-189.123E-12	692.736E-3	-33.0036E-3
-4.69985E-3	-192.647E-12	645.836E-3	-54.9011E-3	-189.876E-12	701.679E-3	-30.2860E-3
-4.70485E-3	-191.862E-12	666.458E-3	-32.4302E-3	-190.019E-12	650.543E-3	-17.8846E-3
-4.70985E-3	-191.792E-12	698.330E-3	6.89544E-3	-189.860E-12	647.826E-3	-2.18132E-3
-4.71486E-3	-193.724E-12	711.921E-3	5.71677E-3	-189.140E-12	689.928E-3	-10.8837E-3
-4.71986E-3	-194.893E-12	691.074E-3	-19.3182E-3	-190.631E-12	684.502E-3	-17.1029E-3
-4.72486E-3	-192.818E-12	667.795E-3	-21.0618E-3	-192.937E-12	669.781E-3	1.15345E-3
-4.72986E-3	-192.403E-12	661.463E-3	-10.9821E-3	-194.438E-12	668.748E-3	11.7975E-3
-4.73487E-3	-192.273E-12	667.848E-3	6.34165E-3	-194.251E-12	663.360E-3	3.38429E-3
-4.73987E-3	-192.639E-12	672.405E-3	4.87225E-3	-195.352E-12	665.210E-3	-10.3195E-3
-4.74487E-3	-191.898E-12	664.970E-3	-23.8634E-3	-198.110E-12	681.909E-3	-20.4080E-3
-4.74988E-3	-190.648E-12	651.455E-3	-27.7549E-3	-199.526E-12	695.346E-3	-24.7855E-3
-4.75488E-3	-193.051E-12	651.818E-3	-31.6660E-3	-198.186E-12	682.652E-3	-19.2452E-3
-4.75988E-3	-193.113E-12	675.433E-3	-55.5458E-3	-198.738E-12	678.562E-3	-37.8838E-3
-4.76488E-3	-191.498E-12	684.801E-3	-56.1414E-3	-200.401E-12	700.888E-3	-77.0730E-3
-4.76988E-3	-192.277E-12	654.167E-3	-30.4561E-3	-201.196E-12	714.745E-3	-63.5595E-3
-4.77489E-3	-192.775E-12	631.184E-3	-22.8887E-3	-199.023E-12	697.844E-3	-19.2019E-3
-4.77989E-3	-194.367E-12	654.883E-3	-22.0616E-3	-199.195E-12	658.961E-3	-7.63454E-3
-4.78489E-3	-195.223E-12	670.332E-3	8.63685E-3	-198.390E-12	640.151E-3	-13.9985E-3
-4.78989E-3	-196.571E-12	661.371E-3	18.5045E-3	-198.325E-12	667.449E-3	-32.9287E-3
-4.79490E-3	-197.242E-12	676.304E-3	-6.48720E-3	-196.913E-12	705.255E-3	-55.9075E-3
-4.79990E-3	-200.636E-12	694.140E-3	-24.9872E-3	-195.270E-12	711.191E-3	-49.1847E-3
-4.80490E-3	-201.243E-12	692.736E-3	-35.3791E-3	-194.656E-12	681.255E-3	-34.3769E-3
-4.80990E-3	-202.534E-12	687.894E-3	-11.7430E-3	-195.162E-12	639.686E-3	-37.9234E-3
-4.81491E-3	-204.554E-12	675.299E-3	29.6544E-3	-195.958E-12	614.972E-3	-48.6237E-3
-4.81991E-3	-205.397E-12	652.345E-3	27.1088E-3	-196.269E-12	621.961E-3	-38.6615E-3
-4.82491E-3	-203.936E-12	662.080E-3	-17.8797E-3	-195.173E-12	659.827E-3	-14.6577E-3
-4.82991E-3	-203.089E-12	704.900E-3	-57.1619E-3	-196.576E-12	693.799E-3	-4.06667E-3
-4.83492E-3	-202.833E-12	713.034E-3	-53.1497E-3	-199.072E-12	688.350E-3	-5.29341E-3
-4.83992E-3	-201.653E-12	700.924E-3	-20.8491E-3	-199.485E-12	670.898E-3	-18.9890E-3
-4.84492E-3	-202.388E-12	711.657E-3	3.35872E-3	-198.470E-12	661.493E-3	-17.9583E-3
-4.84992E-3	-201.298E-12	709.579E-3	-1.58984E-3	-200.225E-12	682.204E-3	9.90873E-3
-4.85493E-3	-199.176E-12	673.118E-3	-23.0583E-3	-202.073E-12	713.377E-3	11.1245E-3
-4.85993E-3	-198.340E-12	632.752E-3	-22.9751E-3	-204.050E-12	682.064E-3	-4.43744E-3
-4.86493E-3	-197.137E-12	619.643E-3	-11.0740E-3	-203.254E-12	649.612E-3	-9.85096E-3
-4.86993E-3	-197.435E-12	635.384E-3	-13.0923E-3	-204.088E-12	688.484E-3	-13.0646E-3
-4.87494E-3	-197.658E-12	627.738E-3	-10.1058E-6	-202.502E-12	705.735E-3	17.3390E-3
-4.87994E-3	-197.885E-12	601.833E-3	5.25566E-3	-202.820E-12	672.149E-3	52.9490E-3
-4.88494E-3	-198.043E-12	610.710E-3	-19.7064E-3	-203.568E-12	632.023E-3	28.4635E-3
-4.88995E-3	-199.837E-12	637.199E-3	-40.7346E-3	-201.699E-12	594.599E-3	-20.0547E-3
-4.89495E-3	-200.833E-12	659.777E-3	-53.2841E-3	-199.636E-12	601.855E-3	-24.6502E-3
-4.89995E-3	-201.058E-12	662.868E-3	-64.8956E-3	-199.587E-12	646.040E-3	-13.9816E-3
-4.90495E-3	-201.108E-12	649.988E-3	-61.9879E-3	-200.432E-12	675.230E-3	-22.1862E-3
-4.90995E-3	-204.595E-12	643.466E-3	-22.9544E-3	-197.764E-12	677.904E-3	-20.1878E-3
-4.91496E-3	-205.740E-12	631.647E-3	12.3593E-3	-199.028E-12	663.841E-3	-40.3418E-3
-4.91996E-3	-204.099E-12	638.501E-3	23.8762E-3	-199.785E-12	661.596E-3	-66.8412E-3
-4.92496E-3	-204.477E-12	671.667E-3	18.5278E-3	-198.947E-12	680.031E-3	-41.1123E-3
-4.92996E-3	-205.504E-12	681.479E-3	-23.0856E-3	-199.707E-12	694.335E-3	-19.3524E-3
-4.93497E-3	-205.277E-12	675.150E-3	-40.9245E-3	-200.799E-12	677.421E-3	-27.3873E-3
-4.93997E-3	-203.821E-12	681.335E-3	-10.1641E-3	-202.943E-12	666.197E-3	-2.10973E-3
-4.94497E-3	-204.152E-12	688.325E-3	19.5219E-3	-204.941E-12	707.054E-3	34.0227E-3
-4.94997E-3	-202.776E-12	694.020E-3	28.4466E-3	-205.899E-12	741.983E-3	21.0040E-3
-4.95498E-3	-201.938E-12	695.519E-3	18.5045E-3	-204.660E-12	720.661E-3	-3.19551E-3
-4.95998E-3	-201.254E-12	674.905E-3	-6.67154E-3	-207.404E-12	673.642E-3	-12.7374E-3
-4.96498E-3	-200.673E-12	662.113E-3	-46.8411E-3	-208.360E-12	644.912E-3	-29.7900E-3
-4.96998E-3	-200.254E-12	661.578E-3	-64.4015E-3	-208.258E-12	651.983E-3	-30.7390E-3
-4.97499E-3	-200.288E-12	661.271E-3	-48.0789E-3	-209.216E-12	667.533E-3	-20.9163E-3
-4.97999E-3	-200.889E-12	643.263E-3	-27.4070E-3	-208.438E-12	673.517E-3	-21.6592E-3
-4.98499E-3	-201.372E-12	600.139E-3	-5.25247E-3	-207.043E-12	689.945E-3	-14.7693E-3
-4.98999E-3	-202.608E-12	588.452E-3	-963.971E-6	-206.736E-12	704.361E-3	-21.8968E-3
-4.99500E-3	-203.755E-12	627.446E-3	-13.7315E-3	-208.990E-12	692.744E-3	-35.2972E-3
-5.00000E-3	-204.435E-12	665.314E-3	-23.3440E-3	-206.234E-12	677.452E-3	-30.5762E-3
