Experiment	bias spectroscopy	
Date	19.01.2016 18:09:16	
User		
X (m)	50.2973E-9	
Y (m)	256.004E-9	
Z (m)	-132.62E-9	
Z offset (m)	0E+0	
Settling time (s)	200E-6	
Integration time (s)	5E-3	
Z-Ctrl hold	TRUE	
Final Z (m)	N/A	
Filter type	None	
Order		
Cutoff frq		
Comment01	MnPc/Pb(111)	
Comment02	dz =00pm	
Comment03	7 Sweeps	
Comment04	MagField =0.T	
Comment05	Divider 1:10	
Comment06	Setpoint:5mV,200 pA	
Comment07	Lockin: 50uVrms,5ms,5mV	
Comment08	Gain:9; 912Hz modulation	
Comment09	T=1.06K	
Bias>Bias (V)	5E-3	
Bias>Calibration (V/V)	81.475E-3	
Bias>Offset (V)	1.046E-3	
Bias Spectroscopy>Sweep Start (V)	5E-3	
Bias Spectroscopy>Sweep End (V)	-5E-3	
Bias Spectroscopy>Num Pixel	2000	
Bias Spectroscopy>Z Avg time (s)	500E-3	
Bias Spectroscopy>Z offset (m)	0E+0	
Bias Spectroscopy>1st Settling time (s)	500E-3	
Bias Spectroscopy>Settling time (s)	200E-6	
Bias Spectroscopy>Integration time (s)	5E-3	
Bias Spectroscopy>End Settling time (s)	500E-3	
Bias Spectroscopy>Z control time (s)	500E-3	
Bias Spectroscopy>Max Slew rate (V/s)	Inf	
Bias Spectroscopy>backward sweep	TRUE	
Bias Spectroscopy>Z-controller hold	TRUE	
Bias Spectroscopy>Number of sweeps	7	
Bias Spectroscopy>Channels	Current (A);X% LockIn (V);Y% LockIn (V)	
Bias Spectroscopy>Reset Bias	TRUE	
Bias Spectroscopy>Record final Z	FALSE	
Bias Spectroscopy>Lock-In run	FALSE	
Bias Spectroscopy>Sweep mode	Linear	
Bias Spectroscopy>MultiLine Settings : Segment Start (V), Segment End (V), Settling (s), Integration (s), Steps (xn)	100E-3,3.3E-3,100E-6,10E-3,2500;3.3E-3,-3.3E-3,100E-6,10E-3,10;-3.3E-3,-100E-3,100E-6,10E-3,2500	
Current>Current (A)	200.064E-12	
Current>Calibration (A/V)	999.99900E-12	
Current>Offset (A)	-455.429E-15	
Current>Gain	LN 10^9	
Z-Controller>Z (m)	-132.62E-9	
Z-Controller>Controller name	log Current	
Z-Controller>Controller status	ON	
Z-Controller>Setpoint	200E-12	
Z-Controller>Setpoint unit	A	
Z-Controller>P gain	2.96994E-12	
Z-Controller>I gain	67.0321E-9	
Z-Controller>Time const (s)	44.3062E-6	
Z-Controller>TipLift (m)	0E+0	
Z-Controller>Switch off delay (s)	50E-3	
Current (A)	200.046E-12	
Z (m)	-132.621E-9	

[DATA]
Bias calc (V)	Current (A)	X% LockIn (V)	Y% LockIn (V)	Current [bwd] (A)	X% LockIn [bwd] (V)	Y% LockIn [bwd] (V)
5.00000E-3	200.301E-12	616.215E-3	-21.9778E-3	200.016E-12	642.152E-3	-32.4965E-3
4.99500E-3	200.282E-12	595.911E-3	-7.01686E-3	200.637E-12	656.117E-3	-31.8919E-3
4.98999E-3	199.465E-12	606.396E-3	12.4777E-3	201.499E-12	656.240E-3	6.29803E-3
4.98499E-3	199.453E-12	609.331E-3	13.1184E-3	202.228E-12	633.486E-3	17.7248E-3
4.97999E-3	199.233E-12	614.161E-3	-24.6237E-3	201.128E-12	596.129E-3	-2.58221E-3
4.97499E-3	198.311E-12	632.633E-3	-70.9086E-3	200.683E-12	592.732E-3	993.365E-6
4.96998E-3	198.057E-12	642.389E-3	-67.9493E-3	200.960E-12	652.260E-3	-5.84139E-3
4.96498E-3	199.370E-12	649.425E-3	-32.0505E-3	201.508E-12	708.497E-3	-29.1128E-3
4.95998E-3	199.226E-12	642.463E-3	-17.4850E-3	200.347E-12	706.536E-3	-15.5776E-3
4.95498E-3	199.274E-12	639.487E-3	-23.5643E-3	199.726E-12	672.112E-3	-4.44095E-3
4.94997E-3	199.819E-12	640.467E-3	-37.0419E-3	199.011E-12	653.465E-3	-20.7809E-3
4.94497E-3	201.742E-12	632.635E-3	-46.4845E-3	198.502E-12	668.106E-3	-10.4421E-3
4.93997E-3	201.131E-12	655.902E-3	-39.8882E-3	198.062E-12	695.269E-3	11.3126E-3
4.93497E-3	201.910E-12	687.270E-3	-33.1625E-3	196.683E-12	694.270E-3	-6.08029E-3
4.92996E-3	202.270E-12	693.789E-3	-16.9079E-3	194.469E-12	650.597E-3	-17.4459E-3
4.92496E-3	202.123E-12	664.265E-3	-8.68399E-3	194.332E-12	627.670E-3	-31.1301E-3
4.91996E-3	200.865E-12	656.815E-3	-7.82026E-3	195.096E-12	624.605E-3	-71.5665E-3
4.91496E-3	200.714E-12	671.235E-3	9.86617E-3	194.237E-12	625.190E-3	-71.5519E-3
4.90995E-3	198.819E-12	645.959E-3	4.38594E-3	192.567E-12	650.013E-3	-33.7743E-3
4.90495E-3	197.829E-12	633.370E-3	-16.0556E-3	193.245E-12	651.228E-3	-10.4234E-3
4.89995E-3	195.762E-12	641.751E-3	-8.00344E-3	193.628E-12	623.885E-3	-3.72230E-3
4.89495E-3	194.931E-12	636.617E-3	-888.881E-6	194.038E-12	632.546E-3	12.8879E-3
4.88995E-3	193.596E-12	631.421E-3	-9.74809E-3	192.734E-12	670.116E-3	12.6867E-3
4.88494E-3	193.178E-12	639.942E-3	-18.5488E-3	192.838E-12	680.014E-3	1.27302E-3
4.87994E-3	192.852E-12	637.480E-3	-35.8744E-3	193.741E-12	660.670E-3	-5.42610E-3
4.87494E-3	192.433E-12	628.945E-3	-41.6605E-3	194.500E-12	642.783E-3	-37.2069E-3
4.86993E-3	192.258E-12	623.674E-3	-26.5304E-3	193.481E-12	647.062E-3	-48.9004E-3
4.86493E-3	192.612E-12	627.690E-3	-28.9281E-3	192.490E-12	679.849E-3	-25.6354E-3
4.85993E-3	193.082E-12	641.471E-3	-24.1444E-3	192.744E-12	679.852E-3	-4.80416E-3
4.85493E-3	194.350E-12	661.649E-3	5.00023E-3	192.506E-12	634.047E-3	7.29125E-3
4.84992E-3	194.946E-12	693.468E-3	-2.02945E-3	192.607E-12	633.661E-3	-13.1974E-3
4.84492E-3	195.671E-12	704.771E-3	-27.9082E-3	191.573E-12	670.726E-3	-40.4700E-3
4.83992E-3	196.221E-12	682.507E-3	-21.1826E-3	190.810E-12	677.529E-3	-19.8995E-3
4.83492E-3	196.543E-12	674.382E-3	-28.4631E-3	191.015E-12	660.773E-3	19.3209E-3
4.82991E-3	194.955E-12	697.290E-3	-58.0561E-3	191.457E-12	635.035E-3	17.5568E-3
4.82491E-3	194.760E-12	682.759E-3	-52.9967E-3	190.725E-12	619.909E-3	-23.4816E-3
4.81991E-3	193.760E-12	647.115E-3	-24.3235E-3	189.803E-12	636.619E-3	-42.4116E-3
4.81491E-3	193.485E-12	648.140E-3	6.43753E-3	190.016E-12	665.073E-3	-25.2207E-3
4.80990E-3	191.497E-12	650.301E-3	23.7045E-3	190.813E-12	666.614E-3	-1.79414E-3
4.80490E-3	189.822E-12	644.721E-3	-2.24942E-3	190.563E-12	638.912E-3	18.1731E-3
4.79990E-3	188.830E-12	654.097E-3	-4.17213E-3	190.097E-12	624.066E-3	15.7559E-3
4.79490E-3	187.980E-12	670.013E-3	32.0825E-3	190.726E-12	662.893E-3	11.1648E-3
4.78989E-3	187.452E-12	673.825E-3	41.7901E-3	190.898E-12	725.331E-3	22.0214E-3
4.78489E-3	187.058E-12	655.939E-3	23.0339E-3	191.692E-12	730.763E-3	13.0206E-3
4.77989E-3	187.316E-12	630.932E-3	3.41122E-3	191.019E-12	662.114E-3	-11.8022E-3
4.77489E-3	187.781E-12	625.804E-3	-12.4831E-3	191.506E-12	601.796E-3	-18.5884E-3
4.76988E-3	188.424E-12	629.328E-3	-16.2060E-3	191.583E-12	626.178E-3	-6.29445E-3
4.76488E-3	188.737E-12	633.964E-3	-1.34831E-3	192.300E-12	677.119E-3	10.9762E-3
4.75988E-3	189.145E-12	637.300E-3	-6.71791E-3	191.279E-12	677.316E-3	25.9796E-3
4.75488E-3	190.449E-12	633.192E-3	-21.0608E-3	191.076E-12	662.405E-3	17.6814E-3
4.74988E-3	191.107E-12	637.822E-3	-17.4714E-3	190.722E-12	658.151E-3	-20.0142E-3
4.74487E-3	191.394E-12	651.564E-3	-24.6035E-3	190.306E-12	656.574E-3	-34.8725E-3
4.73987E-3	191.512E-12	665.444E-3	-24.7666E-3	190.420E-12	671.913E-3	-10.0513E-3
4.73487E-3	190.696E-12	681.656E-3	-3.87193E-3	189.359E-12	666.662E-3	-1.00657E-3
4.72986E-3	190.433E-12	689.992E-3	-20.1319E-3	189.272E-12	640.865E-3	-11.0337E-3
4.72486E-3	190.068E-12	684.505E-3	-49.3528E-3	188.193E-12	639.665E-3	-12.1845E-3
4.71986E-3	189.223E-12	660.269E-3	-37.9365E-3	188.304E-12	672.191E-3	-12.4792E-3
4.71486E-3	188.185E-12	620.377E-3	-19.9959E-3	188.034E-12	710.253E-3	-16.0267E-3
4.70985E-3	188.301E-12	625.363E-3	-23.1094E-3	187.999E-12	715.067E-3	-10.4828E-3
4.70485E-3	187.399E-12	669.435E-3	-28.5688E-3	188.198E-12	700.879E-3	-11.5660E-3
4.69985E-3	186.497E-12	685.968E-3	-26.0006E-3	188.431E-12	698.241E-3	-38.1953E-3
4.69485E-3	185.836E-12	667.436E-3	-26.5450E-3	188.700E-12	704.306E-3	-35.9061E-3
4.68984E-3	185.917E-12	657.263E-3	-22.5032E-3	187.612E-12	712.120E-3	-3.64384E-3
4.68484E-3	185.808E-12	661.169E-3	-14.6703E-3	188.348E-12	702.476E-3	-868.443E-6
4.67984E-3	185.676E-12	680.893E-3	-14.9188E-3	188.623E-12	659.577E-3	-6.19782E-3
4.67484E-3	185.892E-12	700.814E-3	-8.31595E-3	188.968E-12	634.037E-3	2.90931E-3
4.66983E-3	185.515E-12	672.289E-3	-12.4368E-3	187.165E-12	636.361E-3	16.9039E-3
4.66483E-3	185.745E-12	637.465E-3	-17.0991E-3	187.774E-12	645.397E-3	25.9450E-3
4.65983E-3	186.050E-12	639.222E-3	1.88590E-3	187.601E-12	672.346E-3	14.7068E-3
4.65483E-3	184.931E-12	641.318E-3	-6.85253E-3	188.025E-12	676.000E-3	-3.60328E-3
4.64982E-3	184.972E-12	636.497E-3	-47.2760E-3	186.923E-12	623.410E-3	-15.4223E-3
4.64482E-3	184.209E-12	660.558E-3	-59.0124E-3	186.449E-12	580.835E-3	-29.4944E-3
4.63982E-3	184.171E-12	674.710E-3	-47.4512E-3	186.706E-12	613.283E-3	-35.5733E-3
4.63482E-3	183.428E-12	659.801E-3	-49.9983E-3	186.097E-12	660.958E-3	-25.6621E-3
4.62981E-3	183.632E-12	654.683E-3	-51.9446E-3	184.498E-12	653.558E-3	-15.5529E-3
4.62481E-3	183.126E-12	653.760E-3	-20.8869E-3	183.103E-12	633.245E-3	-15.0735E-3
4.61981E-3	183.281E-12	636.402E-3	-2.17860E-3	182.386E-12	631.234E-3	-18.7587E-3
4.61481E-3	183.128E-12	636.416E-3	-10.5003E-3	181.546E-12	637.762E-3	-10.6897E-3
4.60980E-3	182.307E-12	659.409E-3	-9.76207E-3	181.385E-12	657.860E-3	4.54055E-3
4.60480E-3	182.370E-12	656.310E-3	-24.9387E-3	180.307E-12	669.405E-3	6.50665E-3
4.59980E-3	182.502E-12	643.297E-3	-53.1443E-3	179.860E-12	650.330E-3	-20.5226E-3
4.59480E-3	182.020E-12	649.222E-3	-51.6959E-3	180.593E-12	635.490E-3	-59.7113E-3
4.58979E-3	181.273E-12	675.779E-3	-34.3321E-3	180.246E-12	654.717E-3	-57.4794E-3
4.58479E-3	181.380E-12	693.354E-3	-29.8190E-3	179.608E-12	675.160E-3	-32.3057E-3
4.57979E-3	181.633E-12	677.153E-3	-25.1921E-3	180.312E-12	659.635E-3	-34.4029E-3
4.57479E-3	180.866E-12	663.708E-3	-18.1001E-3	180.335E-12	640.885E-3	-48.4647E-3
4.56978E-3	180.906E-12	661.141E-3	-10.1357E-3	181.064E-12	663.245E-3	-45.4350E-3
4.56478E-3	180.353E-12	641.850E-3	3.11410E-3	181.720E-12	687.415E-3	-41.2701E-3
4.55978E-3	179.770E-12	623.321E-3	-135.297E-6	182.788E-12	684.982E-3	-44.3638E-3
4.55478E-3	178.697E-12	626.277E-3	-11.2180E-3	183.273E-12	688.936E-3	-24.8260E-3
4.54977E-3	178.974E-12	634.217E-3	-3.70391E-3	183.776E-12	707.252E-3	-22.3122E-3
4.54477E-3	178.313E-12	638.772E-3	286.194E-6	184.006E-12	704.992E-3	-50.6750E-3
4.53977E-3	177.478E-12	657.290E-3	-13.2642E-3	182.805E-12	681.478E-3	-34.7724E-3
4.53477E-3	177.730E-12	671.070E-3	-23.8883E-3	180.989E-12	688.324E-3	13.3231E-3
4.52976E-3	178.456E-12	658.293E-3	-18.4009E-3	180.110E-12	697.795E-3	45.1576E-3
4.52476E-3	178.734E-12	639.927E-3	-9.15754E-3	178.574E-12	662.715E-3	50.7100E-3
4.51976E-3	178.633E-12	629.291E-3	-3.83854E-3	177.844E-12	644.496E-3	3.29291E-3
4.51476E-3	179.698E-12	631.961E-3	6.05096E-3	177.851E-12	654.133E-3	-49.8869E-3
4.50975E-3	179.518E-12	644.560E-3	21.7111E-3	177.144E-12	636.151E-3	-26.6360E-3
4.50475E-3	180.144E-12	659.075E-3	24.0998E-3	177.051E-12	614.034E-3	1.62885E-3
4.49975E-3	179.881E-12	649.035E-3	-11.5986E-3	177.481E-12	605.268E-3	-24.5128E-3
4.49475E-3	179.764E-12	619.318E-3	-40.2917E-3	177.731E-12	604.820E-3	-29.8377E-3
4.48974E-3	179.497E-12	615.078E-3	-12.9934E-3	177.463E-12	629.043E-3	2.67058E-3
4.48474E-3	179.121E-12	632.922E-3	29.0926E-3	177.974E-12	654.478E-3	8.89662E-3
4.47974E-3	178.196E-12	660.422E-3	40.3406E-3	178.352E-12	653.523E-3	-23.9872E-3
4.47474E-3	177.046E-12	689.499E-3	20.2659E-3	178.251E-12	657.466E-3	-26.4543E-3
4.46973E-3	176.353E-12	692.361E-3	-10.9453E-3	178.790E-12	665.946E-3	-2.50692E-3
4.46473E-3	176.007E-12	654.022E-3	-29.9849E-3	179.133E-12	668.427E-3	-42.9513E-6
4.45973E-3	175.263E-12	634.090E-3	-39.1242E-3	179.015E-12	677.877E-3	4.55002E-3
4.45473E-3	174.566E-12	660.724E-3	-36.2896E-3	178.706E-12	670.180E-3	11.0854E-3
4.44972E-3	174.547E-12	669.436E-3	-23.7585E-3	178.844E-12	647.368E-3	-2.40077E-3
4.44472E-3	174.885E-12	655.828E-3	-22.6416E-3	177.828E-12	635.377E-3	876.910E-6
4.43972E-3	174.614E-12	652.800E-3	-22.6235E-3	176.670E-12	654.183E-3	22.9082E-3
4.43472E-3	174.669E-12	654.778E-3	-17.8922E-3	175.745E-12	680.122E-3	17.5007E-3
4.42971E-3	174.662E-12	660.725E-3	-35.8568E-3	175.330E-12	675.375E-3	9.30715E-3
4.42471E-3	175.792E-12	688.139E-3	-68.4552E-3	174.425E-12	664.160E-3	3.87988E-3
4.41971E-3	176.198E-12	696.360E-3	-47.7495E-3	173.872E-12	646.591E-3	-18.4540E-3
4.41471E-3	176.823E-12	664.837E-3	-58.6890E-6	173.910E-12	637.290E-3	-23.5735E-3
4.40970E-3	176.830E-12	646.767E-3	-254.630E-6	173.905E-12	640.997E-3	-3.85978E-3
4.40470E-3	176.982E-12	665.037E-3	-19.8453E-3	173.448E-12	635.114E-3	-9.94947E-3
4.39970E-3	177.214E-12	685.152E-3	-40.1741E-3	172.790E-12	639.795E-3	-26.0977E-3
4.39470E-3	176.015E-12	689.313E-3	-48.4630E-3	172.995E-12	659.368E-3	-29.4720E-3
4.38969E-3	174.938E-12	679.615E-3	-28.1892E-3	172.732E-12	674.340E-3	-37.6851E-3
4.38469E-3	174.421E-12	667.949E-3	-7.54431E-3	172.974E-12	664.499E-3	-18.3053E-3
4.37969E-3	173.618E-12	659.059E-3	-1.91937E-3	172.583E-12	653.880E-3	6.16180E-3
4.37469E-3	171.988E-12	647.403E-3	-18.8626E-3	172.479E-12	652.412E-3	-13.5252E-3
4.36968E-3	171.036E-12	646.745E-3	-46.8412E-3	172.932E-12	657.460E-3	-41.7212E-3
4.36468E-3	170.608E-12	649.650E-3	-35.9382E-3	172.721E-12	682.810E-3	-35.1090E-3
4.35968E-3	169.926E-12	644.426E-3	1.55040E-3	172.238E-12	679.333E-3	-21.4930E-3
4.35468E-3	169.318E-12	631.427E-3	21.6042E-3	172.239E-12	617.787E-3	-27.3129E-3
4.34967E-3	169.634E-12	622.499E-3	25.4673E-3	172.536E-12	596.220E-3	-37.7125E-3
4.34467E-3	170.503E-12	637.302E-3	-4.65543E-3	172.660E-12	640.355E-3	-49.0212E-3
4.33967E-3	170.085E-12	643.384E-3	-37.2924E-3	171.474E-12	664.511E-3	-32.2908E-3
4.33467E-3	170.396E-12	636.178E-3	-32.5618E-3	170.934E-12	654.305E-3	14.9567E-3
4.32966E-3	170.988E-12	648.083E-3	-13.5865E-3	171.191E-12	631.613E-3	18.7179E-3
4.32466E-3	171.651E-12	651.215E-3	-15.3781E-3	170.427E-12	634.854E-3	-21.4409E-3
4.31966E-3	171.226E-12	636.353E-3	-35.8466E-3	169.251E-12	669.606E-3	-28.3962E-3
4.31466E-3	171.611E-12	633.422E-3	-31.0334E-3	168.906E-12	690.466E-3	-6.11115E-3
4.30965E-3	172.058E-12	650.690E-3	-12.2386E-3	169.183E-12	680.935E-3	15.1302E-3
4.30465E-3	171.557E-12	663.770E-3	-20.5633E-3	168.802E-12	651.829E-3	22.5827E-3
4.29965E-3	170.317E-12	663.778E-3	-21.4874E-3	168.112E-12	626.644E-3	3.06876E-3
4.29465E-3	169.481E-12	676.431E-3	-8.37434E-3	167.609E-12	634.365E-3	-24.3384E-3
4.28964E-3	168.811E-12	681.292E-3	-26.7732E-3	167.244E-12	670.430E-3	-22.7315E-3
4.28464E-3	168.724E-12	667.525E-3	-51.8874E-3	167.020E-12	685.074E-3	-7.06354E-3
4.27964E-3	167.587E-12	653.236E-3	-53.0700E-3	167.011E-12	651.750E-3	-10.0692E-3
4.27464E-3	167.046E-12	641.413E-3	-42.2449E-3	166.248E-12	613.824E-3	-18.7745E-3
4.26963E-3	166.516E-12	638.039E-3	-19.1738E-3	166.517E-12	632.091E-3	-36.4203E-3
4.26463E-3	166.380E-12	638.431E-3	3.79864E-3	167.540E-12	674.270E-3	-52.5347E-3
4.25963E-3	165.776E-12	635.758E-3	-11.9798E-3	166.952E-12	660.687E-3	-28.5847E-3
4.25463E-3	166.567E-12	636.222E-3	-29.7306E-3	167.076E-12	620.355E-3	18.1205E-3
4.24962E-3	166.699E-12	655.519E-3	-12.4744E-3	168.451E-12	608.919E-3	25.8945E-3
4.24462E-3	166.289E-12	654.118E-3	-13.9359E-3	168.920E-12	625.481E-3	-9.86594E-3
4.23962E-3	166.165E-12	624.023E-3	-28.8217E-3	168.885E-12	672.442E-3	-33.2357E-3
4.23462E-3	166.483E-12	608.516E-3	-17.9331E-3	168.654E-12	705.222E-3	-33.2634E-3
4.22961E-3	166.001E-12	601.465E-3	-8.81607E-3	168.323E-12	679.922E-3	-23.3290E-3
4.22461E-3	165.757E-12	624.729E-3	-19.2210E-3	168.898E-12	646.117E-3	-9.87817E-3
4.21961E-3	165.721E-12	682.267E-3	-28.1852E-3	168.394E-12	639.449E-3	-16.2336E-3
4.21461E-3	165.623E-12	693.468E-3	-28.6118E-3	167.479E-12	640.506E-3	-30.1508E-3
4.20960E-3	165.374E-12	658.686E-3	-34.5183E-3	166.907E-12	644.155E-3	-22.1846E-3
4.20460E-3	164.926E-12	641.977E-3	-40.7600E-3	166.253E-12	653.935E-3	-4.60805E-3
4.19960E-3	164.384E-12	638.259E-3	-30.2386E-3	165.465E-12	655.683E-3	5.49405E-3
4.19460E-3	163.692E-12	639.429E-3	-22.2480E-3	164.847E-12	647.676E-3	2.72672E-3
4.18959E-3	163.298E-12	644.609E-3	-7.31150E-3	163.147E-12	659.676E-3	-10.5996E-3
4.18459E-3	162.679E-12	643.814E-3	-265.887E-6	163.155E-12	671.646E-3	-22.8800E-3
4.17959E-3	163.397E-12	640.320E-3	-21.5796E-3	162.579E-12	656.711E-3	-14.1419E-3
4.17459E-3	162.486E-12	661.876E-3	-35.0494E-3	162.232E-12	648.328E-3	3.40847E-3
4.16958E-3	162.597E-12	681.791E-3	-37.1656E-3	161.522E-12	660.992E-3	3.22461E-3
4.16458E-3	162.577E-12	654.613E-3	-35.9846E-3	162.437E-12	683.788E-3	-6.45284E-3
4.15958E-3	163.923E-12	636.949E-3	-33.1734E-3	162.814E-12	696.179E-3	-12.5414E-3
4.15458E-3	163.599E-12	651.531E-3	-16.8356E-3	164.125E-12	676.190E-3	-14.1044E-3
4.14957E-3	164.091E-12	683.059E-3	8.80457E-3	164.333E-12	639.687E-3	-23.0719E-3
4.14457E-3	163.601E-12	700.385E-3	15.4645E-3	164.690E-12	647.212E-3	-25.6155E-3
4.13957E-3	163.937E-12	668.633E-3	163.452E-6	165.182E-12	688.480E-3	-1.30176E-3
4.13457E-3	164.124E-12	658.113E-3	-22.0895E-3	166.149E-12	698.374E-3	19.9156E-3
4.12956E-3	163.623E-12	698.550E-3	-35.4093E-3	165.938E-12	683.195E-3	29.3181E-3
4.12456E-3	163.237E-12	718.028E-3	-28.8951E-3	165.332E-12	669.949E-3	23.9656E-3
4.11956E-3	162.402E-12	691.600E-3	-23.6677E-3	165.014E-12	664.367E-3	-8.32415E-3
4.11456E-3	161.678E-12	668.048E-3	-38.6126E-3	164.541E-12	666.849E-3	-28.1083E-3
4.10955E-3	161.603E-12	661.483E-3	-40.8571E-3	162.999E-12	668.824E-3	-21.0740E-3
4.10455E-3	160.789E-12	645.121E-3	-26.0929E-3	161.988E-12	658.239E-3	-24.4218E-3
4.09955E-3	160.756E-12	655.449E-3	-19.8965E-3	161.431E-12	654.754E-3	-37.1150E-3
4.09455E-3	159.542E-12	681.112E-3	-31.5070E-3	160.448E-12	672.988E-3	-43.5497E-3
4.08954E-3	160.347E-12	668.329E-3	-36.2319E-3	158.867E-12	687.559E-3	-37.2388E-3
4.08454E-3	160.747E-12	656.737E-3	-11.0306E-3	158.628E-12	677.681E-3	-8.17401E-3
4.07954E-3	161.017E-12	664.100E-3	15.2070E-3	158.541E-12	649.806E-3	20.9825E-3
4.07454E-3	160.066E-12	675.451E-3	-3.32849E-3	157.886E-12	647.556E-3	10.2808E-3
4.06953E-3	160.281E-12	682.202E-3	-32.2916E-3	158.076E-12	666.675E-3	-32.6131E-3
4.06453E-3	159.770E-12	670.789E-3	-18.8885E-3	158.272E-12	670.530E-3	-42.8898E-3
4.05953E-3	159.828E-12	654.775E-3	1.86554E-3	158.135E-12	666.365E-3	-12.5423E-3
4.05453E-3	159.146E-12	646.971E-3	-7.12278E-3	158.056E-12	662.986E-3	5.52710E-3
4.04952E-3	158.273E-12	667.616E-3	-25.8835E-3	158.177E-12	669.651E-3	-7.30201E-3
4.04452E-3	157.841E-12	682.041E-3	-35.1107E-3	158.345E-12	659.526E-3	-32.9687E-3
4.03952E-3	157.121E-12	637.792E-3	-45.2500E-3	158.168E-12	636.125E-3	-34.8236E-3
4.03452E-3	157.137E-12	611.123E-3	-51.6688E-3	157.585E-12	652.702E-3	-12.5655E-3
4.02951E-3	156.182E-12	636.863E-3	-40.5139E-3	158.116E-12	669.855E-3	-6.94599E-3
4.02451E-3	155.456E-12	646.550E-3	-18.6816E-3	157.799E-12	662.420E-3	-25.7044E-3
4.01951E-3	155.129E-12	631.599E-3	-6.71380E-3	157.716E-12	664.531E-3	-49.2219E-3
4.01451E-3	155.829E-12	611.766E-3	-17.5062E-3	157.093E-12	655.720E-3	-60.0568E-3
4.00950E-3	155.098E-12	616.341E-3	-23.4165E-3	156.495E-12	647.794E-3	-34.0553E-3
4.00450E-3	154.761E-12	656.977E-3	9.32738E-3	156.065E-12	658.355E-3	-3.72696E-3
3.99950E-3	155.224E-12	685.676E-3	20.8211E-3	155.294E-12	657.454E-3	-23.2671E-3
3.99450E-3	155.900E-12	657.229E-3	-18.2499E-3	153.914E-12	665.804E-3	-52.6880E-3
3.98949E-3	156.098E-12	618.108E-3	-37.4422E-3	153.615E-12	704.818E-3	-41.8181E-3
3.98449E-3	155.642E-12	623.386E-3	-29.7711E-3	153.472E-12	710.628E-3	-8.69008E-3
3.97949E-3	155.580E-12	643.451E-3	-2.19404E-3	153.113E-12	678.648E-3	9.99840E-3
3.97449E-3	155.525E-12	656.876E-3	28.1571E-3	152.419E-12	661.692E-3	8.95381E-3
3.96948E-3	155.254E-12	666.855E-3	27.4889E-3	152.796E-12	655.417E-3	3.47837E-3
3.96448E-3	154.264E-12	664.304E-3	9.03435E-3	153.237E-12	662.596E-3	-10.8493E-3
3.95948E-3	153.572E-12	638.362E-3	-10.8539E-3	153.193E-12	683.360E-3	-17.6829E-3
3.95448E-3	153.370E-12	622.790E-3	-23.7382E-3	153.401E-12	684.996E-3	-23.6997E-3
3.94947E-3	152.946E-12	632.163E-3	-28.8313E-3	153.796E-12	665.527E-3	-31.6281E-3
3.94447E-3	151.673E-12	636.773E-3	-34.9733E-3	153.955E-12	661.617E-3	-15.1067E-3
3.93947E-3	151.426E-12	638.284E-3	-33.2749E-3	155.488E-12	685.578E-3	-5.35798E-3
3.93447E-3	151.695E-12	648.251E-3	-16.9723E-3	155.552E-12	692.542E-3	-587.690E-6
3.92946E-3	151.612E-12	659.124E-3	1.44421E-3	155.342E-12	665.142E-3	14.6493E-3
3.92446E-3	151.947E-12	675.519E-3	4.37970E-3	156.184E-12	652.778E-3	22.1818E-3
3.91946E-3	152.020E-12	689.826E-3	-17.1150E-3	155.927E-12	651.672E-3	5.38190E-3
3.91446E-3	152.752E-12	683.422E-3	-22.7298E-3	155.618E-12	649.764E-3	-22.4231E-3
3.90945E-3	152.614E-12	658.068E-3	-112.941E-6	154.490E-12	661.752E-3	-21.9706E-3
3.90445E-3	153.231E-12	628.202E-3	15.7041E-3	153.847E-12	671.484E-3	-22.2226E-3
3.89945E-3	153.082E-12	638.514E-3	746.304E-6	152.773E-12	671.294E-3	-52.8195E-3
3.89445E-3	153.432E-12	667.817E-3	-24.6421E-3	152.235E-12	656.685E-3	-61.6490E-3
3.88944E-3	153.777E-12	657.102E-3	-30.9092E-3	151.395E-12	642.316E-3	-34.4924E-3
3.88444E-3	153.266E-12	639.032E-3	-23.3242E-3	150.295E-12	639.096E-3	-11.5403E-3
3.87944E-3	153.306E-12	640.611E-3	-12.6981E-3	150.133E-12	649.109E-3	-6.20149E-3
3.87444E-3	152.483E-12	651.676E-3	-22.0182E-3	149.270E-12	660.495E-3	-16.6762E-3
3.86943E-3	151.993E-12	674.390E-3	-33.4339E-3	148.476E-12	653.916E-3	-28.1652E-3
3.86443E-3	151.024E-12	687.778E-3	-21.7336E-3	147.747E-12	655.524E-3	-38.6888E-3
3.85943E-3	150.118E-12	673.825E-3	-16.1271E-3	148.922E-12	646.890E-3	-44.4711E-3
3.85443E-3	149.171E-12	657.372E-3	-16.2081E-3	147.995E-12	639.428E-3	-17.4492E-3
3.84942E-3	149.442E-12	663.042E-3	-10.3240E-3	149.191E-12	670.203E-3	1.17746E-3
3.84442E-3	148.106E-12	661.097E-3	-19.2835E-3	149.459E-12	669.503E-3	-18.7802E-3
3.83942E-3	147.615E-12	647.844E-3	-29.5457E-3	149.110E-12	642.780E-3	-11.7195E-3
3.83442E-3	147.646E-12	655.127E-3	-8.69183E-3	149.718E-12	652.791E-3	28.6136E-3
3.82941E-3	148.030E-12	649.271E-3	16.7480E-3	149.835E-12	648.933E-3	36.7258E-3
3.82441E-3	147.954E-12	627.288E-3	1.85310E-3	149.691E-12	618.620E-3	8.14919E-3
3.81941E-3	147.933E-12	629.391E-3	-22.6373E-3	149.307E-12	636.033E-3	-26.9456E-3
3.81441E-3	148.338E-12	633.516E-3	-13.2323E-3	149.424E-12	682.515E-3	-63.4962E-3
3.80940E-3	147.934E-12	622.778E-3	-6.61646E-3	148.617E-12	677.929E-3	-66.5738E-3
3.80440E-3	148.366E-12	643.179E-3	-13.4434E-3	148.273E-12	654.351E-3	-29.0215E-3
3.79940E-3	148.594E-12	672.126E-3	-7.56708E-3	147.508E-12	663.017E-3	-8.71450E-3
3.79440E-3	148.370E-12	670.810E-3	-15.0290E-3	147.538E-12	668.536E-3	-15.7873E-3
3.78939E-3	148.008E-12	671.112E-3	-35.5538E-3	146.935E-12	663.194E-3	-8.29117E-3
3.78439E-3	148.245E-12	671.432E-3	-16.1177E-3	145.909E-12	663.513E-3	4.61833E-3
3.77939E-3	147.035E-12	658.373E-3	10.8224E-3	145.489E-12	653.465E-3	-5.72899E-3
3.77439E-3	146.393E-12	641.061E-3	-3.31736E-3	145.013E-12	648.084E-3	-10.4200E-3
3.76938E-3	145.138E-12	654.875E-3	-25.1408E-3	144.339E-12	660.538E-3	-16.4259E-3
3.76438E-3	144.803E-12	674.280E-3	-29.7885E-3	143.327E-12	670.152E-3	-34.8032E-3
3.75938E-3	144.293E-12	660.769E-3	-14.9509E-3	142.811E-12	652.438E-3	-15.1737E-3
3.75438E-3	143.406E-12	652.482E-3	7.60710E-3	141.963E-12	635.894E-3	15.1017E-3
3.74937E-3	142.389E-12	645.800E-3	18.1248E-3	142.173E-12	651.483E-3	-935.599E-6
3.74437E-3	142.683E-12	640.700E-3	1.68696E-3	142.641E-12	662.867E-3	-22.3005E-3
3.73937E-3	142.758E-12	666.010E-3	-19.1123E-3	142.905E-12	667.141E-3	-14.1490E-3
3.73437E-3	142.322E-12	664.823E-3	-9.34868E-3	142.899E-12	675.966E-3	1.81113E-3
3.72936E-3	142.283E-12	629.197E-3	8.41973E-3	143.960E-12	663.611E-3	9.62191E-3
3.72436E-3	142.912E-12	631.577E-3	6.40431E-3	144.635E-12	636.345E-3	2.82041E-3
3.71936E-3	143.701E-12	659.554E-3	-3.67685E-3	144.729E-12	627.757E-3	-15.1411E-3
3.71436E-3	143.432E-12	667.149E-3	-13.4339E-3	145.344E-12	645.449E-3	-20.4238E-3
3.70935E-3	143.461E-12	660.381E-3	-21.7950E-3	145.583E-12	665.168E-3	-5.77623E-3
3.70435E-3	143.373E-12	651.528E-3	-18.9545E-3	145.158E-12	657.280E-3	-5.59838E-3
3.69935E-3	143.285E-12	645.677E-3	5.00901E-3	145.418E-12	635.311E-3	-7.11338E-3
3.69435E-3	143.304E-12	656.609E-3	12.6304E-3	145.386E-12	652.617E-3	1.39775E-3
3.68934E-3	142.868E-12	670.218E-3	-5.40243E-3	144.491E-12	701.012E-3	-21.7905E-3
3.68434E-3	142.935E-12	689.464E-3	-14.6463E-3	143.789E-12	701.281E-3	-34.5746E-3
3.67934E-3	142.545E-12	693.743E-3	-18.4484E-3	143.740E-12	681.256E-3	-17.5888E-3
3.67434E-3	142.321E-12	658.904E-3	-14.0100E-3	142.661E-12	691.266E-3	-23.7766E-3
3.66933E-3	142.000E-12	642.733E-3	-7.65913E-3	141.186E-12	682.606E-3	-50.9759E-3
3.66433E-3	141.281E-12	651.103E-3	-4.53577E-3	140.859E-12	664.631E-3	-44.7831E-3
3.65933E-3	140.875E-12	658.123E-3	-1.24819E-3	139.844E-12	663.187E-3	-20.2461E-3
3.65433E-3	140.424E-12	654.195E-3	-3.22593E-3	139.864E-12	657.395E-3	-14.7102E-3
3.64932E-3	140.602E-12	644.520E-3	-28.6012E-3	139.941E-12	654.853E-3	-12.6367E-3
3.64432E-3	139.578E-12	669.434E-3	-55.1025E-3	140.136E-12	671.973E-3	-27.8061E-3
3.63932E-3	139.183E-12	696.406E-3	-46.2859E-3	140.145E-12	681.615E-3	-47.4789E-3
3.63432E-3	139.144E-12	674.934E-3	-31.4814E-3	140.312E-12	665.436E-3	-26.1776E-3
3.62931E-3	139.531E-12	643.321E-3	-24.6026E-3	140.946E-12	657.219E-3	2.94726E-3
3.62431E-3	139.258E-12	643.054E-3	-21.1211E-3	141.329E-12	664.660E-3	1.77907E-3
3.61931E-3	139.139E-12	660.496E-3	-42.1578E-3	141.774E-12	677.880E-3	-12.4709E-3
3.61431E-3	139.023E-12	669.816E-3	-64.6198E-3	141.691E-12	698.959E-3	-33.3931E-3
3.60930E-3	139.157E-12	666.733E-3	-53.6075E-3	142.161E-12	712.243E-3	-41.9935E-3
3.60430E-3	138.597E-12	655.876E-3	-43.6413E-3	142.815E-12	704.382E-3	-20.7474E-3
3.59930E-3	138.808E-12	658.579E-3	-39.6607E-3	142.091E-12	693.293E-3	-4.77167E-3
3.59430E-3	139.076E-12	668.290E-3	-33.2666E-3	141.753E-12	688.349E-3	-14.1909E-3
3.58929E-3	139.335E-12	670.877E-3	-29.3155E-3	140.963E-12	680.965E-3	-21.6913E-3
3.58429E-3	139.341E-12	683.801E-3	-12.1537E-3	140.392E-12	682.453E-3	-10.2614E-3
3.57929E-3	139.061E-12	693.635E-3	8.70053E-3	139.329E-12	688.340E-3	-13.4069E-3
3.57429E-3	139.061E-12	700.221E-3	7.67749E-3	138.680E-12	668.835E-3	-33.6335E-3
3.56928E-3	138.736E-12	710.096E-3	-18.8365E-3	137.660E-12	646.347E-3	-31.3264E-3
3.56428E-3	138.581E-12	706.477E-3	-42.0704E-3	136.639E-12	652.430E-3	-21.9615E-3
3.55928E-3	137.742E-12	700.289E-3	-50.1286E-3	136.038E-12	655.996E-3	-19.5182E-3
3.55428E-3	136.929E-12	703.974E-3	-45.5594E-3	134.945E-12	647.298E-3	-16.1304E-3
3.54927E-3	136.695E-12	705.937E-3	-38.6195E-3	135.008E-12	655.262E-3	-24.9019E-3
3.54427E-3	135.986E-12	701.263E-3	-42.2371E-3	134.721E-12	672.731E-3	-48.3601E-3
3.53927E-3	135.091E-12	692.498E-3	-45.7510E-3	134.200E-12	680.998E-3	-54.6491E-3
3.53427E-3	134.563E-12	667.249E-3	-36.7125E-3	134.295E-12	689.438E-3	-51.7747E-3
3.52926E-3	134.037E-12	654.583E-3	-20.9536E-3	134.928E-12	683.039E-3	-54.0499E-3
3.52426E-3	134.051E-12	686.184E-3	-19.1569E-3	134.818E-12	651.796E-3	-46.4961E-3
3.51926E-3	133.821E-12	705.435E-3	-29.1880E-3	135.198E-12	646.339E-3	-34.6996E-3
3.51426E-3	133.516E-12	690.151E-3	-32.2310E-3	135.575E-12	660.818E-3	-20.9079E-3
3.50925E-3	133.587E-12	682.967E-3	-27.3074E-3	136.075E-12	663.286E-3	-12.0373E-3
3.50425E-3	133.944E-12	677.974E-3	-10.5352E-3	135.707E-12	677.727E-3	-16.7824E-3
3.49925E-3	133.996E-12	674.273E-3	-12.6607E-3	136.430E-12	685.778E-3	-30.5982E-3
3.49425E-3	134.326E-12	676.859E-3	-32.6181E-3	135.909E-12	667.796E-3	-30.9625E-3
3.48924E-3	134.211E-12	670.935E-3	-29.0863E-3	136.082E-12	677.471E-3	-19.4023E-3
3.48424E-3	134.445E-12	664.144E-3	-13.8568E-3	135.360E-12	710.555E-3	-6.92642E-3
3.47924E-3	133.998E-12	667.295E-3	-5.94922E-3	134.573E-12	694.255E-3	5.36188E-3
3.47424E-3	133.452E-12	679.241E-3	-9.37844E-3	133.708E-12	650.037E-3	6.92363E-3
3.46923E-3	133.276E-12	686.364E-3	-27.0664E-3	133.249E-12	643.345E-3	-2.67669E-3
3.46423E-3	133.249E-12	686.642E-3	-38.8609E-3	132.211E-12	660.605E-3	-5.29709E-3
3.45923E-3	132.237E-12	684.804E-3	-28.2427E-3	131.233E-12	675.649E-3	-1.25147E-3
3.45423E-3	131.834E-12	689.696E-3	-6.87014E-3	131.264E-12	675.027E-3	-5.02053E-3
3.44922E-3	131.526E-12	702.001E-3	1.15507E-3	130.610E-12	647.763E-3	-9.80727E-3
3.44422E-3	131.085E-12	695.873E-3	-13.9023E-3	130.261E-12	642.873E-3	-19.0616E-3
3.43922E-3	130.169E-12	666.557E-3	-33.3528E-3	130.075E-12	671.735E-3	-39.9925E-3
3.43422E-3	129.700E-12	643.167E-3	-34.2205E-3	129.444E-12	681.001E-3	-40.0901E-3
3.42921E-3	129.068E-12	653.807E-3	-11.3755E-3	129.010E-12	675.138E-3	131.757E-6
3.42421E-3	128.820E-12	675.264E-3	13.5030E-3	128.942E-12	691.011E-3	17.6789E-3
3.41921E-3	128.929E-12	687.358E-3	16.6949E-3	128.991E-12	695.936E-3	-8.70053E-3
3.41421E-3	128.251E-12	692.214E-3	-3.62556E-3	129.411E-12	678.465E-3	-18.2417E-3
3.40920E-3	127.797E-12	675.322E-3	-26.9266E-3	129.679E-12	681.681E-3	-12.5349E-3
3.40420E-3	128.301E-12	655.820E-3	-25.0394E-3	129.318E-12	676.964E-3	-20.3060E-3
3.39920E-3	128.927E-12	656.299E-3	-8.63525E-3	129.794E-12	648.304E-3	-29.3259E-3
3.39420E-3	128.557E-12	670.467E-3	-14.3013E-3	129.915E-12	640.955E-3	-45.2357E-3
3.38919E-3	128.386E-12	677.447E-3	-27.7079E-3	130.422E-12	659.522E-3	-57.5961E-3
3.38419E-3	128.005E-12	669.123E-3	-25.5994E-3	130.051E-12	664.841E-3	-36.0878E-3
3.37919E-3	128.258E-12	676.095E-3	-13.1530E-3	129.919E-12	656.906E-3	145.168E-6
3.37419E-3	128.404E-12	688.356E-3	1.12791E-3	129.436E-12	661.645E-3	6.98928E-3
3.36918E-3	128.198E-12	687.967E-3	5.17686E-3	129.611E-12	657.037E-3	-9.45217E-3
3.36418E-3	128.057E-12	691.509E-3	-12.2893E-3	129.213E-12	658.332E-3	-3.74793E-3
3.35918E-3	128.438E-12	687.936E-3	-25.3462E-3	128.055E-12	666.921E-3	6.68876E-3
3.35418E-3	128.539E-12	682.131E-3	-27.9088E-3	127.765E-12	650.582E-3	-15.3497E-3
3.34917E-3	127.993E-12	687.971E-3	-29.8686E-3	127.559E-12	649.762E-3	-36.4880E-3
3.34417E-3	127.214E-12	687.237E-3	-17.4273E-3	127.185E-12	659.214E-3	-41.8857E-3
3.33917E-3	126.843E-12	664.235E-3	-18.0257E-3	126.231E-12	658.042E-3	-34.9095E-3
3.33417E-3	126.723E-12	644.522E-3	-28.1298E-3	126.089E-12	670.292E-3	-11.5914E-3
3.32916E-3	125.971E-12	644.672E-3	-22.1505E-3	125.351E-12	687.499E-3	-4.88844E-3
3.32416E-3	125.404E-12	647.929E-3	-3.95655E-3	124.991E-12	676.997E-3	-14.4580E-3
3.31916E-3	125.182E-12	639.350E-3	-5.30090E-3	124.526E-12	662.924E-3	-13.4606E-3
3.31416E-3	125.426E-12	626.606E-3	-30.8551E-3	125.079E-12	678.725E-3	-3.39887E-3
3.30915E-3	125.046E-12	638.352E-3	-38.6988E-3	124.861E-12	684.917E-3	4.06756E-3
3.30415E-3	124.575E-12	669.987E-3	-16.4949E-3	125.422E-12	672.726E-3	12.0520E-3
3.29915E-3	125.006E-12	696.275E-3	660.645E-6	125.924E-12	681.822E-3	11.8487E-3
3.29415E-3	124.568E-12	703.371E-3	-21.9392E-3	126.175E-12	691.720E-3	-16.0613E-3
3.28914E-3	124.615E-12	684.392E-3	-58.1196E-3	126.193E-12	679.664E-3	-30.3868E-3
3.28414E-3	125.063E-12	666.155E-3	-58.7329E-3	126.573E-12	675.885E-3	-14.2244E-3
3.27914E-3	124.758E-12	682.826E-3	-40.1149E-3	127.014E-12	662.280E-3	-9.02022E-3
3.27414E-3	124.122E-12	711.474E-3	-31.3623E-3	126.673E-12	647.078E-3	-18.5714E-3
3.26913E-3	124.503E-12	715.957E-3	-31.0421E-3	125.881E-12	664.559E-3	-34.7760E-3
3.26413E-3	125.377E-12	678.970E-3	-29.4579E-3	125.541E-12	675.693E-3	-43.0641E-3
3.25913E-3	124.927E-12	636.542E-3	-14.0493E-3	125.035E-12	665.380E-3	-16.0831E-3
3.25413E-3	124.744E-12	633.386E-3	-8.98505E-3	124.840E-12	664.175E-3	13.2054E-3
3.24912E-3	124.560E-12	658.004E-3	-5.82484E-3	123.548E-12	671.179E-3	8.27664E-3
3.24412E-3	124.896E-12	694.115E-3	7.31473E-3	122.465E-12	665.978E-3	-1.59532E-3
3.23912E-3	124.193E-12	711.861E-3	7.36046E-3	122.600E-12	656.696E-3	-3.13038E-3
3.23412E-3	123.213E-12	707.104E-3	5.14575E-3	122.183E-12	661.569E-3	-5.68036E-3
3.22911E-3	122.301E-12	695.470E-3	5.45856E-3	120.810E-12	659.928E-3	-4.00217E-3
3.22411E-3	121.502E-12	679.731E-3	-7.84854E-3	120.329E-12	641.806E-3	-5.00003E-3
3.21911E-3	121.080E-12	669.085E-3	-30.7293E-3	120.118E-12	631.728E-3	-12.9946E-3
3.21411E-3	120.145E-12	665.548E-3	-34.5220E-3	120.429E-12	637.215E-3	-20.4142E-3
3.20910E-3	119.461E-12	663.136E-3	-11.0138E-3	119.660E-12	653.821E-3	-16.9602E-3
3.20410E-3	119.087E-12	653.807E-3	-5.11212E-3	119.447E-12	674.912E-3	-24.0001E-3
3.19910E-3	118.986E-12	657.794E-3	-21.8717E-3	119.588E-12	676.079E-3	-44.3830E-3
3.19410E-3	119.284E-12	669.636E-3	-33.8335E-3	120.395E-12	655.376E-3	-36.7957E-3
3.18909E-3	119.413E-12	674.934E-3	-42.9095E-3	120.443E-12	665.825E-3	-22.0059E-3
3.18409E-3	119.287E-12	681.982E-3	-39.0480E-3	119.963E-12	696.081E-3	-33.2352E-3
3.17909E-3	119.143E-12	679.322E-3	-26.4565E-3	119.936E-12	696.664E-3	-38.5739E-3
3.17409E-3	119.705E-12	668.495E-3	-20.9769E-3	120.182E-12	683.965E-3	-37.2683E-3
3.16908E-3	120.098E-12	675.956E-3	-27.7806E-3	120.206E-12	666.342E-3	-44.3703E-3
3.16408E-3	119.708E-12	687.797E-3	-35.4388E-3	120.134E-12	661.332E-3	-32.5946E-3
3.15908E-3	119.687E-12	679.073E-3	-35.6447E-3	119.686E-12	663.138E-3	-13.6341E-3
3.15408E-3	120.135E-12	675.816E-3	-41.7517E-3	119.151E-12	655.598E-3	-20.3988E-3
3.14907E-3	120.183E-12	685.920E-3	-32.7327E-3	118.235E-12	664.834E-3	-24.7817E-3
3.14407E-3	119.489E-12	687.792E-3	-10.4012E-3	118.210E-12	672.775E-3	-15.1275E-3
3.13907E-3	118.373E-12	687.988E-3	-8.33910E-3	117.338E-12	663.742E-3	-8.89713E-3
3.13407E-3	117.256E-12	687.225E-3	-13.2762E-3	116.684E-12	658.556E-3	-6.79661E-3
3.12906E-3	117.011E-12	681.423E-3	-14.9104E-3	116.085E-12	659.960E-3	-9.83339E-3
3.12406E-3	116.427E-12	688.667E-3	-21.0502E-3	115.881E-12	670.743E-3	-15.3316E-3
3.11906E-3	115.888E-12	704.055E-3	-24.1442E-3	115.535E-12	689.996E-3	-16.4037E-3
3.11406E-3	115.357E-12	705.177E-3	-19.1654E-3	115.291E-12	701.232E-3	-13.9895E-3
3.10905E-3	115.246E-12	685.704E-3	-28.7001E-3	115.221E-12	704.001E-3	-13.9926E-3
3.10405E-3	115.086E-12	663.128E-3	-56.9353E-3	115.501E-12	702.412E-3	-15.2705E-3
3.09905E-3	115.616E-12	656.770E-3	-63.4113E-3	115.776E-12	701.320E-3	-23.8282E-3
3.09405E-3	115.632E-12	665.188E-3	-39.5161E-3	116.535E-12	706.241E-3	-39.7262E-3
3.08904E-3	115.864E-12	680.605E-3	-21.2837E-3	116.105E-12	701.137E-3	-33.6238E-3
3.08404E-3	115.998E-12	682.551E-3	-23.8509E-3	116.202E-12	699.546E-3	-14.2998E-3
3.07904E-3	115.959E-12	672.033E-3	-46.4920E-3	116.651E-12	717.158E-3	-14.3728E-3
3.07404E-3	115.645E-12	686.228E-3	-56.4306E-3	116.977E-12	721.128E-3	-23.2356E-3
3.06903E-3	115.643E-12	698.184E-3	-41.5480E-3	116.087E-12	715.519E-3	-20.5593E-3
3.06403E-3	115.746E-12	668.777E-3	-28.1090E-3	115.955E-12	702.128E-3	-15.7800E-3
3.05903E-3	114.961E-12	651.965E-3	-14.8180E-3	116.109E-12	671.308E-3	-10.4640E-3
3.05403E-3	114.318E-12	663.291E-3	7.18014E-3	115.984E-12	656.898E-3	1.09582E-3
3.04902E-3	114.162E-12	672.107E-3	14.2879E-3	115.124E-12	666.758E-3	-3.45565E-3
3.04402E-3	114.641E-12	684.024E-3	2.35940E-3	114.800E-12	676.222E-3	-27.9998E-3
3.03902E-3	113.858E-12	707.005E-3	-2.41030E-3	114.529E-12	683.017E-3	-18.1421E-3
3.03402E-3	113.214E-12	716.690E-3	-4.21166E-3	113.647E-12	700.271E-3	17.8642E-3
3.02901E-3	113.174E-12	704.454E-3	1.25191E-3	113.537E-12	709.063E-3	8.16885E-3
3.02401E-3	113.027E-12	689.148E-3	5.12160E-3	113.437E-12	695.969E-3	-32.6313E-3
3.01901E-3	112.539E-12	674.582E-3	2.02500E-3	112.974E-12	685.477E-3	-53.2664E-3
3.01401E-3	112.227E-12	679.995E-3	11.9696E-3	113.107E-12	682.023E-3	-37.7054E-3
3.00900E-3	112.106E-12	696.623E-3	21.6982E-3	112.340E-12	671.045E-3	-14.4911E-3
3.00400E-3	112.100E-12	683.647E-3	5.57401E-3	112.342E-12	662.187E-3	-1.76120E-3
2.99900E-3	111.879E-12	660.820E-3	-16.9011E-3	112.449E-12	655.457E-3	-1.51574E-3
2.99400E-3	111.553E-12	660.942E-3	-19.1864E-3	111.961E-12	651.030E-3	-15.0148E-3
2.98899E-3	111.099E-12	672.601E-3	-13.9018E-3	111.408E-12	660.538E-3	-20.1030E-3
2.98399E-3	111.036E-12	690.512E-3	-8.74862E-3	111.598E-12	684.677E-3	-7.61036E-3
2.97899E-3	110.619E-12	697.966E-3	-4.44837E-3	111.578E-12	703.301E-3	951.041E-6
2.97399E-3	110.105E-12	691.107E-3	-15.9145E-3	111.036E-12	683.271E-3	-20.7826E-3
2.96898E-3	109.565E-12	694.093E-3	-40.9329E-3	110.893E-12	656.067E-3	-52.7381E-3
2.96398E-3	109.874E-12	699.520E-3	-37.2666E-3	110.605E-12	663.514E-3	-49.2842E-3
2.95898E-3	109.553E-12	689.180E-3	-5.90178E-3	110.551E-12	686.797E-3	-24.0353E-3
2.95398E-3	109.435E-12	681.884E-3	8.46809E-3	110.204E-12	689.698E-3	-17.5645E-3
2.94897E-3	109.233E-12	690.220E-3	2.13956E-3	110.357E-12	682.592E-3	-21.5088E-3
2.94397E-3	108.667E-12	692.257E-3	-9.49077E-3	109.609E-12	700.823E-3	-21.7931E-3
2.93897E-3	108.849E-12	692.257E-3	-27.8947E-3	109.235E-12	718.807E-3	-17.9591E-3
2.93397E-3	108.829E-12	700.614E-3	-43.2570E-3	108.206E-12	704.345E-3	1.94384E-3
2.92896E-3	107.831E-12	698.344E-3	-30.4653E-3	108.002E-12	681.935E-3	12.7185E-3
2.92396E-3	107.327E-12	681.273E-3	-8.11942E-3	107.398E-12	682.541E-3	-4.30170E-3
2.91896E-3	107.659E-12	677.669E-3	-13.1036E-3	106.996E-12	692.941E-3	-20.6899E-3
2.91396E-3	107.370E-12	680.907E-3	-33.3976E-3	106.621E-12	693.327E-3	-12.9314E-3
2.90895E-3	107.113E-12	666.036E-3	-36.7297E-3	106.362E-12	687.200E-3	-2.56861E-3
2.90395E-3	106.338E-12	660.477E-3	-23.5510E-3	106.248E-12	674.455E-3	-13.2749E-3
2.89895E-3	106.030E-12	677.928E-3	-10.5834E-3	105.582E-12	652.564E-3	-18.3079E-3
2.89395E-3	106.393E-12	684.634E-3	-15.2214E-3	105.701E-12	666.156E-3	-18.1085E-3
2.88894E-3	106.158E-12	679.267E-3	-33.3096E-3	105.713E-12	697.447E-3	-27.7060E-3
2.88394E-3	105.802E-12	684.961E-3	-34.3579E-3	105.336E-12	686.472E-3	-22.4963E-3
2.87894E-3	105.088E-12	693.023E-3	-13.9216E-3	105.577E-12	683.095E-3	-9.80376E-3
2.87394E-3	105.036E-12	693.593E-3	-3.74091E-3	105.664E-12	698.132E-3	-19.8023E-3
2.86893E-3	104.970E-12	692.377E-3	-20.3067E-3	104.953E-12	688.629E-3	-29.1100E-3
2.86393E-3	104.589E-12	693.462E-3	-43.8141E-3	104.942E-12	688.650E-3	-15.8463E-3
2.85893E-3	104.202E-12	698.064E-3	-51.4096E-3	105.561E-12	710.553E-3	-17.4482E-3
2.85393E-3	103.838E-12	703.634E-3	-20.2397E-3	105.075E-12	698.915E-3	-34.0147E-3
2.84892E-3	103.879E-12	688.255E-3	10.7938E-3	104.865E-12	674.315E-3	-23.0769E-3
2.84392E-3	104.224E-12	670.680E-3	-735.212E-6	104.652E-12	693.290E-3	-13.5733E-3
2.83892E-3	103.998E-12	675.651E-3	-22.6930E-3	105.106E-12	728.688E-3	-29.9783E-3
2.83392E-3	103.872E-12	683.672E-3	-24.0031E-3	104.256E-12	742.814E-3	-29.9786E-3
2.82891E-3	104.188E-12	691.296E-3	-21.0412E-3	104.009E-12	728.830E-3	-22.5847E-3
2.82391E-3	104.354E-12	697.488E-3	-17.9857E-3	103.070E-12	685.038E-3	-34.6367E-3
2.81891E-3	103.856E-12	706.148E-3	-6.18189E-3	103.078E-12	661.050E-3	-35.2038E-3
2.81391E-3	103.978E-12	716.851E-3	-13.7781E-3	102.110E-12	668.260E-3	-20.0354E-3
2.80890E-3	103.164E-12	719.773E-3	-34.5961E-3	101.788E-12	670.291E-3	-12.6360E-3
2.80390E-3	102.989E-12	708.047E-3	-46.0808E-3	101.220E-12	689.076E-3	-3.43033E-3
2.79890E-3	102.434E-12	692.550E-3	-49.1196E-3	101.268E-12	715.549E-3	-6.47798E-3
2.79390E-3	101.757E-12	692.139E-3	-40.2861E-3	100.845E-12	720.659E-3	-27.0855E-3
2.78889E-3	101.557E-12	699.607E-3	-27.8732E-3	101.243E-12	716.432E-3	-25.3960E-3
2.78389E-3	101.262E-12	696.831E-3	-21.9178E-3	101.301E-12	717.988E-3	-14.0132E-3
2.77889E-3	100.472E-12	681.639E-3	-12.4002E-3	101.490E-12	708.366E-3	-18.8482E-3
2.77389E-3	100.422E-12	676.500E-3	-3.16480E-3	101.513E-12	687.705E-3	-18.7522E-3
2.76888E-3	100.805E-12	684.316E-3	-862.130E-6	101.467E-12	689.598E-3	-20.5856E-3
2.76388E-3	100.403E-12	688.725E-3	-2.48580E-3	101.682E-12	708.274E-3	-28.9728E-3
2.75888E-3	100.307E-12	688.423E-3	-4.33465E-3	102.033E-12	715.706E-3	-18.5070E-3
2.75388E-3	100.593E-12	693.576E-3	1.13049E-3	101.868E-12	732.392E-3	-1.46438E-3
2.74887E-3	100.607E-12	705.108E-3	12.1051E-3	101.681E-12	747.828E-3	552.760E-6
2.74387E-3	100.917E-12	723.091E-3	3.70495E-3	101.333E-12	726.737E-3	3.73967E-3
2.73887E-3	101.068E-12	730.951E-3	-18.9236E-3	101.231E-12	712.805E-3	13.8861E-3
2.73387E-3	101.129E-12	722.248E-3	-22.1645E-3	100.972E-12	722.220E-3	13.4272E-3
2.72886E-3	101.044E-12	714.779E-3	-6.16135E-3	100.318E-12	713.053E-3	6.15145E-3
2.72386E-3	100.649E-12	711.902E-3	5.70595E-3	99.3786E-12	690.228E-3	5.76970E-3
2.71886E-3	99.9368E-12	716.498E-3	-7.21389E-3	99.0646E-12	689.732E-3	-10.9930E-3
2.71386E-3	99.2102E-12	718.930E-3	-21.1861E-3	98.3843E-12	693.711E-3	-31.8370E-3
2.70885E-3	98.2132E-12	717.194E-3	-22.4902E-3	97.4120E-12	694.492E-3	-31.8069E-3
2.70385E-3	97.4757E-12	709.678E-3	-31.0638E-3	97.0070E-12	698.564E-3	-36.8021E-3
2.69885E-3	97.3289E-12	711.369E-3	-28.3858E-3	96.8373E-12	690.454E-3	-39.1813E-3
2.69385E-3	96.4299E-12	714.055E-3	-15.6873E-3	96.8034E-12	691.684E-3	-27.8071E-3
2.68884E-3	96.0305E-12	693.730E-3	-20.6236E-3	96.7566E-12	701.136E-3	-24.6515E-3
2.68384E-3	95.9354E-12	678.725E-3	-30.9477E-3	96.5343E-12	690.647E-3	-16.8932E-3
2.67884E-3	95.9400E-12	676.525E-3	-18.2569E-3	96.8083E-12	682.500E-3	12.1989E-3
2.67384E-3	95.8934E-12	682.585E-3	-9.84623E-3	97.1555E-12	700.898E-3	34.8299E-3
2.66883E-3	95.7923E-12	707.845E-3	-20.8865E-3	97.1408E-12	714.615E-3	13.2212E-3
2.66383E-3	95.9858E-12	728.153E-3	-25.7834E-3	97.0883E-12	713.097E-3	-23.2492E-3
2.65883E-3	96.1697E-12	723.100E-3	-40.5894E-3	97.1335E-12	712.661E-3	-25.9939E-3
2.65383E-3	96.4124E-12	713.642E-3	-52.5750E-3	96.9798E-12	707.751E-3	-22.8440E-3
2.64882E-3	96.0900E-12	710.731E-3	-26.2024E-3	97.0003E-12	711.549E-3	-31.6010E-3
2.64382E-3	95.9355E-12	714.055E-3	-2.27709E-3	96.4116E-12	732.564E-3	-32.0724E-3
2.63882E-3	95.7650E-12	717.794E-3	-15.2663E-3	95.9933E-12	742.167E-3	-20.9282E-3
2.63382E-3	95.7729E-12	718.531E-3	-40.0684E-3	95.4118E-12	726.214E-3	-2.56049E-3
2.62881E-3	95.3628E-12	715.722E-3	-39.8646E-3	94.9440E-12	703.868E-3	2.39915E-3
2.62381E-3	94.9635E-12	715.960E-3	-18.3119E-3	94.3051E-12	687.093E-3	-14.1934E-3
2.61881E-3	94.6140E-12	724.077E-3	-11.5492E-3	93.5844E-12	676.768E-3	-23.6847E-3
2.61381E-3	93.4846E-12	713.824E-3	-8.92671E-3	93.2063E-12	691.794E-3	-22.7026E-3
2.60880E-3	92.8109E-12	684.396E-3	-10.6601E-3	92.5780E-12	708.029E-3	-17.3756E-3
2.60380E-3	92.2117E-12	665.535E-3	-14.2065E-3	91.9004E-12	688.212E-3	-8.01231E-3
2.59880E-3	91.4725E-12	664.875E-3	-4.59173E-3	91.8431E-12	676.310E-3	-11.9088E-3
2.59380E-3	90.7553E-12	676.604E-3	-13.9435E-3	91.5089E-12	695.965E-3	-37.6856E-3
2.58879E-3	91.0658E-12	693.977E-3	-33.9636E-3	91.1541E-12	713.911E-3	-53.2503E-3
2.58379E-3	91.0177E-12	692.340E-3	-29.2641E-3	91.1091E-12	721.411E-3	-31.3329E-3
2.57879E-3	90.7169E-12	681.720E-3	-11.7280E-3	91.3376E-12	721.511E-3	-23.9918E-3
2.57379E-3	90.9735E-12	689.689E-3	-9.96814E-3	90.6567E-12	709.890E-3	-45.9046E-3
2.56878E-3	91.2192E-12	700.203E-3	-10.3198E-3	91.1409E-12	703.621E-3	-48.9967E-3
2.56378E-3	91.4328E-12	709.795E-3	-4.09117E-3	91.2996E-12	708.806E-3	-40.8657E-3
2.55878E-3	91.4316E-12	717.931E-3	-11.0433E-3	91.2566E-12	704.643E-3	-24.3917E-3
2.55378E-3	91.4513E-12	720.646E-3	-12.9429E-3	90.8110E-12	702.303E-3	3.67712E-3
2.54877E-3	91.1894E-12	723.414E-3	-13.5332E-3	90.9526E-12	713.562E-3	8.69802E-3
2.54377E-3	91.3269E-12	728.096E-3	-16.0609E-3	90.9068E-12	723.384E-3	-5.66228E-3
2.53877E-3	91.0632E-12	736.695E-3	-9.62415E-3	90.1412E-12	734.389E-3	-14.6172E-3
2.53377E-3	91.0027E-12	736.012E-3	-19.6627E-3	89.9006E-12	739.915E-3	-25.4018E-3
2.52876E-3	90.3316E-12	723.420E-3	-30.5132E-3	89.9307E-12	726.304E-3	-31.0178E-3
2.52376E-3	89.6969E-12	720.660E-3	-14.6795E-3	89.8387E-12	719.549E-3	-29.6128E-3
2.51876E-3	89.3680E-12	723.859E-3	605.356E-6	89.2350E-12	729.232E-3	-30.6780E-3
2.51376E-3	88.8493E-12	732.775E-3	-12.2824E-3	88.2422E-12	732.830E-3	-17.4722E-3
2.50875E-3	88.0848E-12	740.998E-3	-32.6670E-3	88.4734E-12	728.050E-3	7.57456E-3
2.50375E-3	87.4455E-12	729.177E-3	-33.5366E-3	88.1679E-12	723.008E-3	11.2189E-3
2.49875E-3	87.4791E-12	720.775E-3	-18.3258E-3	87.4905E-12	708.949E-3	-15.4976E-3
2.49375E-3	87.1833E-12	723.819E-3	1.03201E-3	87.0100E-12	703.063E-3	-30.9733E-3
2.48874E-3	86.9187E-12	721.214E-3	-3.93994E-3	87.2714E-12	727.053E-3	-24.1222E-3
2.48374E-3	87.0402E-12	713.536E-3	-33.0156E-3	86.8339E-12	746.052E-3	-22.5513E-3
2.47874E-3	87.2545E-12	715.906E-3	-43.4534E-3	86.8536E-12	733.313E-3	-18.7533E-3
2.47374E-3	87.1341E-12	725.077E-3	-42.1591E-3	86.4036E-12	718.975E-3	-13.9398E-3
2.46873E-3	87.0103E-12	736.412E-3	-40.5151E-3	86.4992E-12	719.642E-3	-27.6793E-3
2.46373E-3	87.1016E-12	745.654E-3	-30.7207E-3	86.4284E-12	736.070E-3	-30.5381E-3
2.45873E-3	86.6863E-12	736.967E-3	-22.2227E-3	86.3940E-12	761.086E-3	-10.4916E-3
2.45373E-3	86.5301E-12	720.946E-3	-16.7006E-3	86.0523E-12	760.546E-3	-7.85354E-3
2.44872E-3	86.0392E-12	703.604E-3	-21.6041E-3	86.3102E-12	741.540E-3	-23.5363E-3
2.44372E-3	85.4481E-12	694.580E-3	-19.5428E-3	86.2435E-12	748.820E-3	-25.2209E-3
2.43872E-3	84.9377E-12	697.122E-3	-16.3061E-3	86.2799E-12	774.066E-3	-23.5974E-3
2.43372E-3	84.6630E-12	701.437E-3	-36.3398E-3	86.4802E-12	766.863E-3	-16.4861E-3
2.42871E-3	84.8394E-12	715.766E-3	-41.2847E-3	85.8764E-12	736.673E-3	2.44237E-3
2.42371E-3	84.7669E-12	734.877E-3	-25.0001E-3	85.7665E-12	730.188E-3	-7.80693E-3
2.41871E-3	84.3068E-12	750.715E-3	-18.9631E-3	85.0450E-12	737.738E-3	-28.8721E-3
2.41371E-3	83.7207E-12	757.008E-3	-16.0690E-3	84.4740E-12	743.077E-3	-17.3826E-3
2.40870E-3	83.7666E-12	752.218E-3	-17.3765E-3	83.8077E-12	736.586E-3	-8.52715E-3
2.40370E-3	83.5243E-12	742.829E-3	-24.7264E-3	83.4293E-12	703.070E-3	-17.0443E-3
2.39870E-3	83.2968E-12	721.635E-3	-15.9597E-3	82.6613E-12	692.884E-3	-15.2633E-3
2.39370E-3	82.9672E-12	715.558E-3	-5.04558E-3	82.1735E-12	730.902E-3	-21.3033E-3
2.38869E-3	82.6069E-12	737.059E-3	-16.7087E-3	81.3949E-12	748.319E-3	-39.1223E-3
2.38369E-3	82.2028E-12	743.281E-3	-25.1638E-3	80.8566E-12	727.975E-3	-38.7155E-3
2.37869E-3	81.5880E-12	733.577E-3	-21.3686E-3	80.6656E-12	718.940E-3	-19.8276E-3
2.37369E-3	81.2023E-12	731.740E-3	-15.7703E-3	80.4875E-12	717.231E-3	-24.8438E-3
2.36868E-3	80.8643E-12	731.477E-3	-8.33623E-3	80.3437E-12	711.168E-3	-45.6384E-3
2.36368E-3	80.0039E-12	732.791E-3	-824.803E-6	80.4696E-12	727.379E-3	-34.3230E-3
2.35868E-3	79.5021E-12	741.374E-3	3.02054E-3	80.6268E-12	743.371E-3	-10.5321E-3
2.35368E-3	79.6616E-12	735.526E-3	267.308E-6	80.9459E-12	740.461E-3	-2.86001E-3
2.34867E-3	79.5873E-12	722.911E-3	-6.18657E-3	81.1882E-12	747.628E-3	-8.63701E-3
2.34367E-3	78.8649E-12	734.247E-3	-13.2896E-3	81.2726E-12	759.618E-3	-31.4937E-3
2.33867E-3	79.0302E-12	744.324E-3	-20.5625E-3	81.6840E-12	762.050E-3	-42.4739E-3
2.33367E-3	79.3272E-12	734.607E-3	-20.6511E-3	81.6149E-12	752.994E-3	-19.6529E-3
2.32866E-3	79.6326E-12	724.956E-3	-19.1923E-3	81.4457E-12	737.747E-3	-9.46488E-3
2.32366E-3	79.1457E-12	721.835E-3	-23.3527E-3	81.1583E-12	727.468E-3	-19.1973E-3
2.31866E-3	79.5788E-12	728.365E-3	-20.2313E-3	80.7771E-12	739.050E-3	-11.3075E-3
2.31366E-3	79.8532E-12	743.897E-3	-22.7008E-3	80.1362E-12	767.466E-3	-3.49920E-3
2.30865E-3	79.8766E-12	758.346E-3	-27.8727E-3	79.3419E-12	764.085E-3	-12.3535E-3
2.30365E-3	79.2067E-12	753.762E-3	-10.4000E-3	78.4775E-12	735.131E-3	-16.9833E-3
2.29865E-3	78.8243E-12	737.394E-3	12.6800E-3	77.5159E-12	731.048E-3	-21.9231E-3
2.29365E-3	78.8366E-12	741.143E-3	17.3149E-3	76.6076E-12	731.513E-3	-35.9742E-3
2.28864E-3	78.2898E-12	757.121E-3	1.88225E-3	76.0446E-12	724.245E-3	-34.3738E-3
2.28364E-3	77.3328E-12	773.432E-3	-22.5512E-3	75.7855E-12	731.216E-3	-16.9065E-3
2.27864E-3	76.3519E-12	784.913E-3	-23.2660E-3	75.4849E-12	735.869E-3	-1.95056E-3
2.27364E-3	75.9615E-12	770.925E-3	-3.74367E-3	75.4701E-12	741.188E-3	-4.65879E-3
2.26863E-3	75.6051E-12	748.089E-3	1.01300E-3	75.4517E-12	761.381E-3	-22.4867E-3
2.26363E-3	74.9609E-12	736.044E-3	-12.9643E-3	75.8609E-12	778.099E-3	-20.8949E-3
2.25863E-3	74.7726E-12	723.782E-3	-27.8710E-3	75.9987E-12	785.615E-3	12.7047E-3
2.25363E-3	74.9905E-12	709.541E-3	-18.2321E-3	76.5230E-12	789.758E-3	35.8733E-3
2.24862E-3	74.8325E-12	715.067E-3	4.45645E-3	76.3023E-12	789.189E-3	4.95653E-3
2.24362E-3	74.6441E-12	742.041E-3	10.9926E-3	76.4648E-12	788.448E-3	-28.5465E-3
2.23862E-3	74.9934E-12	762.598E-3	142.308E-6	76.8083E-12	801.840E-3	-18.6572E-3
2.23362E-3	75.0406E-12	764.676E-3	-12.6923E-3	77.0178E-12	804.003E-3	-3.22778E-3
2.22861E-3	75.1485E-12	742.234E-3	-20.6992E-3	76.7870E-12	783.159E-3	-6.65104E-3
2.22361E-3	75.5741E-12	723.287E-3	-24.7923E-3	76.1214E-12	770.472E-3	-21.6778E-3
2.21861E-3	75.5814E-12	743.950E-3	-20.5847E-3	75.6665E-12	768.836E-3	-34.1094E-3
2.21361E-3	75.3211E-12	774.299E-3	-4.90620E-3	75.2008E-12	774.596E-3	-28.8665E-3
2.20860E-3	75.3115E-12	777.467E-3	11.6914E-3	74.2167E-12	782.683E-3	-14.2329E-3
2.20360E-3	75.5530E-12	763.113E-3	6.48466E-3	73.2273E-12	771.636E-3	-16.9696E-3
2.19860E-3	74.9143E-12	759.497E-3	-4.88865E-3	72.4875E-12	745.888E-3	-30.5391E-3
2.19360E-3	74.1893E-12	766.815E-3	-11.1520E-3	72.2602E-12	751.303E-3	-33.9512E-3
2.18859E-3	73.6883E-12	781.848E-3	-23.1468E-3	71.6017E-12	779.474E-3	-32.4436E-3
2.18359E-3	73.0481E-12	800.067E-3	-24.6946E-3	71.0009E-12	779.431E-3	-12.7541E-3
2.17859E-3	72.1653E-12	795.055E-3	-14.1014E-3	70.3215E-12	766.181E-3	13.1027E-3
2.17359E-3	71.6799E-12	785.098E-3	-11.1351E-3	70.5145E-12	757.931E-3	2.31719E-3
2.16858E-3	71.0598E-12	783.221E-3	-11.0987E-3	70.5963E-12	759.833E-3	-19.5244E-3
2.16358E-3	70.2097E-12	768.173E-3	-7.09584E-3	70.7627E-12	779.474E-3	-19.3999E-3
2.15858E-3	70.3105E-12	757.360E-3	-15.2352E-3	70.2991E-12	787.068E-3	-11.6867E-3
2.15358E-3	70.0839E-12	766.518E-3	-35.0720E-3	70.7495E-12	760.189E-3	-15.3303E-3
2.14857E-3	70.1241E-12	768.866E-3	-40.7103E-3	71.1376E-12	741.071E-3	-24.6598E-3
2.14357E-3	69.7576E-12	757.399E-3	-21.8936E-3	71.1179E-12	760.449E-3	-26.1849E-3
2.13857E-3	70.3068E-12	766.357E-3	-1.94063E-3	70.8163E-12	783.209E-3	-32.1908E-3
2.13357E-3	70.4099E-12	785.964E-3	8.33937E-3	70.4597E-12	787.522E-3	-38.1106E-3
2.12856E-3	70.2579E-12	780.795E-3	-1.25261E-3	70.4605E-12	784.359E-3	-34.6649E-3
2.12356E-3	69.7686E-12	766.452E-3	-10.4823E-3	70.1392E-12	770.567E-3	-35.1831E-3
2.11856E-3	69.5845E-12	760.688E-3	1.37598E-3	69.7974E-12	764.645E-3	-35.6053E-3
2.11356E-3	69.8841E-12	768.649E-3	2.46950E-3	68.8145E-12	785.200E-3	-30.6519E-3
2.10855E-3	69.3312E-12	802.419E-3	-11.6964E-3	68.5830E-12	800.430E-3	-25.3300E-3
2.10355E-3	68.9225E-12	822.818E-3	-21.1757E-3	68.2291E-12	800.458E-3	-17.4589E-3
2.09855E-3	68.0868E-12	808.655E-3	-23.7599E-3	67.6082E-12	799.861E-3	-17.5370E-3
2.09355E-3	68.0101E-12	801.630E-3	-23.6223E-3	67.0185E-12	801.763E-3	-31.8315E-3
2.08854E-3	67.1587E-12	805.906E-3	-18.3119E-3	66.4379E-12	809.900E-3	-30.5448E-3
2.08354E-3	66.9266E-12	783.243E-3	-26.1087E-3	66.0259E-12	826.831E-3	-8.55703E-3
2.07854E-3	66.2693E-12	755.203E-3	-33.5456E-3	65.8221E-12	820.731E-3	-11.4376E-3
2.07354E-3	65.8257E-12	763.661E-3	-23.6634E-3	65.5605E-12	794.771E-3	-31.6538E-3
2.06853E-3	65.8758E-12	782.580E-3	-18.9897E-3	64.8887E-12	793.790E-3	-36.1278E-3
2.06353E-3	65.7479E-12	797.078E-3	-25.5028E-3	64.6680E-12	801.903E-3	-40.9624E-3
2.05853E-3	65.6929E-12	811.565E-3	-27.7918E-3	65.0380E-12	802.326E-3	-28.0828E-3
2.05353E-3	65.0465E-12	806.548E-3	-20.5039E-3	64.8284E-12	809.422E-3	-5.79096E-3
2.04852E-3	64.9176E-12	792.944E-3	-25.5937E-3	64.4220E-12	825.705E-3	-17.0450E-3
2.04352E-3	64.7421E-12	799.901E-3	-27.4036E-3	64.2291E-12	837.898E-3	-24.9994E-3
2.03852E-3	64.9367E-12	811.197E-3	-4.35060E-3	64.7184E-12	837.741E-3	-7.86586E-3
2.03352E-3	64.2237E-12	813.228E-3	-1.23049E-3	64.5994E-12	833.983E-3	-1.55252E-3
2.02851E-3	64.0877E-12	812.583E-3	-28.8621E-3	64.4884E-12	823.660E-3	-5.59001E-3
2.02351E-3	63.6440E-12	803.565E-3	-32.1427E-3	64.0507E-12	814.058E-3	-6.43584E-3
2.01851E-3	63.7832E-12	799.641E-3	-14.7684E-3	64.0770E-12	827.118E-3	-10.6181E-3
2.01351E-3	63.1823E-12	817.155E-3	-15.0763E-3	64.3185E-12	844.843E-3	-20.0421E-3
2.00850E-3	62.7525E-12	828.819E-3	-25.5136E-3	64.2606E-12	850.691E-3	-17.3487E-3
2.00350E-3	62.7346E-12	819.375E-3	-29.7347E-3	63.5749E-12	838.060E-3	-2.15123E-3
1.99850E-3	62.3660E-12	804.212E-3	-24.2603E-3	63.2251E-12	808.805E-3	-7.51681E-3
1.99350E-3	61.9646E-12	796.171E-3	-7.42296E-3	63.0148E-12	799.937E-3	-18.0490E-3
1.98849E-3	61.7364E-12	806.183E-3	-1.03221E-3	62.5898E-12	818.073E-3	-13.2521E-3
1.98349E-3	61.3980E-12	817.029E-3	-17.0435E-3	61.8728E-12	824.701E-3	-12.5623E-3
1.97849E-3	61.1233E-12	818.186E-3	-26.8215E-3	61.0613E-12	813.136E-3	-12.7812E-3
1.97349E-3	61.2012E-12	817.798E-3	-23.0569E-3	60.5612E-12	815.953E-3	-15.6737E-3
1.96848E-3	61.0869E-12	813.777E-3	-13.8362E-3	59.8366E-12	820.709E-3	-23.2972E-3
1.96348E-3	60.6194E-12	819.974E-3	-9.12791E-3	59.5475E-12	809.669E-3	-13.0194E-3
1.95848E-3	60.4414E-12	832.474E-3	-13.5796E-3	59.2704E-12	819.431E-3	1.49871E-3
1.95348E-3	60.3298E-12	828.060E-3	-35.7629E-3	58.6863E-12	837.840E-3	-12.4122E-3
1.94847E-3	60.2245E-12	814.086E-3	-56.9733E-3	58.7469E-12	836.950E-3	-16.3919E-3
1.94347E-3	59.6770E-12	814.458E-3	-45.4365E-3	58.7735E-12	856.285E-3	2.59460E-3
1.93847E-3	59.3509E-12	833.890E-3	-28.4831E-3	59.0211E-12	879.061E-3	-10.6503E-3
1.93347E-3	59.2457E-12	845.299E-3	-22.2015E-3	59.0297E-12	867.827E-3	-27.4264E-3
1.92846E-3	58.9816E-12	831.377E-3	-20.8670E-3	59.3235E-12	863.032E-3	-13.6962E-3
1.92346E-3	58.3362E-12	834.269E-3	-29.4034E-3	59.3194E-12	867.525E-3	-18.0810E-3
1.91846E-3	57.9505E-12	860.343E-3	-33.6075E-3	59.4138E-12	858.428E-3	-39.1875E-3
1.91346E-3	57.5449E-12	847.486E-3	-26.8547E-3	59.2379E-12	869.666E-3	-31.0548E-3
1.90845E-3	57.3875E-12	819.884E-3	-14.5767E-3	58.7452E-12	897.864E-3	-8.13744E-3
1.90345E-3	56.8554E-12	823.442E-3	-2.23385E-3	58.6547E-12	895.624E-3	-989.093E-6
1.89845E-3	56.6591E-12	838.997E-3	-1.06205E-3	58.2381E-12	870.877E-3	7.87710E-3
1.89345E-3	56.6590E-12	856.572E-3	-749.076E-6	57.5319E-12	859.163E-3	5.01989E-3
1.88844E-3	56.4389E-12	868.955E-3	1.86482E-3	56.7572E-12	863.001E-3	-9.59692E-3
1.88344E-3	56.3615E-12	867.938E-3	-7.12823E-3	56.1470E-12	864.637E-3	-749.572E-6
1.87844E-3	56.2883E-12	859.686E-3	-35.2766E-3	55.5165E-12	862.029E-3	-5.87919E-3
1.87344E-3	56.0180E-12	856.933E-3	-56.7169E-3	54.8972E-12	852.167E-3	-30.5460E-3
1.86843E-3	55.8810E-12	868.204E-3	-34.3234E-3	54.3260E-12	840.261E-3	-24.0367E-3
1.86343E-3	55.6723E-12	879.817E-3	-9.01568E-3	53.7960E-12	857.282E-3	-4.41973E-3
1.85843E-3	55.2710E-12	884.979E-3	-14.9767E-3	53.2853E-12	879.192E-3	1.70250E-3
1.85343E-3	54.5761E-12	885.470E-3	-14.8057E-3	52.8721E-12	880.172E-3	4.96287E-3
1.84842E-3	54.2813E-12	878.309E-3	-5.17169E-3	52.8450E-12	888.276E-3	-9.96781E-3
1.84342E-3	53.6928E-12	876.059E-3	-11.1505E-3	52.6001E-12	888.322E-3	-39.2034E-3
1.83842E-3	53.2318E-12	879.887E-3	-28.5602E-3	52.8921E-12	884.643E-3	-35.1352E-3
1.83342E-3	52.7830E-12	888.940E-3	-41.7568E-3	53.1151E-12	908.709E-3	-804.888E-6
1.82841E-3	52.4455E-12	889.876E-3	-37.3661E-3	53.1393E-12	924.998E-3	8.76351E-3
1.82341E-3	52.1103E-12	876.028E-3	-21.2444E-3	53.3284E-12	920.594E-3	-5.47390E-3
1.81841E-3	51.8088E-12	874.330E-3	-16.1777E-3	53.0440E-12	934.816E-3	-12.5519E-3
1.81341E-3	51.3810E-12	889.440E-3	-26.7109E-3	52.8001E-12	949.378E-3	-12.7285E-3
1.80840E-3	51.2478E-12	897.333E-3	-29.7914E-3	52.3366E-12	934.035E-3	-8.58413E-3
1.80340E-3	51.3712E-12	886.195E-3	-28.9532E-3	52.0957E-12	922.037E-3	-14.5641E-3
1.79840E-3	51.1222E-12	886.751E-3	-31.0433E-3	51.5367E-12	930.467E-3	-31.3210E-3
1.79340E-3	51.0263E-12	912.182E-3	-13.6339E-3	51.1273E-12	930.464E-3	-29.5765E-3
1.78839E-3	51.1023E-12	923.712E-3	6.12598E-3	50.4504E-12	920.944E-3	-7.31451E-3
1.78339E-3	50.8600E-12	921.726E-3	1.03565E-3	49.9045E-12	922.340E-3	4.90269E-3
1.77839E-3	50.2764E-12	933.285E-3	-11.9723E-3	49.3256E-12	917.325E-3	4.71392E-3
1.77339E-3	50.1316E-12	940.014E-3	-14.9061E-3	48.9306E-12	907.501E-3	-5.10851E-3
1.76838E-3	49.7252E-12	942.026E-3	-14.2846E-3	48.1406E-12	919.267E-3	-31.7257E-3
1.76338E-3	49.3109E-12	957.810E-3	-8.10273E-3	47.7395E-12	937.094E-3	-34.9382E-3
1.75838E-3	48.6111E-12	965.676E-3	-1.89049E-3	47.4808E-12	948.419E-3	-5.90350E-3
1.75338E-3	48.1192E-12	952.399E-3	-15.1595E-3	47.0612E-12	953.256E-3	-2.52155E-3
1.74837E-3	47.7614E-12	935.399E-3	-18.6458E-3	47.0385E-12	942.395E-3	-36.5523E-3
1.74337E-3	47.1250E-12	922.357E-3	-1.22722E-3	46.9091E-12	952.873E-3	-52.3162E-3
1.73837E-3	46.7216E-12	930.486E-3	-2.38790E-3	46.8166E-12	987.140E-3	-45.6277E-3
1.73337E-3	46.5009E-12	956.713E-3	-11.2491E-3	46.9662E-12	981.267E-3	-40.8680E-3
1.72836E-3	46.4211E-12	966.163E-3	-1.78472E-3	46.9878E-12	955.320E-3	-13.8924E-3
1.72336E-3	46.2287E-12	959.461E-3	7.44891E-3	46.7227E-12	966.491E-3	8.57161E-3
1.71836E-3	46.0395E-12	955.650E-3	8.46264E-3	46.4757E-12	996.834E-3	-6.91917E-3
1.71336E-3	45.9308E-12	957.143E-3	139.884E-6	46.3947E-12	1.01845E+0	-9.68032E-3
1.70835E-3	45.8962E-12	967.174E-3	-24.5805E-3	46.3899E-12	1.03202E+0	6.62572E-3
1.70335E-3	45.4140E-12	984.269E-3	-35.7023E-3	46.0174E-12	1.02254E+0	11.6479E-3
1.69835E-3	45.3251E-12	981.799E-3	-20.2721E-3	45.5006E-12	997.446E-3	10.9163E-3
1.69335E-3	45.3356E-12	973.880E-3	-14.0262E-3	45.0521E-12	995.112E-3	-4.02436E-3
1.68834E-3	44.7539E-12	994.776E-3	-17.9950E-3	44.8151E-12	1.00651E+0	-23.6957E-3
1.68334E-3	44.1357E-12	1.00987E+0	-22.0945E-3	44.1328E-12	1.00999E+0	-12.7628E-3
1.67834E-3	43.9011E-12	1.00248E+0	-35.6249E-3	43.5539E-12	1.01294E+0	-3.42352E-3
1.67334E-3	43.4301E-12	1.01194E+0	-33.8489E-3	42.8358E-12	1.01750E+0	-25.4282E-3
1.66833E-3	43.0367E-12	1.02206E+0	-10.3574E-3	42.5750E-12	1.02588E+0	-37.2038E-3
1.66333E-3	42.3395E-12	1.00985E+0	679.966E-6	42.0502E-12	1.04005E+0	-25.6602E-3
1.65833E-3	41.9405E-12	1.00063E+0	-6.78558E-3	41.6134E-12	1.03613E+0	-19.2316E-3
1.65333E-3	41.5492E-12	1.00105E+0	-12.9187E-3	40.8952E-12	1.00650E+0	-11.2264E-3
1.64832E-3	41.1160E-12	1.00807E+0	-11.3244E-3	40.7841E-12	997.679E-3	-4.27366E-3
1.64332E-3	40.7245E-12	1.01575E+0	-17.2502E-3	40.6215E-12	1.03332E+0	-24.2912E-3
1.63832E-3	40.3530E-12	1.01947E+0	-27.2782E-3	40.5103E-12	1.06139E+0	-32.2089E-3
1.63332E-3	40.1977E-12	1.02613E+0	-29.6713E-3	40.0206E-12	1.06111E+0	2.34104E-3
1.62831E-3	40.0757E-12	1.03113E+0	-26.5205E-3	40.1284E-12	1.05442E+0	15.4658E-3
1.62331E-3	39.9887E-12	1.03157E+0	-6.47416E-3	39.8590E-12	1.04949E+0	-19.3792E-3
1.61831E-3	39.5075E-12	1.03370E+0	10.7977E-3	39.4821E-12	1.06367E+0	-35.9719E-3
1.61331E-3	39.0562E-12	1.04442E+0	-4.62058E-3	39.1346E-12	1.09366E+0	-27.6147E-3
1.60830E-3	38.9143E-12	1.06020E+0	-19.2140E-3	39.1645E-12	1.11313E+0	-20.3967E-3
1.60330E-3	38.8853E-12	1.07011E+0	-22.3818E-3	38.8868E-12	1.11821E+0	-3.91454E-3
1.59830E-3	38.4197E-12	1.08619E+0	-34.1070E-3	38.6340E-12	1.11455E+0	11.4572E-6
1.59330E-3	37.8491E-12	1.09085E+0	-28.9179E-3	38.0415E-12	1.11195E+0	-22.5620E-3
1.58829E-3	37.5406E-12	1.07216E+0	-16.9167E-3	37.7364E-12	1.11161E+0	-31.9020E-3
1.58329E-3	36.9258E-12	1.06707E+0	-26.6289E-3	37.3990E-12	1.11237E+0	-7.60188E-3
1.57829E-3	36.3743E-12	1.07800E+0	-28.2105E-3	36.6849E-12	1.10306E+0	6.60952E-3
1.57329E-3	35.8468E-12	1.08709E+0	-21.7781E-3	36.1794E-12	1.08228E+0	-3.65909E-3
1.56828E-3	35.2146E-12	1.08563E+0	-27.9316E-3	35.6528E-12	1.09332E+0	-21.7083E-3
1.56328E-3	34.7580E-12	1.08163E+0	-26.0069E-3	35.1384E-12	1.12029E+0	-44.2854E-3
1.55828E-3	34.4644E-12	1.08693E+0	-14.5999E-3	34.3542E-12	1.12193E+0	-38.9315E-3
1.55328E-3	34.1094E-12	1.09122E+0	-11.5074E-3	33.9849E-12	1.12054E+0	-6.67666E-3
1.54827E-3	33.6668E-12	1.09360E+0	-9.61038E-3	33.5229E-12	1.11340E+0	619.550E-6
1.54327E-3	33.4431E-12	1.10136E+0	715.533E-6	33.1025E-12	1.09971E+0	-14.9443E-3
1.53827E-3	33.0621E-12	1.10927E+0	-3.11324E-3	32.5868E-12	1.12538E+0	-28.7799E-3
1.53327E-3	33.0644E-12	1.11611E+0	-19.9816E-3	32.1308E-12	1.15763E+0	-30.0146E-3
1.52826E-3	32.7051E-12	1.12087E+0	-17.3111E-3	31.9475E-12	1.14443E+0	-10.9257E-3
1.52326E-3	32.2037E-12	1.11735E+0	-7.59033E-3	31.7103E-12	1.14084E+0	64.5486E-6
1.51826E-3	31.9719E-12	1.12507E+0	-11.1841E-3	31.4350E-12	1.16948E+0	-18.3072E-3
1.51326E-3	31.6921E-12	1.13929E+0	-8.47227E-3	31.1430E-12	1.18438E+0	-22.8240E-3
1.50825E-3	31.3396E-12	1.13825E+0	2.02454E-3	31.2258E-12	1.18371E+0	5.45904E-3
1.50325E-3	30.8366E-12	1.14343E+0	-8.14500E-3	31.0244E-12	1.19332E+0	12.3517E-3
1.49825E-3	30.5380E-12	1.15376E+0	-22.0453E-3	30.6815E-12	1.19724E+0	-6.85812E-3
1.49325E-3	30.0814E-12	1.14757E+0	-10.1112E-3	30.3699E-12	1.19701E+0	-17.5040E-3
1.48824E-3	29.6110E-12	1.14501E+0	270.020E-6	30.2408E-12	1.21342E+0	-19.4787E-3
1.48324E-3	29.1327E-12	1.16053E+0	-13.2264E-3	29.8870E-12	1.19648E+0	-11.8236E-3
1.47824E-3	28.7174E-12	1.16943E+0	-26.9881E-3	29.2798E-12	1.15866E+0	1.89396E-3
1.47324E-3	28.1823E-12	1.17424E+0	-28.7599E-3	28.7554E-12	1.16220E+0	246.250E-6
1.46823E-3	27.6710E-12	1.18199E+0	-22.2140E-3	28.2639E-12	1.17027E+0	-12.6080E-3
1.46323E-3	27.2737E-12	1.17242E+0	-8.37726E-3	27.7314E-12	1.16061E+0	-9.31224E-3
1.45823E-3	26.9798E-12	1.15864E+0	-10.9366E-3	26.9934E-12	1.15077E+0	530.107E-6
1.45323E-3	26.5034E-12	1.16754E+0	-23.6070E-3	26.4032E-12	1.13473E+0	-3.34047E-3
1.44822E-3	26.0767E-12	1.17444E+0	-26.6163E-3	25.8198E-12	1.12950E+0	-10.8935E-3
1.44322E-3	25.8247E-12	1.15850E+0	-27.5717E-3	25.4171E-12	1.15006E+0	-23.4886E-3
1.43822E-3	25.6540E-12	1.15548E+0	-26.2402E-3	24.9137E-12	1.16541E+0	-33.8698E-3
1.43322E-3	25.4544E-12	1.17837E+0	-22.0927E-3	24.5326E-12	1.15685E+0	-18.6591E-3
1.42821E-3	24.9115E-12	1.19856E+0	-23.5577E-3	24.2028E-12	1.15175E+0	3.96388E-3
1.42321E-3	24.6023E-12	1.19698E+0	-28.4863E-3	24.0118E-12	1.15615E+0	-1.30730E-3
1.41821E-3	24.3503E-12	1.18040E+0	-26.7869E-3	23.6027E-12	1.16140E+0	-14.6909E-3
1.41321E-3	23.8816E-12	1.16806E+0	-27.5275E-3	23.4130E-12	1.18395E+0	-14.3376E-3
1.40820E-3	23.3128E-12	1.17607E+0	-34.6610E-3	23.3959E-12	1.21087E+0	-12.5771E-3
1.40320E-3	22.9658E-12	1.18502E+0	-26.1293E-3	23.0862E-12	1.20749E+0	1.59971E-3
1.39820E-3	22.7944E-12	1.17247E+0	-9.92624E-3	22.9079E-12	1.19785E+0	10.2576E-3
1.39320E-3	22.3116E-12	1.17111E+0	-10.1032E-3	22.7500E-12	1.20706E+0	-17.2133E-3
1.38819E-3	21.9049E-12	1.17955E+0	-12.4627E-3	22.4564E-12	1.20414E+0	-32.9524E-3
1.38319E-3	21.5180E-12	1.17512E+0	-16.3564E-3	22.0822E-12	1.18387E+0	-8.63859E-3
1.37819E-3	21.2585E-12	1.17466E+0	-25.3570E-3	21.6867E-12	1.16229E+0	8.49946E-3
1.37319E-3	21.0796E-12	1.16908E+0	-21.1147E-3	21.2634E-12	1.13782E+0	-35.8536E-6
1.36818E-3	20.6425E-12	1.14880E+0	-13.1608E-3	20.7834E-12	1.12549E+0	-13.7367E-3
1.36318E-3	20.1566E-12	1.15033E+0	-14.1027E-3	20.0722E-12	1.12563E+0	-23.8984E-3
1.35818E-3	19.8655E-12	1.17438E+0	-15.5583E-3	19.5261E-12	1.11205E+0	-21.5715E-3
1.35318E-3	19.4998E-12	1.17493E+0	-23.1455E-3	19.1647E-12	1.08321E+0	-16.2106E-3
1.34817E-3	18.9790E-12	1.15537E+0	-28.9865E-3	18.4047E-12	1.06297E+0	-32.5363E-3
1.34317E-3	18.6178E-12	1.14068E+0	-17.0227E-3	17.9138E-12	1.05174E+0	-46.4242E-3
1.33817E-3	18.2421E-12	1.13112E+0	-5.40874E-3	17.5389E-12	1.04304E+0	-27.7306E-3
1.33317E-3	17.9111E-12	1.12646E+0	-6.99403E-3	17.2700E-12	1.05004E+0	-2.88687E-3
1.32816E-3	17.3314E-12	1.11784E+0	-8.27927E-3	16.8546E-12	1.04831E+0	-1.41637E-3
1.32316E-3	17.0546E-12	1.09577E+0	-2.70920E-3	16.4975E-12	1.02940E+0	-12.2928E-3
1.31816E-3	16.6030E-12	1.07425E+0	-10.3845E-3	16.2752E-12	1.03480E+0	-27.3257E-3
1.31316E-3	16.1387E-12	1.07099E+0	-28.2450E-3	16.0630E-12	1.05661E+0	-36.9719E-3
1.30815E-3	15.7401E-12	1.05719E+0	-29.3728E-3	15.7917E-12	1.05234E+0	-30.6975E-3
1.30315E-3	15.4518E-12	1.02028E+0	-23.1209E-3	15.5550E-12	1.03034E+0	-23.4952E-3
1.29815E-3	15.1564E-12	1.01167E+0	-21.7215E-3	15.3597E-12	1.00975E+0	-21.9558E-3
1.29315E-3	14.7088E-12	1.02331E+0	-5.64501E-3	15.0897E-12	995.495E-3	-18.5214E-3
1.28814E-3	14.3727E-12	1.02168E+0	10.1422E-3	14.7467E-12	996.521E-3	-11.1076E-3
1.28314E-3	14.2206E-12	1.02357E+0	4.40133E-3	14.4416E-12	999.020E-3	-17.0930E-3
1.27814E-3	14.0704E-12	1.01753E+0	309.797E-6	14.1234E-12	977.878E-3	-25.5412E-3
1.27314E-3	13.6414E-12	995.926E-3	-954.363E-6	13.7284E-12	946.593E-3	-29.8937E-3
1.26813E-3	13.3213E-12	991.522E-3	-9.35963E-3	13.2821E-12	929.947E-3	-44.0192E-3
1.26313E-3	13.1370E-12	994.616E-3	-10.7309E-3	12.8812E-12	913.977E-3	-36.7402E-3
1.25813E-3	12.8060E-12	980.465E-3	-9.11360E-3	12.6076E-12	897.626E-3	-9.78431E-3
1.25313E-3	12.4124E-12	969.635E-3	-18.2472E-3	12.1359E-12	879.050E-3	-10.7063E-3
1.24812E-3	11.9608E-12	961.427E-3	-10.3910E-3	11.7591E-12	842.684E-3	-24.6082E-3
1.24312E-3	11.6371E-12	934.186E-3	7.78717E-3	11.3540E-12	825.728E-3	-25.9729E-3
1.23812E-3	11.4474E-12	906.989E-3	-9.38007E-3	11.1538E-12	837.404E-3	-34.0788E-3
1.23312E-3	11.1269E-12	893.555E-3	-30.7519E-3	10.8976E-12	821.417E-3	-32.5386E-3
1.22811E-3	10.6227E-12	876.186E-3	-21.8791E-3	10.5286E-12	784.562E-3	-5.52337E-3
1.22311E-3	10.3515E-12	855.903E-3	-14.4599E-3	10.2467E-12	764.274E-3	13.1825E-3
1.21811E-3	10.1145E-12	842.022E-3	-17.8273E-3	10.0492E-12	752.819E-3	10.7261E-3
1.21311E-3	9.79032E-12	822.043E-3	-13.0512E-3	9.81516E-12	751.858E-3	6.68818E-3
1.20810E-3	9.40232E-12	799.683E-3	-12.6285E-3	9.51194E-12	754.751E-3	778.713E-6
1.20310E-3	9.23823E-12	778.166E-3	-19.1094E-3	9.28601E-12	729.754E-3	-9.92217E-3
1.19810E-3	8.95964E-12	750.474E-3	-15.1794E-3	9.03624E-12	696.201E-3	-15.0528E-3
1.19310E-3	8.73535E-12	742.393E-3	-9.48385E-3	8.87402E-12	692.155E-3	-27.8450E-3
1.18809E-3	8.61412E-12	746.977E-3	-6.83681E-3	8.63468E-12	695.972E-3	-41.0324E-3
1.18309E-3	8.43166E-12	729.712E-3	-10.7153E-3	8.43667E-12	683.611E-3	-21.9143E-3
1.17809E-3	8.23067E-12	713.742E-3	-27.4323E-3	8.19532E-12	662.245E-3	2.41875E-3
1.17309E-3	8.05059E-12	711.304E-3	-31.0183E-3	7.94026E-12	638.959E-3	-5.31487E-3
1.16808E-3	7.92839E-12	700.124E-3	-18.8290E-3	7.77719E-12	619.795E-3	-20.9440E-3
1.16308E-3	7.71083E-12	682.143E-3	-20.5334E-3	7.58535E-12	606.983E-3	-27.3260E-3
1.15808E-3	7.47293E-12	670.910E-3	-28.4747E-3	7.36704E-12	588.191E-3	-30.0528E-3
1.15308E-3	7.16320E-12	665.123E-3	-25.6079E-3	7.08433E-12	567.382E-3	-15.6493E-3
1.14807E-3	6.99914E-12	653.916E-3	-18.5425E-3	6.93412E-12	555.246E-3	-8.32312E-3
1.14307E-3	6.88380E-12	635.641E-3	-18.8843E-3	6.70637E-12	543.754E-3	-30.2288E-3
1.13807E-3	6.55650E-12	613.463E-3	-15.4253E-3	6.50836E-12	532.893E-3	-38.4709E-3
1.13307E-3	6.28180E-12	587.613E-3	-18.3072E-3	6.24330E-12	525.458E-3	-19.3155E-3
1.12806E-3	6.09741E-12	565.555E-3	-37.4857E-3	6.06465E-12	510.687E-3	-11.4324E-3
1.12306E-3	5.98000E-12	553.516E-3	-35.7924E-3	5.92121E-12	483.183E-3	-16.1328E-3
1.11806E-3	5.70121E-12	534.858E-3	-20.1550E-3	5.75080E-12	468.755E-3	-12.5710E-3
1.11306E-3	5.51248E-12	512.898E-3	-20.2166E-3	5.48976E-12	465.881E-3	-13.0360E-3
1.10805E-3	5.44170E-12	507.864E-3	-25.8940E-3	5.30519E-12	442.927E-3	-14.4710E-3
1.10305E-3	5.39520E-12	494.138E-3	-26.7159E-3	5.20045E-12	412.770E-3	215.427E-6
1.09805E-3	5.16439E-12	467.675E-3	-23.6921E-3	5.09091E-12	402.489E-3	7.24562E-3
1.09305E-3	5.03022E-12	453.413E-3	-12.5646E-3	4.92025E-12	392.508E-3	-15.5026E-3
1.08804E-3	4.94839E-12	447.542E-3	294.556E-6	4.77358E-12	379.497E-3	-25.0925E-3
1.08304E-3	4.84592E-12	446.253E-3	-4.66988E-3	4.64665E-12	379.997E-3	-9.73618E-3
1.07804E-3	4.72448E-12	440.519E-3	-17.2993E-3	4.52483E-12	376.003E-3	-5.29220E-3
1.07304E-3	4.57709E-12	417.360E-3	-24.4278E-3	4.44374E-12	358.499E-3	-2.83782E-3
1.06803E-3	4.37487E-12	387.510E-3	-30.1039E-3	4.28026E-12	346.546E-3	-4.35114E-3
1.06303E-3	4.28671E-12	366.339E-3	-18.8911E-3	4.17894E-12	345.213E-3	-13.5283E-3
1.05803E-3	4.19167E-12	354.071E-3	-3.73501E-3	4.10816E-12	341.275E-3	-9.78986E-3
1.05303E-3	3.95655E-12	361.395E-3	-13.8422E-3	3.99198E-12	327.209E-3	-7.85881E-3
1.04802E-3	3.84424E-12	376.863E-3	-22.0788E-3	3.91616E-12	294.905E-3	-21.4474E-3
1.04302E-3	3.89025E-12	357.339E-3	-9.64301E-3	3.89707E-12	262.444E-3	-25.0971E-3
1.03802E-3	3.59908E-12	318.235E-3	-7.78394E-3	3.63372E-12	252.007E-3	-14.1348E-3
1.03302E-3	3.42646E-12	302.997E-3	-15.3674E-3	3.45085E-12	243.561E-3	-14.5520E-3
1.02801E-3	3.37526E-12	294.907E-3	-11.0226E-3	3.27061E-12	223.771E-3	-20.8312E-3
1.02301E-3	3.10095E-12	274.173E-3	-10.6662E-3	3.02719E-12	213.487E-3	-20.7865E-3
1.01801E-3	2.92726E-12	260.833E-3	-20.8707E-3	2.88325E-12	217.585E-3	-27.2768E-3
1.01301E-3	2.92564E-12	251.509E-3	-17.2342E-3	2.76772E-12	210.736E-3	-28.5362E-3
1.00800E-3	2.88494E-12	233.229E-3	-9.53631E-3	2.78721E-12	199.184E-3	-14.5716E-3
1.00300E-3	2.83202E-12	227.213E-3	-22.1974E-3	2.70188E-12	190.389E-3	-8.74695E-3
997.999E-6	2.68956E-12	224.763E-3	-26.2256E-3	2.59892E-12	173.917E-3	-9.86760E-3
992.997E-6	2.60721E-12	209.049E-3	-14.3147E-3	2.53929E-12	166.262E-3	-12.4611E-3
987.994E-6	2.60555E-12	202.995E-3	-18.1514E-3	2.50961E-12	177.192E-3	-18.0043E-3
982.991E-6	2.53146E-12	204.753E-3	-25.5189E-3	2.48110E-12	178.422E-3	-8.45510E-3
977.989E-6	2.38343E-12	189.693E-3	-18.2353E-3	2.42453E-12	166.254E-3	8.76377E-3
972.986E-6	2.32449E-12	175.837E-3	-10.3676E-3	2.31844E-12	154.904E-3	4.07037E-3
967.984E-6	2.35433E-12	171.538E-3	-6.68132E-3	2.31742E-12	137.054E-3	-16.2679E-3
962.981E-6	2.24685E-12	153.948E-3	-9.18756E-3	2.29706E-12	126.043E-3	-27.1033E-3
957.979E-6	2.18979E-12	141.587E-3	-25.7572E-3	2.28303E-12	131.676E-3	-28.8946E-3
952.976E-6	2.15048E-12	143.880E-3	-29.0757E-3	2.18457E-12	128.830E-3	-25.7406E-3
947.974E-6	2.11486E-12	137.513E-3	-12.8873E-3	2.08149E-12	109.754E-3	-17.9611E-3
942.971E-6	2.06131E-12	128.793E-3	-9.67306E-3	2.11601E-12	102.951E-3	-22.8959E-3
937.969E-6	2.00103E-12	132.559E-3	-12.1706E-3	2.03863E-12	111.055E-3	-32.5298E-3
932.966E-6	1.95239E-12	129.866E-3	-4.42595E-3	1.94503E-12	112.115E-3	-26.1106E-3
927.964E-6	1.94025E-12	112.909E-3	-8.64334E-3	1.86264E-12	105.192E-3	-16.4527E-3
922.961E-6	1.87928E-12	102.818E-3	-23.7673E-3	1.80628E-12	90.2374E-3	-17.7098E-3
917.959E-6	1.84381E-12	99.8772E-3	-27.8830E-3	1.84888E-12	83.8860E-3	-18.7754E-3
912.956E-6	1.89064E-12	93.2136E-3	-23.0928E-3	1.81544E-12	95.6634E-3	-16.1106E-3
907.954E-6	1.78407E-12	94.0441E-3	-18.6213E-3	1.73229E-12	88.1401E-3	-14.1300E-3
902.951E-6	1.72592E-12	92.0097E-3	-20.0569E-3	1.68877E-12	61.3778E-3	-9.37667E-3
897.949E-6	1.69926E-12	85.6081E-3	-24.0755E-3	1.68789E-12	54.1878E-3	-12.3353E-3
892.946E-6	1.70229E-12	96.1076E-3	-19.7037E-3	1.68033E-12	69.7391E-3	-25.8630E-3
887.944E-6	1.63869E-12	104.267E-3	-4.71953E-3	1.70809E-12	85.5037E-3	-25.9578E-3
882.941E-6	1.61708E-12	96.6350E-3	-2.60241E-3	1.59811E-12	97.9465E-3	-14.4365E-3
877.939E-6	1.53098E-12	95.0017E-3	-22.9487E-3	1.64272E-12	98.3887E-3	-8.59789E-3
872.936E-6	1.63682E-12	97.9331E-3	-29.5192E-3	1.61968E-12	84.1365E-3	-3.62680E-3
867.934E-6	1.55545E-12	80.9646E-3	-8.61902E-3	1.62923E-12	81.9331E-3	-3.23202E-3
862.931E-6	1.49006E-12	65.9130E-3	4.25696E-3	1.62115E-12	81.9865E-3	-24.4538E-3
857.929E-6	1.48893E-12	70.4118E-3	4.67122E-3	1.47558E-12	67.9799E-3	-30.3259E-3
852.926E-6	1.49642E-12	67.3714E-3	2.41543E-3	1.52707E-12	63.2831E-3	-4.67247E-3
847.924E-6	1.51628E-12	60.1839E-3	-8.86119E-3	1.54694E-12	63.8953E-3	-8.42059E-3
842.921E-6	1.42288E-12	59.1003E-3	-12.0888E-3	1.43329E-12	48.1561E-3	-35.8063E-3
837.919E-6	1.37999E-12	48.3299E-3	-3.17379E-3	1.44791E-12	47.6042E-3	-36.7856E-3
832.916E-6	1.42221E-12	44.1181E-3	-7.18138E-3	1.36775E-12	57.8192E-3	-18.1914E-3
827.914E-6	1.40906E-12	54.8160E-3	-15.1534E-3	1.37772E-12	33.8264E-3	955.209E-6
822.911E-6	1.40341E-12	53.5478E-3	-16.1403E-3	1.40968E-12	10.0608E-3	6.84243E-3
817.909E-6	1.35498E-12	43.2194E-3	-23.3758E-3	1.33056E-12	19.6410E-3	-12.3321E-3
812.906E-6	1.31087E-12	46.7615E-3	-27.9058E-3	1.28735E-12	33.4105E-3	-28.3685E-3
807.904E-6	1.33634E-12	56.0824E-3	-20.6735E-3	1.29039E-12	35.0651E-3	-15.0045E-3
802.901E-6	1.32568E-12	57.8675E-3	-14.2334E-3	1.33659E-12	35.3961E-3	-2.90979E-3
797.899E-6	1.26623E-12	58.8712E-3	-20.1664E-3	1.29496E-12	33.1412E-3	-18.7089E-3
792.896E-6	1.26647E-12	52.2778E-3	-32.2980E-3	1.24002E-12	36.5016E-3	-34.6379E-3
787.894E-6	1.19052E-12	46.4920E-3	-41.1000E-3	1.22828E-12	49.9917E-3	-34.9848E-3
782.891E-6	1.22955E-12	56.8334E-3	-35.8437E-3	1.24803E-12	42.0073E-3	-23.5642E-3
777.889E-6	1.28959E-12	57.1483E-3	-10.9479E-3	1.23650E-12	19.9780E-3	-1.35259E-3
772.886E-6	1.20570E-12	45.8603E-3	-4.10837E-3	1.22698E-12	24.0565E-3	10.6157E-3
767.884E-6	1.17350E-12	46.5661E-3	-20.9262E-3	1.21452E-12	30.0919E-3	-3.25758E-3
762.881E-6	1.18341E-12	41.0067E-3	-20.5722E-3	1.17871E-12	20.8378E-3	-15.4354E-3
757.879E-6	1.19167E-12	30.9851E-3	-15.2947E-3	1.14681E-12	29.6651E-3	-5.03936E-3
752.876E-6	1.23223E-12	36.0450E-3	-25.7016E-3	1.14224E-12	42.3378E-3	2.94965E-3
747.874E-6	1.16539E-12	30.1827E-3	-29.1110E-3	1.12051E-12	36.4076E-3	7.04331E-3
742.871E-6	1.08891E-12	10.5603E-3	-16.3379E-3	1.09173E-12	38.2944E-3	7.79429E-3
737.869E-6	1.13026E-12	6.66522E-3	84.9960E-6	1.08615E-12	48.1507E-3	-11.0583E-3
732.866E-6	1.16967E-12	18.7701E-3	10.4059E-3	1.11633E-12	41.0555E-3	-16.4428E-3
727.864E-6	1.06230E-12	28.6138E-3	1.90450E-3	1.06817E-12	24.1004E-3	-7.35383E-3
722.861E-6	1.02198E-12	38.2118E-3	-14.9205E-3	1.02298E-12	8.13947E-3	-22.0968E-3
717.859E-6	1.05346E-12	42.3058E-3	-17.2362E-3	1.03259E-12	4.88743E-3	-36.0377E-3
712.856E-6	1.08306E-12	30.9802E-3	-6.94915E-3	1.02614E-12	30.7729E-3	-22.7324E-3
707.854E-6	994.915E-15	36.3385E-3	-4.02833E-3	995.176E-15	59.5483E-3	-7.81078E-3
702.851E-6	996.772E-15	49.1671E-3	-9.62948E-3	986.814E-15	53.4796E-3	-7.38889E-3
697.849E-6	962.261E-15	33.5530E-3	-13.2116E-3	893.997E-15	27.0557E-3	-13.7629E-3
692.846E-6	1.00472E-12	18.8530E-3	-17.4446E-3	966.167E-15	19.5367E-3	-26.8338E-3
687.844E-6	963.072E-15	24.6035E-3	-16.7600E-3	973.526E-15	29.6069E-3	-33.8675E-3
682.841E-6	935.309E-15	25.5564E-3	-11.8451E-3	951.588E-15	39.4965E-3	-12.0879E-3
677.839E-6	899.351E-15	26.5353E-3	-15.1305E-3	868.049E-15	35.0055E-3	9.23718E-3
672.836E-6	876.951E-15	39.5421E-3	-18.7845E-3	882.462E-15	15.3501E-3	-2.54892E-3
667.834E-6	965.879E-15	43.9397E-3	-11.1665E-3	939.346E-15	18.1680E-3	-17.4962E-3
662.831E-6	929.633E-15	35.5268E-3	-8.76878E-3	940.489E-15	43.4003E-3	-27.4502E-3
657.829E-6	871.911E-15	34.3153E-3	-15.6911E-3	871.562E-15	47.8989E-3	-30.7567E-3
652.826E-6	865.546E-15	40.5113E-3	-15.4580E-3	865.258E-15	35.7762E-3	-16.8311E-3
647.824E-6	868.022E-15	43.2040E-3	-18.4661E-3	897.206E-15	25.3826E-3	-16.7643E-3
642.821E-6	889.864E-15	51.6654E-3	-18.5561E-3	867.107E-15	15.9654E-3	-28.5820E-3
637.819E-6	867.970E-15	51.8790E-3	-3.39062E-3	859.425E-15	18.8968E-3	-19.0099E-3
632.816E-6	774.368E-15	41.8907E-3	-7.54745E-3	851.944E-15	30.2755E-3	-4.23726E-3
627.814E-6	775.711E-15	43.3890E-3	-22.6281E-3	825.150E-15	31.8659E-3	-6.64458E-3
622.811E-6	833.878E-15	33.8419E-3	-22.6971E-3	826.388E-15	30.3663E-3	-12.8177E-3
617.809E-6	864.090E-15	10.4645E-3	-28.3041E-3	826.301E-15	38.9036E-3	-13.2589E-3
612.806E-6	783.933E-15	17.5483E-3	-33.0177E-3	757.837E-15	45.2444E-3	-18.6013E-3
607.804E-6	719.567E-15	36.6964E-3	-21.3365E-3	747.487E-15	45.5782E-3	-24.2330E-3
602.801E-6	776.539E-15	29.3828E-3	-16.7714E-3	708.756E-15	43.4518E-3	-18.3058E-3
597.799E-6	747.461E-15	29.9024E-3	-26.1445E-3	768.204E-15	23.7838E-3	-17.3342E-3
592.796E-6	734.661E-15	45.6239E-3	-22.0348E-3	775.912E-15	5.25298E-3	-19.0380E-3
587.794E-6	663.415E-15	44.9083E-3	-15.8566E-3	645.724E-15	15.9160E-3	-22.7876E-3
582.791E-6	708.633E-15	39.9966E-3	-20.3001E-3	620.664E-15	37.0871E-3	-31.4695E-3
577.789E-6	726.151E-15	41.8279E-3	-16.2783E-3	671.620E-15	39.7817E-3	-20.8206E-3
572.786E-6	697.342E-15	38.7639E-3	-9.64510E-3	691.892E-15	31.5829E-3	-8.10404E-3
567.784E-6	640.675E-15	45.9377E-3	-10.5518E-3	639.829E-15	25.3675E-3	-19.8161E-3
562.781E-6	678.064E-15	57.3001E-3	-11.7933E-3	648.610E-15	21.2514E-3	-36.7750E-3
557.779E-6	651.391E-15	46.9423E-3	-5.68848E-3	664.662E-15	29.9645E-3	-30.5317E-3
552.776E-6	689.259E-15	34.1934E-3	-6.12927E-3	661.244E-15	31.5297E-3	-15.2809E-3
547.774E-6	664.322E-15	34.9598E-3	-12.5239E-3	659.117E-15	14.9050E-3	-21.6987E-3
542.771E-6	593.975E-15	30.2971E-3	-21.5476E-3	555.653E-15	17.1327E-3	-33.8537E-3
537.769E-6	575.594E-15	22.8450E-3	-34.4388E-3	594.210E-15	37.7043E-3	-37.1750E-3
532.766E-6	590.208E-15	33.2470E-3	-23.5898E-3	598.395E-15	44.7940E-3	-32.5491E-3
527.764E-6	640.884E-15	42.3162E-3	-3.37453E-3	634.197E-15	41.4204E-3	-15.5569E-3
522.761E-6	635.897E-15	37.9299E-3	-7.73145E-3	559.725E-15	37.7838E-3	-11.2315E-3
517.759E-6	544.710E-15	40.2813E-3	-14.9395E-3	535.320E-15	28.7202E-3	-27.2568E-3
512.756E-6	506.651E-15	47.6342E-3	-9.24764E-3	555.139E-15	21.5149E-3	-30.7796E-3
507.754E-6	588.900E-15	46.1176E-3	-9.65125E-3	514.760E-15	28.0729E-3	-17.3607E-3
502.751E-6	529.426E-15	40.9905E-3	-13.8487E-3	560.911E-15	29.3559E-3	-9.41196E-3
497.749E-6	460.543E-15	32.7305E-3	-8.00022E-3	443.793E-15	17.5634E-3	-8.17263E-3
492.746E-6	471.233E-15	22.0649E-3	-5.88305E-3	463.072E-15	20.1176E-3	-4.63079E-3
487.744E-6	503.233E-15	29.9419E-3	-17.5599E-3	439.163E-15	33.7170E-3	-7.25616E-3
482.741E-6	539.182E-15	41.7973E-3	-20.7245E-3	469.751E-15	36.7819E-3	-8.04790E-3
477.739E-6	465.304E-15	37.6573E-3	-12.7607E-3	466.167E-15	37.1367E-3	-2.52667E-3
472.736E-6	409.378E-15	36.3582E-3	-9.08548E-3	438.466E-15	36.6914E-3	-8.89116E-3
467.734E-6	468.844E-15	40.0282E-3	-8.84125E-3	401.269E-15	20.5568E-3	-20.8462E-3
462.731E-6	410.764E-15	37.9896E-3	-6.48563E-3	411.462E-15	13.9568E-3	-24.2258E-3
457.729E-6	429.380E-15	31.5543E-3	-5.49007E-3	447.717E-15	23.7653E-3	-17.0500E-3
452.726E-6	356.731E-15	30.8628E-3	-6.44682E-3	371.240E-15	20.1462E-3	-9.44775E-3
447.724E-6	367.072E-15	29.3206E-3	-12.1049E-3	328.507E-15	8.80158E-3	-6.22160E-3
442.721E-6	407.591E-15	28.6059E-3	-20.8096E-3	382.915E-15	15.8850E-3	-14.6768E-3
437.719E-6	384.894E-15	42.5777E-3	-16.3897E-3	417.121E-15	36.3334E-3	-29.7732E-3
432.716E-6	353.435E-15	49.8012E-3	-6.00649E-3	353.470E-15	39.0721E-3	-23.7228E-3
427.714E-6	315.506E-15	39.5621E-3	-11.4038E-3	298.913E-15	40.0466E-3	-12.0739E-3
422.711E-6	312.925E-15	26.0202E-3	-20.0590E-3	269.477E-15	40.6662E-3	-15.2816E-3
417.709E-6	343.164E-15	23.3908E-3	-14.7834E-3	298.233E-15	35.6338E-3	-15.6661E-3
412.706E-6	350.261E-15	27.6932E-3	-11.4930E-3	305.025E-15	45.5875E-3	-11.8304E-3
407.704E-6	298.251E-15	31.7388E-3	-10.1169E-3	279.923E-15	47.5238E-3	-11.3524E-3
402.701E-6	211.049E-15	35.3321E-3	-7.76040E-3	273.836E-15	30.1072E-3	-10.7166E-3
397.699E-6	235.472E-15	35.1030E-3	-14.9791E-3	245.560E-15	18.6144E-3	-12.8891E-3
392.696E-6	291.589E-15	41.1275E-3	-21.4536E-3	252.797E-15	18.9143E-3	-26.8558E-3
387.694E-6	276.252E-15	39.0498E-3	-20.3606E-3	250.303E-15	25.2673E-3	-36.6571E-3
382.691E-6	186.373E-15	20.1563E-3	-26.7652E-3	198.955E-15	33.5186E-3	-26.5377E-3
377.689E-6	181.560E-15	8.65448E-3	-31.8416E-3	184.559E-15	25.3191E-3	-8.96243E-3
372.686E-6	235.724E-15	11.9524E-3	-20.9548E-3	241.130E-15	11.3214E-3	5.29338E-3
367.684E-6	178.334E-15	16.9611E-3	-11.4372E-3	237.067E-15	22.6290E-3	-3.19283E-3
362.681E-6	158.811E-15	28.5809E-3	-9.48697E-3	160.878E-15	37.4113E-3	-33.9072E-3
357.679E-6	154.957E-15	41.2446E-3	-3.69968E-3	146.160E-15	40.1756E-3	-36.3907E-3
352.676E-6	177.366E-15	34.5247E-3	-14.0796E-3	130.770E-15	44.4604E-3	-10.8250E-3
347.674E-6	242.011E-15	30.5714E-3	-36.1939E-3	183.182E-15	32.4484E-3	-6.00064E-3
342.671E-6	144.895E-15	36.6322E-3	-35.8389E-3	195.180E-15	19.9235E-3	-16.2396E-3
337.669E-6	120.464E-15	31.3219E-3	-29.9808E-3	159.003E-15	34.9625E-3	-16.5839E-3
332.666E-6	131.058E-15	16.3891E-3	-31.9734E-3	51.9214E-15	38.9391E-3	-16.1384E-3
327.664E-6	146.805E-15	4.12865E-3	-26.1152E-3	165.020E-15	19.2912E-3	-25.6240E-3
322.661E-6	118.851E-15	1.08158E-3	-26.9606E-3	174.951E-15	10.5323E-3	-30.3713E-3
317.659E-6	79.3262E-15	13.1994E-3	-33.4029E-3	104.080E-15	10.2774E-3	-27.0350E-3
312.656E-6	74.3213E-15	22.9196E-3	-19.0372E-3	77.2684E-15	11.4237E-3	-16.0779E-3
307.654E-6	88.8476E-15	17.1486E-3	-8.39461E-3	65.5409E-15	22.2263E-3	2.15415E-3
302.651E-6	125.695E-15	19.4990E-3	-26.9511E-3	117.543E-15	29.8435E-3	3.66623E-3
297.649E-6	106.931E-15	28.3679E-3	-40.1950E-3	103.173E-15	17.5311E-3	-9.12660E-3
292.646E-6	97.6629E-15	26.3339E-3	-24.8978E-3	14.6638E-15	4.17205E-3	-27.6294E-3
287.644E-6	38.7727E-15	23.8427E-3	-8.61249E-3	52.3922E-15	14.7057E-3	-53.4642E-3
282.641E-6	45.9486E-15	33.9148E-3	-8.77528E-3	47.5966E-15	31.4747E-3	-56.0484E-3
277.639E-6	89.3882E-15	32.3187E-3	-14.2476E-3	81.1049E-15	33.2717E-3	-28.7996E-3
272.636E-6	69.3077E-15	15.9429E-3	-17.8647E-3	34.8838E-15	27.0356E-3	-21.3045E-3
267.634E-6	10.7837E-15	11.1698E-3	-14.6985E-3	8.12429E-15	15.2264E-3	-44.5890E-3
262.631E-6	13.0594E-15	10.9126E-3	-2.93973E-3	7.26108E-15	2.35351E-3	-53.0661E-3
257.629E-6	63.2478E-15	7.57262E-3	-5.19129E-3	17.7155E-15	10.0565E-3	-38.7511E-3
252.626E-6	42.4435E-15	10.2277E-3	-18.3293E-3	40.7694E-15	25.0164E-3	-21.8643E-3
247.624E-6	-54.0880E-15	6.97368E-3	-20.3363E-3	-20.1437E-15	20.9575E-3	-8.39844E-3
242.621E-6	-6.95139E-15	-6.73173E-3	-26.4404E-3	-19.9780E-15	13.3739E-3	-18.3546E-3
237.619E-6	-2.78356E-15	-5.70979E-3	-31.7874E-3	-51.6727E-15	13.6496E-3	-41.9140E-3
232.616E-6	22.1973E-15	6.86893E-3	-17.2631E-3	-1.97267E-15	10.5578E-3	-35.1096E-3
227.614E-6	-25.4538E-15	9.51490E-3	-6.43601E-3	-35.7949E-15	6.14049E-3	-12.0483E-3
222.611E-6	-78.3625E-15	11.9838E-3	-8.00737E-3	-32.9088E-15	7.01887E-3	-9.35044E-3
217.609E-6	-17.7285E-15	6.03298E-3	-5.52094E-3	-8.79117E-15	11.2501E-3	-15.8867E-3
212.606E-6	1.10525E-15	-14.1165E-3	-6.59550E-3	-11.1018E-15	23.7999E-3	-21.8268E-3
207.604E-6	-28.6363E-15	-8.01083E-3	-17.6646E-3	26.4959E-15	31.2598E-3	-31.0038E-3
202.601E-6	-63.2956E-15	4.28505E-3	-25.7011E-3	-54.3757E-15	23.4991E-3	-26.0232E-3
197.599E-6	-41.3142E-15	-11.4143E-3	-24.4444E-3	-80.8126E-15	18.0576E-3	-8.98934E-3
192.596E-6	-28.4706E-15	-15.7866E-3	-27.1308E-3	-75.5723E-15	11.3045E-3	-14.2446E-3
187.594E-6	-60.3397E-15	-8.07450E-3	-19.7462E-3	-13.4822E-15	-2.17891E-3	-29.0854E-3
182.591E-6	-63.3915E-15	-9.80679E-3	-1.88894E-3	-53.5125E-15	-851.938E-6	-13.9766E-3
177.589E-6	-83.9952E-15	-4.21517E-3	651.079E-6	-69.7479E-15	7.31353E-3	41.4956E-6
172.586E-6	-104.041E-15	2.45302E-3	-3.62333E-3	-104.721E-15	3.42341E-3	-11.4426E-3
167.584E-6	-42.3518E-15	1.00970E-3	-6.43036E-3	-43.4330E-15	8.47255E-3	-20.8430E-3
162.581E-6	-36.3267E-15	1.27535E-3	-15.3131E-3	-56.4160E-15	19.7799E-3	-16.9664E-3
157.579E-6	-92.3134E-15	-3.54679E-3	-22.5341E-3	-51.6466E-15	19.1855E-3	-3.61326E-3
152.576E-6	-141.891E-15	-14.7625E-3	-26.4602E-3	-118.541E-15	8.88790E-3	861.668E-6
147.574E-6	-102.201E-15	-11.4973E-3	-40.0823E-3	-110.205E-15	-1.31948E-3	-19.2426E-3
142.571E-6	-41.2531E-15	2.26933E-3	-50.8712E-3	-79.1124E-15	-2.39248E-3	-37.9298E-3
137.569E-6	-49.3185E-15	903.398E-6	-45.9368E-3	-95.8447E-15	325.370E-6	-34.7325E-3
132.566E-6	-156.583E-15	-4.66547E-3	-33.6553E-3	-95.9145E-15	6.87152E-3	-23.2222E-3
127.564E-6	-135.927E-15	2.77957E-3	-26.2999E-3	-124.121E-15	8.23686E-3	-18.3762E-3
122.561E-6	-88.7211E-15	4.80772E-3	-28.6282E-3	-103.500E-15	-2.22130E-3	-17.6549E-3
117.559E-6	-84.0475E-15	1.85093E-3	-32.1244E-3	-101.094E-15	-4.39745E-3	-28.4533E-3
112.556E-6	-138.412E-15	13.7973E-3	-23.5264E-3	-62.7027E-15	5.68411E-3	-52.3605E-3
107.554E-6	-155.092E-15	9.80639E-3	-6.62132E-3	-129.963E-15	7.17965E-3	-50.0836E-3
102.551E-6	-48.2112E-15	-4.59139E-3	-7.48529E-3	-149.373E-15	2.70744E-3	-16.8619E-3
97.5488E-6	-79.1298E-15	9.19937E-3	-20.4617E-3	-126.066E-15	-867.422E-6	4.60649E-3
92.5463E-6	-105.192E-15	15.8044E-3	-17.6872E-3	-99.3761E-15	-3.06594E-3	188.137E-6
87.5438E-6	-140.121E-15	8.49786E-3	-14.2223E-3	-156.357E-15	13.2240E-3	-4.64246E-3
82.5413E-6	-148.344E-15	17.1331E-3	-13.1167E-3	-187.485E-15	35.6521E-3	-3.02373E-3
77.5388E-6	-143.984E-15	19.7427E-3	-8.54504E-3	-134.140E-15	27.1893E-3	-2.09365E-3
72.5363E-6	-111.444E-15	5.00848E-3	-19.5253E-3	-110.345E-15	114.424E-6	2.16585E-3
67.5338E-6	-131.045E-15	-7.11196E-3	-29.6889E-3	-157.917E-15	-11.3022E-3	-7.71423E-3
62.5313E-6	-173.682E-15	-17.3460E-3	-15.8068E-3	-199.849E-15	-6.31396E-3	-22.6434E-3
57.5288E-6	-128.063E-15	-22.9108E-3	-2.63783E-3	-174.545E-15	-3.18909E-3	-13.1233E-3
52.5263E-6	-126.406E-15	-4.11560E-3	-11.5448E-3	-118.410E-15	-10.0879E-3	-5.85556E-3
47.5238E-6	-98.3821E-15	15.5847E-3	-25.4858E-3	-118.890E-15	-13.5797E-3	-10.9335E-3
42.5213E-6	-166.768E-15	538.156E-6	-29.4964E-3	-170.901E-15	-7.69990E-3	-13.9019E-3
37.5188E-6	-187.755E-15	-15.3547E-3	-16.0211E-3	-206.310E-15	5.18207E-3	-20.7933E-3
32.5163E-6	-165.564E-15	-3.28335E-3	12.4387E-3	-151.866E-15	12.6331E-3	-21.7612E-3
27.5138E-6	-120.983E-15	1.80977E-3	15.0354E-3	-93.0546E-15	3.77523E-3	-9.94659E-3
22.5113E-6	-123.799E-15	-1.44902E-3	-16.7656E-3	-171.502E-15	-6.59171E-3	-3.62230E-3
17.5088E-6	-195.288E-15	572.100E-6	-23.3453E-3	-190.467E-15	-1.65636E-3	-17.5343E-3
12.5063E-6	-213.425E-15	-6.06514E-3	-3.53178E-3	-168.416E-15	14.0967E-3	-29.9764E-3
7.50375E-6	-154.779E-15	-6.45490E-3	-9.29216E-3	-172.331E-15	24.0528E-3	-18.8204E-3
2.50125E-6	-143.156E-15	9.70167E-3	-28.1498E-3	-130.521E-15	15.4072E-3	-4.44407E-3
-2.50125E-6	-211.646E-15	11.9442E-3	-28.2842E-3	-196.527E-15	981.410E-6	-2.33915E-3
-7.50375E-6	-200.197E-15	726.484E-6	-22.2177E-3	-216.555E-15	-5.38945E-3	-14.3001E-3
-12.5063E-6	-142.659E-15	-47.2936E-6	-14.7353E-3	-185.165E-15	-7.30874E-3	-26.4391E-3
-17.5088E-6	-137.410E-15	-4.33317E-3	-6.57852E-3	-155.903E-15	-629.089E-6	-12.9876E-3
-22.5113E-6	-219.886E-15	-12.6779E-3	-9.05853E-3	-194.591E-15	8.20488E-3	1.09780E-3
-27.5138E-6	-246.933E-15	-9.49213E-3	-13.4211E-3	-194.294E-15	6.28321E-3	1.63279E-3
-32.5163E-6	-169.157E-15	-3.22801E-3	-9.49181E-3	-198.349E-15	4.08322E-3	-299.212E-6
-37.5188E-6	-140.828E-15	1.86517E-3	-7.12848E-3	-199.090E-15	12.5938E-3	-6.43816E-3
-42.5213E-6	-188.522E-15	14.6439E-3	-6.85692E-3	-190.676E-15	19.6396E-3	-7.37296E-3
-47.5238E-6	-229.913E-15	22.5047E-3	-4.90419E-3	-225.954E-15	13.9127E-3	3.00705E-3
-52.5263E-6	-192.123E-15	18.3646E-3	-20.6518E-3	-266.377E-15	802.481E-6	7.96641E-3
-57.5288E-6	-168.372E-15	13.9580E-3	-36.7434E-3	-154.238E-15	-5.49660E-3	-6.62092E-3
-62.5313E-6	-177.667E-15	2.14130E-3	-19.7041E-3	-173.351E-15	2.13386E-3	-22.8222E-3
-67.5338E-6	-194.460E-15	-10.1479E-3	-6.10195E-3	-148.422E-15	14.5746E-3	-23.5507E-3
-72.5363E-6	-203.764E-15	-2.98115E-3	-19.9337E-3	-222.144E-15	14.6894E-3	-16.5749E-3
-77.5388E-6	-271.443E-15	5.09082E-3	-17.7992E-3	-212.186E-15	3.66057E-3	-17.2960E-3
-82.5413E-6	-202.360E-15	-1.32680E-3	-5.47014E-3	-225.161E-15	5.62921E-3	-29.1298E-3
-87.5438E-6	-176.960E-15	-4.78085E-3	-15.1823E-3	-121.697E-15	16.0051E-3	-34.7187E-3
-92.5463E-6	-188.322E-15	-13.3974E-3	-19.1269E-3	-220.583E-15	16.4535E-3	-23.7907E-3
-97.5488E-6	-220.548E-15	-28.8049E-3	-15.3141E-3	-250.586E-15	6.46170E-3	-6.04711E-3
-102.551E-6	-238.650E-15	-20.5328E-3	-23.0965E-3	-186.046E-15	-11.3554E-3	-4.52166E-3
-107.554E-6	-183.108E-15	3.96103E-3	-22.0341E-3	-194.321E-15	-15.9102E-3	-19.7782E-3
-112.556E-6	-194.914E-15	15.2248E-3	-9.60821E-3	-240.402E-15	108.747E-6	-26.8682E-3
-117.559E-6	-272.803E-15	11.7060E-3	-13.6481E-3	-240.524E-15	17.5544E-3	-20.6376E-3
-122.561E-6	-281.985E-15	11.9157E-3	-26.7500E-3	-275.009E-15	21.8657E-3	-4.01026E-3
-127.564E-6	-199.308E-15	11.0039E-3	-26.8402E-3	-255.556E-15	18.0863E-3	1.14900E-3
-132.566E-6	-208.882E-15	6.25668E-3	-18.5251E-3	-244.256E-15	14.4136E-3	-17.4544E-3
-137.569E-6	-263.386E-15	4.44375E-3	-11.8739E-3	-245.599E-15	11.4212E-3	-30.5607E-3
-142.571E-6	-343.273E-15	8.39859E-3	-12.8288E-3	-276.797E-15	12.1074E-3	-24.2326E-3
-147.574E-6	-257.457E-15	21.8714E-3	-13.5193E-3	-283.266E-15	10.0781E-3	-10.5307E-3
-152.576E-6	-183.709E-15	27.1754E-3	-9.64898E-3	-250.115E-15	1.61673E-3	-9.16587E-3
-157.579E-6	-243.855E-15	18.6148E-3	-5.55974E-3	-214.297E-15	-396.319E-6	-25.1149E-3
-162.581E-6	-346.316E-15	9.15438E-3	171.369E-6	-283.606E-15	14.6327E-3	-41.6366E-3
-167.584E-6	-307.951E-15	11.8874E-3	5.80982E-3	-333.376E-15	29.5029E-3	-45.9050E-3
-172.586E-6	-294.662E-15	18.2919E-3	6.46375E-3	-257.387E-15	23.5761E-3	-28.2226E-3
-177.589E-6	-312.886E-15	17.1399E-3	-4.85665E-3	-224.289E-15	9.52173E-3	-7.39632E-3
-182.591E-6	-296.092E-15	17.7590E-3	-12.5794E-3	-279.177E-15	10.3095E-3	-9.82465E-3
-187.594E-6	-280.581E-15	20.1642E-3	-4.08848E-3	-322.739E-15	20.6828E-3	-20.3712E-3
-192.596E-6	-332.591E-15	9.03556E-3	-604.841E-6	-310.802E-15	24.3872E-3	-16.2166E-3
-197.599E-6	-319.015E-15	3.20287E-3	-13.2862E-3	-307.480E-15	17.6835E-3	-7.81264E-3
-202.601E-6	-246.846E-15	9.22912E-3	-25.1318E-3	-267.537E-15	3.17829E-3	-8.57049E-3
-207.604E-6	-350.771E-15	3.73621E-3	-29.8569E-3	-325.442E-15	-4.49455E-3	-17.4683E-3
-212.606E-6	-356.648E-15	7.46153E-3	-28.9441E-3	-396.635E-15	3.74060E-3	-25.6624E-3
-217.609E-6	-332.748E-15	18.7750E-3	-7.54146E-3	-336.498E-15	14.7451E-3	-26.0706E-3
-222.611E-6	-306.346E-15	11.0240E-3	3.01373E-3	-317.585E-15	17.4883E-3	-16.0968E-3
-227.614E-6	-317.629E-15	12.5450E-3	-12.7811E-3	-363.484E-15	15.4502E-3	-6.90124E-3
-232.616E-6	-374.226E-15	30.4607E-3	-10.9493E-3	-387.139E-15	14.2897E-3	-21.5860E-3
-237.619E-6	-366.754E-15	28.1860E-3	8.41677E-3	-375.551E-15	20.3841E-3	-38.3298E-3
-242.621E-6	-326.252E-15	22.5417E-3	9.55040E-3	-361.574E-15	38.2110E-3	-26.6495E-3
-247.624E-6	-380.705E-15	38.3583E-3	-6.90154E-3	-363.336E-15	48.5716E-3	-6.17203E-3
-252.626E-6	-410.498E-15	46.0713E-3	-20.1125E-3	-403.514E-15	34.7782E-3	2.44928E-3
-257.629E-6	-455.664E-15	36.2765E-3	-34.5458E-3	-458.210E-15	22.6808E-3	3.44895E-3
-262.631E-6	-383.451E-15	29.8836E-3	-38.3186E-3	-399.896E-15	31.3516E-3	-6.65833E-3
-267.634E-6	-408.493E-15	22.9859E-3	-22.1848E-3	-365.158E-15	42.8478E-3	-11.0312E-3
-272.636E-6	-441.016E-15	21.6138E-3	-15.0488E-3	-398.300E-15	45.0879E-3	10.6740E-3
-277.639E-6	-458.359E-15	28.4315E-3	-17.9651E-3	-419.575E-15	34.4248E-3	12.4281E-3
-282.641E-6	-428.042E-15	14.4021E-3	-15.7358E-3	-470.601E-15	17.9280E-3	-22.2629E-3
-287.644E-6	-414.945E-15	4.40690E-3	-7.63444E-3	-436.831E-15	18.1941E-3	-44.6857E-3
-292.646E-6	-439.324E-15	23.9510E-3	4.94157E-3	-394.647E-15	23.7795E-3	-39.6905E-3
-297.649E-6	-472.353E-15	37.7166E-3	16.9152E-6	-484.883E-15	12.7831E-3	-24.4071E-3
-302.651E-6	-469.825E-15	35.5605E-3	-31.3194E-3	-511.259E-15	6.60727E-3	-16.1586E-3
-307.654E-6	-480.009E-15	27.2526E-3	-36.0283E-3	-492.137E-15	17.2225E-3	-26.1438E-3
-312.656E-6	-470.810E-15	15.6258E-3	-4.18136E-3	-457.888E-15	28.5746E-3	-42.1880E-3
-317.659E-6	-527.416E-15	18.1987E-3	12.4353E-3	-488.458E-15	39.6321E-3	-37.2474E-3
-322.661E-6	-507.274E-15	35.6265E-3	13.1132E-3	-557.070E-15	43.9074E-3	-14.2849E-3
-327.664E-6	-599.210E-15	42.7373E-3	12.4378E-3	-552.928E-15	31.1038E-3	-4.19890E-3
-332.666E-6	-545.534E-15	46.7447E-3	1.23488E-3	-535.324E-15	17.7101E-3	-17.3736E-3
-337.669E-6	-492.809E-15	59.7467E-3	-13.9167E-3	-560.287E-15	22.6475E-3	-29.9058E-3
-342.671E-6	-568.684E-15	60.8028E-3	-13.1744E-3	-583.149E-15	42.4862E-3	-23.4177E-3
-347.674E-6	-632.788E-15	46.6072E-3	-4.58375E-3	-632.588E-15	47.1426E-3	-4.90947E-3
-352.676E-6	-635.910E-15	35.6457E-3	313.154E-6	-596.691E-15	29.8916E-3	1.35702E-3
-357.679E-6	-559.189E-15	28.4244E-3	-1.49001E-3	-603.971E-15	20.5112E-3	-13.1437E-3
-362.681E-6	-571.439E-15	22.2692E-3	-12.6365E-3	-636.302E-15	25.9699E-3	-23.1721E-3
-367.684E-6	-712.657E-15	28.0639E-3	-18.8846E-3	-656.662E-15	34.4300E-3	-15.3545E-3
-372.686E-6	-727.349E-15	40.4631E-3	-8.89859E-3	-667.448E-15	38.4026E-3	-1.01958E-3
-377.689E-6	-679.001E-15	37.5135E-3	-8.89166E-3	-660.716E-15	34.0216E-3	6.98371E-3
-382.691E-6	-667.753E-15	26.2941E-3	-26.1308E-3	-657.316E-15	37.3108E-3	991.010E-6
-387.694E-6	-736.548E-15	30.0407E-3	-17.1781E-3	-700.816E-15	57.5360E-3	-9.84755E-3
-392.696E-6	-720.862E-15	31.9959E-3	-3.11445E-3	-693.222E-15	67.9184E-3	-6.58848E-3
-397.699E-6	-728.901E-15	28.6786E-3	-23.0342E-3	-731.953E-15	57.8700E-3	2.38428E-3
-402.701E-6	-700.459E-15	34.6531E-3	-33.9234E-3	-744.927E-15	42.8623E-3	-4.38565E-3
-407.704E-6	-751.144E-15	30.7433E-3	-23.1482E-3	-739.661E-15	33.8218E-3	-22.2156E-3
-412.706E-6	-826.715E-15	15.9602E-3	-12.2564E-3	-795.290E-15	39.2824E-3	-27.1887E-3
-417.709E-6	-812.162E-15	27.3480E-3	1.68890E-3	-860.685E-15	53.6179E-3	-8.81441E-3
-422.711E-6	-778.174E-15	52.9677E-3	2.65335E-3	-802.989E-15	52.1538E-3	5.52369E-3
-427.714E-6	-787.940E-15	49.8396E-3	-18.0004E-3	-775.959E-15	36.4460E-3	-8.49795E-3
-432.716E-6	-783.685E-15	32.1595E-3	-24.0779E-3	-825.921E-15	32.3950E-3	-28.9352E-3
-437.719E-6	-858.627E-15	26.5306E-3	-2.57002E-3	-884.532E-15	49.8248E-3	-38.0897E-3
-442.721E-6	-905.110E-15	36.0200E-3	-3.10752E-3	-946.579E-15	71.2707E-3	-33.5271E-3
-447.724E-6	-883.076E-15	49.8260E-3	-34.5113E-3	-872.657E-15	69.0249E-3	-17.5913E-3
-452.726E-6	-852.550E-15	49.3526E-3	-47.2630E-3	-875.194E-15	50.4523E-3	-7.76569E-3
-457.729E-6	-933.352E-15	39.6402E-3	-42.7746E-3	-964.837E-15	35.7299E-3	-10.2995E-3
-462.731E-6	-986.356E-15	48.4369E-3	-34.7064E-3	-1.00490E-12	33.0780E-3	-13.8823E-3
-467.734E-6	-985.484E-15	72.8497E-3	-11.0455E-3	-1.00448E-12	38.2116E-3	-9.61353E-3
-472.736E-6	-926.638E-15	80.3275E-3	495.815E-6	-939.909E-15	38.4757E-3	-1.84470E-3
-477.739E-6	-999.505E-15	70.7007E-3	-8.79505E-3	-1.00710E-12	29.9191E-3	-4.74470E-3
-482.741E-6	-1.05997E-12	64.7212E-3	-7.92076E-3	-1.02442E-12	27.6138E-3	-21.7826E-3
-487.744E-6	-1.07785E-12	59.7750E-3	-12.0049E-3	-1.01948E-12	39.2786E-3	-32.1354E-3
-492.746E-6	-1.02382E-12	62.8582E-3	-16.9639E-3	-1.02362E-12	50.9258E-3	-24.8185E-3
-497.749E-6	-1.08254E-12	77.6994E-3	-1.50781E-3	-1.02437E-12	54.7184E-3	-14.8858E-3
-502.751E-6	-1.15215E-12	79.3034E-3	-7.29312E-3	-1.06182E-12	55.7550E-3	-10.5311E-3
-507.754E-6	-1.14260E-12	67.8523E-3	-36.0774E-3	-1.14025E-12	65.2276E-3	-14.2077E-3
-512.756E-6	-1.09407E-12	53.2368E-3	-42.1952E-3	-1.14445E-12	73.1145E-3	-15.9999E-3
-517.759E-6	-1.10097E-12	40.4059E-3	-30.0495E-3	-1.14978E-12	69.1055E-3	-1.75986E-3
-522.761E-6	-1.17027E-12	39.9486E-3	-24.1211E-3	-1.16191E-12	59.7709E-3	14.3017E-3
-527.764E-6	-1.20947E-12	49.5136E-3	-25.9071E-3	-1.20724E-12	45.8222E-3	9.74532E-3
-532.766E-6	-1.19457E-12	51.0605E-3	-32.2320E-3	-1.25039E-12	42.1112E-3	-11.6504E-3
-537.769E-6	-1.19084E-12	42.0375E-3	-40.9282E-3	-1.23013E-12	53.0712E-3	-25.3579E-3
-542.771E-6	-1.21035E-12	45.2115E-3	-35.3521E-3	-1.22304E-12	62.4702E-3	-25.5024E-3
-547.774E-6	-1.28281E-12	53.9286E-3	-28.6245E-3	-1.31497E-12	54.5405E-3	-24.3178E-3
-552.776E-6	-1.29153E-12	50.9906E-3	-39.8522E-3	-1.34267E-12	36.1917E-3	-24.1493E-3
-557.779E-6	-1.27944E-12	44.3334E-3	-39.2381E-3	-1.32609E-12	40.4910E-3	-23.8361E-3
-562.781E-6	-1.30093E-12	34.9525E-3	-18.7238E-3	-1.31118E-12	58.9444E-3	-23.6202E-3
-567.784E-6	-1.32894E-12	37.8229E-3	-9.60787E-3	-1.30987E-12	61.5423E-3	-14.7028E-3
-572.786E-6	-1.37166E-12	57.2621E-3	-10.6383E-3	-1.37097E-12	45.2551E-3	-5.79513E-3
-577.789E-6	-1.46307E-12	62.0649E-3	-6.27668E-3	-1.42673E-12	30.2919E-3	-8.41051E-3
-582.791E-6	-1.37178E-12	45.1166E-3	-5.59578E-3	-1.37280E-12	29.4569E-3	-12.7993E-3
-587.794E-6	-1.40119E-12	32.4211E-3	-3.26888E-3	-1.33662E-12	40.7271E-3	-9.81332E-3
-592.796E-6	-1.41233E-12	29.7021E-3	6.18001E-3	-1.44674E-12	55.9927E-3	-1.27096E-3
-597.799E-6	-1.48783E-12	34.2804E-3	5.95868E-3	-1.46235E-12	61.5937E-3	-650.870E-6
-602.801E-6	-1.54800E-12	46.0600E-3	-9.30220E-3	-1.44846E-12	58.7953E-3	-13.2000E-3
-607.804E-6	-1.46082E-12	46.8556E-3	-11.5590E-3	-1.42336E-12	50.1110E-3	-22.4331E-3
-612.806E-6	-1.46114E-12	39.8765E-3	-9.67085E-3	-1.46107E-12	45.9529E-3	-22.2382E-3
-617.809E-6	-1.56025E-12	44.6370E-3	-19.0492E-3	-1.51986E-12	54.2122E-3	-17.6429E-3
-622.811E-6	-1.56331E-12	55.7316E-3	-11.5426E-3	-1.53032E-12	56.0730E-3	-12.3077E-3
-627.814E-6	-1.52416E-12	49.1907E-3	-4.02100E-3	-1.59868E-12	44.6095E-3	-17.1193E-3
-632.816E-6	-1.52865E-12	38.1336E-3	-18.6689E-3	-1.52374E-12	42.5925E-3	-24.4036E-3
-637.819E-6	-1.62654E-12	47.2385E-3	-20.2937E-3	-1.58615E-12	53.2882E-3	-21.6348E-3
-642.821E-6	-1.63091E-12	54.9775E-3	-5.86587E-3	-1.62076E-12	50.2118E-3	-8.51502E-3
-647.824E-6	-1.55642E-12	53.7478E-3	-13.8589E-3	-1.66084E-12	37.8471E-3	7.71242E-3
-652.826E-6	-1.58540E-12	48.2169E-3	-23.4437E-3	-1.61921E-12	31.4235E-3	7.40528E-3
-657.829E-6	-1.65710E-12	39.6338E-3	-19.7899E-3	-1.62926E-12	26.8907E-3	-13.4735E-3
-662.831E-6	-1.69669E-12	43.6777E-3	-23.6464E-3	-1.64569E-12	37.1047E-3	-27.2475E-3
-667.834E-6	-1.65752E-12	54.1555E-3	-18.7019E-3	-1.71798E-12	59.7401E-3	-21.1894E-3
-672.836E-6	-1.66828E-12	58.0109E-3	-14.4712E-3	-1.65986E-12	56.8246E-3	-12.2058E-3
-677.839E-6	-1.69020E-12	57.7021E-3	-28.4833E-3	-1.61780E-12	28.4734E-3	-11.7330E-3
-682.841E-6	-1.70374E-12	53.4304E-3	-26.0316E-3	-1.64021E-12	15.3692E-3	-14.2410E-3
-687.844E-6	-1.70271E-12	51.1317E-3	-4.36154E-3	-1.74624E-12	20.2768E-3	-22.1461E-3
-692.846E-6	-1.80631E-12	60.3094E-3	9.84712E-3	-1.72048E-12	26.7040E-3	-31.7424E-3
-697.849E-6	-1.77010E-12	66.5590E-3	11.0960E-3	-1.65647E-12	30.9344E-3	-18.5021E-3
-702.851E-6	-1.73950E-12	55.0627E-3	-630.903E-6	-1.68065E-12	29.2282E-3	-2.84930E-3
-707.854E-6	-1.81257E-12	39.9391E-3	-16.8853E-3	-1.74004E-12	24.7832E-3	-18.5225E-3
-712.856E-6	-1.84958E-12	38.6677E-3	-19.0889E-3	-1.80128E-12	29.4255E-3	-32.9439E-3
-717.859E-6	-1.84230E-12	43.5405E-3	-9.86724E-3	-1.76491E-12	37.0276E-3	-21.7823E-3
-722.861E-6	-1.76792E-12	47.2136E-3	-9.95506E-3	-1.79410E-12	35.7959E-3	-7.08930E-3
-727.864E-6	-1.82200E-12	61.5982E-3	-13.1871E-3	-1.86184E-12	28.9790E-3	-323.504E-6
-732.866E-6	-1.90177E-12	71.4233E-3	-4.12670E-3	-1.92954E-12	24.3187E-3	-3.86163E-3
-737.869E-6	-1.87908E-12	64.9111E-3	233.904E-6	-1.92821E-12	25.1437E-3	-11.7926E-3
-742.871E-6	-1.81970E-12	64.1882E-3	-9.35313E-3	-1.96686E-12	34.3622E-3	-12.9007E-3
-747.874E-6	-1.88660E-12	64.2214E-3	-12.2788E-3	-1.91451E-12	50.7555E-3	-5.16993E-3
-752.876E-6	-1.94620E-12	49.5967E-3	-15.0563E-3	-1.96748E-12	56.8049E-3	-2.79052E-3
-757.879E-6	-1.94987E-12	35.1202E-3	-21.1917E-3	-2.01593E-12	43.4193E-3	-9.40253E-3
-762.881E-6	-1.92274E-12	24.6061E-3	-9.72380E-3	-2.03207E-12	28.8084E-3	-17.7223E-3
-767.884E-6	-1.93359E-12	21.2415E-3	-1.87354E-3	-1.98091E-12	32.1982E-3	-26.2311E-3
-772.886E-6	-2.04187E-12	39.5230E-3	-10.7309E-3	-2.01113E-12	43.9879E-3	-16.9485E-3
-777.889E-6	-2.02527E-12	55.6184E-3	-4.31454E-3	-1.98600E-12	49.4445E-3	-7.93711E-3
-782.891E-6	-1.98425E-12	39.0114E-3	8.20190E-3	-2.05848E-12	46.9181E-3	-17.5797E-3
-787.894E-6	-1.99379E-12	23.6779E-3	-244.646E-6	-2.01713E-12	50.5945E-3	-17.6591E-3
-792.896E-6	-2.01348E-12	35.7037E-3	-7.51970E-3	-1.97350E-12	60.7048E-3	-9.36994E-3
-797.899E-6	-2.04067E-12	35.8996E-3	-2.90875E-3	-2.05304E-12	52.2551E-3	-7.14312E-3
-802.901E-6	-2.06549E-12	21.5934E-3	-4.69527E-3	-2.06335E-12	31.6104E-3	-9.80074E-3
-807.904E-6	-2.08447E-12	10.8619E-3	-5.27400E-3	-2.06337E-12	22.4477E-3	-14.7813E-3
-812.906E-6	-2.11539E-12	-2.27477E-3	1.07305E-3	-2.00477E-12	33.5459E-3	-15.7870E-3
-817.909E-6	-2.07259E-12	3.95412E-3	-3.58187E-3	-2.08958E-12	46.7927E-3	-11.9604E-3
-822.911E-6	-2.14434E-12	29.5589E-3	-8.86908E-3	-2.19251E-12	44.0860E-3	-5.87698E-3
-827.914E-6	-2.21399E-12	37.1170E-3	-1.94926E-3	-2.22498E-12	36.3485E-3	1.93496E-3
-832.916E-6	-2.12349E-12	32.5646E-3	-914.228E-6	-2.19404E-12	35.1027E-3	7.22882E-3
-837.919E-6	-2.15541E-12	33.3646E-3	-3.91763E-3	-2.23460E-12	47.2502E-3	-323.312E-6
-842.921E-6	-2.21094E-12	42.1402E-3	-276.106E-6	-2.26702E-12	63.5058E-3	-11.9312E-3
-847.924E-6	-2.27545E-12	56.3196E-3	-3.16900E-3	-2.37919E-12	58.7113E-3	-13.0878E-3
-852.926E-6	-2.27674E-12	65.5126E-3	-5.71490E-3	-2.32727E-12	36.4884E-3	-15.6403E-3
-857.929E-6	-2.24993E-12	60.7616E-3	1.24674E-3	-2.35559E-12	31.6137E-3	-21.3774E-3
-862.931E-6	-2.22691E-12	53.2121E-3	-3.46211E-3	-2.37041E-12	54.2193E-3	-17.2591E-3
-867.934E-6	-2.36165E-12	64.5939E-3	-14.4063E-3	-2.38148E-12	74.7204E-3	-7.32086E-3
-872.936E-6	-2.41199E-12	74.2222E-3	-14.0637E-3	-2.40679E-12	73.4767E-3	145.987E-6
-877.939E-6	-2.27633E-12	68.7850E-3	-20.7452E-3	-2.44616E-12	56.9117E-3	879.848E-6
-882.941E-6	-2.35640E-12	66.2292E-3	-30.0261E-3	-2.35943E-12	52.7025E-3	-10.4421E-3
-887.944E-6	-2.41513E-12	70.1865E-3	-24.3473E-3	-2.40151E-12	69.3092E-3	-26.3227E-3
-892.946E-6	-2.47346E-12	69.7440E-3	-13.7522E-3	-2.43636E-12	74.3389E-3	-22.2591E-3
-897.949E-6	-2.42550E-12	69.5866E-3	-10.9516E-3	-2.42525E-12	66.9230E-3	-8.74527E-3
-902.951E-6	-2.42290E-12	66.9318E-3	-11.3214E-3	-2.40030E-12	66.4133E-3	-9.48806E-3
-907.954E-6	-2.51380E-12	51.2198E-3	-17.5056E-3	-2.35349E-12	65.2896E-3	-22.1041E-3
-912.956E-6	-2.53608E-12	42.0108E-3	-22.5862E-3	-2.48707E-12	72.9348E-3	-30.0508E-3
-917.959E-6	-2.55901E-12	48.1601E-3	-7.73948E-3	-2.55808E-12	92.0781E-3	-22.3167E-3
-922.961E-6	-2.55781E-12	59.4567E-3	292.907E-6	-2.48928E-12	97.9082E-3	-10.7955E-3
-927.964E-6	-2.62543E-12	72.0227E-3	-14.1607E-3	-2.55021E-12	87.3520E-3	-4.27904E-3
-932.966E-6	-2.63063E-12	75.1014E-3	-20.4142E-3	-2.61906E-12	84.5308E-3	-14.0429E-3
-937.969E-6	-2.71644E-12	62.8818E-3	-11.9347E-3	-2.68454E-12	93.5765E-3	-33.1168E-3
-942.971E-6	-2.74722E-12	61.0681E-3	-5.54267E-3	-2.76604E-12	100.026E-3	-26.0270E-3
-947.974E-6	-2.68515E-12	82.9236E-3	81.0284E-6	-2.75028E-12	105.170E-3	473.424E-6
-952.976E-6	-2.71852E-12	94.3109E-3	-5.12374E-3	-2.76583E-12	103.227E-3	4.38392E-3
-957.979E-6	-2.79872E-12	89.5066E-3	-21.8358E-3	-2.83616E-12	92.4998E-3	-10.6591E-3
-962.981E-6	-2.87279E-12	95.5286E-3	-19.7696E-3	-2.95932E-12	103.255E-3	-14.6774E-3
-967.984E-6	-2.94397E-12	101.764E-3	-3.69696E-3	-2.94588E-12	136.134E-3	-11.7751E-3
-972.986E-6	-2.87327E-12	101.636E-3	-16.5684E-3	-2.91485E-12	154.294E-3	-11.4762E-3
-977.989E-6	-2.93901E-12	106.499E-3	-40.6472E-3	-2.99510E-12	150.118E-3	-15.5135E-3
-982.991E-6	-3.02707E-12	101.240E-3	-32.6972E-3	-3.02211E-12	135.418E-3	-27.1809E-3
-987.994E-6	-3.08230E-12	92.5730E-3	-10.8734E-3	-3.03313E-12	125.988E-3	-30.9516E-3
-992.997E-6	-3.04659E-12	105.512E-3	2.98605E-3	-3.02338E-12	134.344E-3	-12.0988E-3
-997.999E-6	-3.11268E-12	125.829E-3	205.253E-6	-3.03242E-12	137.576E-3	2.49995E-3
-1.00300E-3	-3.18287E-12	136.465E-3	-18.2488E-3	-3.02293E-12	130.011E-3	-1.76711E-3
-1.00800E-3	-3.24564E-12	142.128E-3	-21.7709E-3	-3.09295E-12	138.270E-3	-7.29030E-3
-1.01301E-3	-3.24811E-12	138.079E-3	-5.31206E-3	-3.10469E-12	163.943E-3	-17.7428E-3
-1.01801E-3	-3.25866E-12	129.914E-3	-139.517E-6	-3.16294E-12	189.827E-3	-22.2936E-3
-1.02301E-3	-3.44160E-12	145.379E-3	-10.4544E-3	-3.21710E-12	202.894E-3	-2.59367E-3
-1.02801E-3	-3.50940E-12	164.172E-3	-14.8554E-3	-3.34689E-12	198.104E-3	9.00997E-3
-1.03302E-3	-3.53736E-12	164.093E-3	-18.0306E-3	-3.48565E-12	191.824E-3	-2.04649E-3
-1.03802E-3	-3.59123E-12	173.543E-3	-20.3301E-3	-3.53273E-12	207.867E-3	-14.5806E-3
-1.04302E-3	-3.68555E-12	189.932E-3	-14.6927E-3	-3.57853E-12	237.817E-3	-26.7492E-3
-1.04802E-3	-3.72447E-12	199.207E-3	-9.03398E-3	-3.77709E-12	256.539E-3	-33.4184E-3
-1.05303E-3	-3.82038E-12	214.381E-3	-7.80449E-3	-3.90533E-12	251.961E-3	-24.3653E-3
-1.05803E-3	-3.92442E-12	221.499E-3	-4.52611E-3	-4.01088E-12	244.846E-3	-21.9309E-3
-1.06303E-3	-3.97789E-12	212.119E-3	4.98092E-3	-4.14138E-12	265.264E-3	-38.1221E-3
-1.06803E-3	-4.00585E-12	225.046E-3	4.76846E-3	-4.22954E-12	288.822E-3	-38.8788E-3
-1.07304E-3	-4.19873E-12	261.125E-3	-3.03604E-3	-4.32856E-12	292.050E-3	-11.5274E-3
-1.07804E-3	-4.30438E-12	267.799E-3	-12.7123E-3	-4.48066E-12	279.080E-3	5.46040E-3
-1.08304E-3	-4.41084E-12	253.119E-3	-26.2073E-3	-4.53796E-12	278.842E-3	-1.44732E-3
-1.08804E-3	-4.39434E-12	253.664E-3	-31.3381E-3	-4.53298E-12	317.918E-3	-4.30124E-3
-1.09305E-3	-4.52456E-12	266.160E-3	-24.5512E-3	-4.64832E-12	355.531E-3	-1.71517E-3
-1.09805E-3	-4.71316E-12	283.370E-3	-26.1714E-3	-4.71751E-12	361.473E-3	457.895E-6
-1.10305E-3	-4.81257E-12	300.750E-3	-26.1253E-3	-4.81824E-12	350.902E-3	121.103E-6
-1.10805E-3	-4.81454E-12	309.922E-3	-11.9091E-3	-4.83414E-12	342.823E-3	-11.6655E-3
-1.11306E-3	-4.96171E-12	317.908E-3	-8.31987E-3	-4.89656E-12	354.425E-3	-14.8475E-3
-1.11806E-3	-5.21421E-12	334.526E-3	4.90386E-3	-5.00187E-12	385.015E-3	-4.34588E-3
-1.12306E-3	-5.24083E-12	354.681E-3	23.6023E-3	-5.13393E-12	399.131E-3	-4.84706E-3
-1.12806E-3	-5.30168E-12	362.261E-3	-350.525E-6	-5.27609E-12	393.103E-3	-12.8337E-3
-1.13307E-3	-5.45929E-12	363.202E-3	-24.7323E-3	-5.35993E-12	395.031E-3	-17.6141E-3
-1.13807E-3	-5.70321E-12	365.800E-3	-7.23655E-3	-5.54421E-12	416.043E-3	-28.2793E-3
-1.14307E-3	-5.83043E-12	379.411E-3	3.40270E-3	-5.68559E-12	455.875E-3	-23.7057E-3
-1.14807E-3	-5.91067E-12	414.450E-3	-13.0881E-3	-5.91314E-12	486.137E-3	-249.738E-6
-1.15308E-3	-6.05559E-12	426.775E-3	-24.6443E-3	-6.08559E-12	494.071E-3	289.900E-6
-1.15808E-3	-6.21719E-12	411.654E-3	-29.5881E-3	-6.27312E-12	505.623E-3	-17.2782E-3
-1.16308E-3	-6.42765E-12	425.939E-3	-29.8761E-3	-6.51456E-12	534.228E-3	-19.4312E-3
-1.16808E-3	-6.57630E-12	462.650E-3	-19.1649E-3	-6.87749E-12	560.781E-3	-16.5741E-3
-1.17309E-3	-6.74204E-12	480.999E-3	-13.5494E-3	-7.01150E-12	567.951E-3	-19.5717E-3
-1.17809E-3	-6.91655E-12	497.131E-3	-23.1985E-3	-7.20732E-12	568.730E-3	-17.6561E-3
-1.18309E-3	-7.10216E-12	520.693E-3	-30.3570E-3	-7.41495E-12	579.959E-3	-28.2774E-3
-1.18809E-3	-7.28552E-12	528.602E-3	-21.5648E-3	-7.56575E-12	591.874E-3	-40.2358E-3
-1.19310E-3	-7.50958E-12	533.609E-3	-8.02020E-3	-7.64439E-12	603.845E-3	-31.9300E-3
-1.19810E-3	-7.65745E-12	555.458E-3	-6.74467E-3	-7.82107E-12	627.434E-3	-25.7664E-3
-1.20310E-3	-7.83468E-12	574.498E-3	-23.7103E-3	-7.89426E-12	635.168E-3	-28.6373E-3
-1.20810E-3	-8.01102E-12	589.671E-3	-30.6260E-3	-7.97068E-12	629.041E-3	-31.8762E-3
-1.21311E-3	-8.29260E-12	615.304E-3	-8.41370E-3	-8.08706E-12	656.876E-3	-32.4899E-3
-1.21811E-3	-8.51907E-12	635.995E-3	7.97524E-3	-8.26764E-12	703.809E-3	-30.0161E-3
-1.22311E-3	-8.56326E-12	656.588E-3	-2.33241E-3	-8.42107E-12	716.604E-3	-11.0863E-3
-1.22811E-3	-8.76543E-12	684.114E-3	-19.2509E-3	-8.58788E-12	709.060E-3	7.91858E-3
-1.23312E-3	-9.13627E-12	689.426E-3	-22.3621E-3	-8.79989E-12	710.642E-3	-12.5302E-3
-1.23812E-3	-9.33240E-12	671.532E-3	-13.7554E-3	-9.13946E-12	727.846E-3	-35.2306E-3
-1.24312E-3	-9.48922E-12	673.143E-3	1.46371E-3	-9.37601E-12	766.097E-3	-20.1802E-3
-1.24812E-3	-9.74224E-12	704.975E-3	11.3594E-3	-9.58233E-12	799.241E-3	-1.76331E-3
-1.25313E-3	-10.0934E-12	729.788E-3	-4.62864E-3	-9.91579E-12	813.327E-3	945.810E-6
-1.25813E-3	-10.3751E-12	730.702E-3	-19.8098E-3	-10.4170E-12	834.655E-3	2.16312E-3
-1.26313E-3	-10.5177E-12	736.103E-3	-13.5946E-3	-10.7618E-12	865.146E-3	352.164E-6
-1.26813E-3	-10.8000E-12	763.203E-3	-6.12626E-3	-11.0802E-12	890.200E-3	-51.6010E-6
-1.27314E-3	-11.2374E-12	796.886E-3	-8.09867E-3	-11.4275E-12	912.427E-3	5.20858E-3
-1.27814E-3	-11.5215E-12	821.053E-3	-23.9403E-3	-11.8733E-12	924.348E-3	-3.69761E-3
-1.28314E-3	-11.7771E-12	836.003E-3	-44.1051E-3	-12.1774E-12	922.158E-3	-22.9481E-3
-1.28814E-3	-12.0503E-12	850.485E-3	-42.0826E-3	-12.3310E-12	924.598E-3	-27.8540E-3
-1.29315E-3	-12.4183E-12	864.278E-3	-13.5825E-3	-12.5647E-12	939.800E-3	-24.6376E-3
-1.29815E-3	-12.7036E-12	873.898E-3	1.97375E-3	-12.9082E-12	949.143E-3	-21.4250E-3
-1.30315E-3	-12.9719E-12	889.266E-3	-15.2019E-3	-13.0314E-12	941.254E-3	-15.3252E-3
-1.30815E-3	-13.2965E-12	906.216E-3	-29.8950E-3	-13.1947E-12	938.921E-3	-22.3296E-3
-1.31316E-3	-13.5856E-12	910.191E-3	-26.9896E-3	-13.4184E-12	952.541E-3	-35.4146E-3
-1.31816E-3	-13.8732E-12	924.801E-3	-13.8358E-3	-13.6240E-12	964.882E-3	-20.0205E-3
-1.32316E-3	-14.1701E-12	962.468E-3	-8.10875E-3	-13.8438E-12	973.781E-3	3.62274E-3
-1.32816E-3	-14.5403E-12	981.601E-3	-26.1119E-3	-14.0291E-12	978.470E-3	-1.27237E-3
-1.33317E-3	-14.8345E-12	978.934E-3	-43.9526E-3	-14.3322E-12	982.642E-3	-14.1095E-3
-1.33817E-3	-15.1301E-12	991.637E-3	-35.0968E-3	-14.6772E-12	1.01112E+0	-22.0538E-3
-1.34317E-3	-15.3827E-12	1.00528E+0	-11.2932E-3	-14.9628E-12	1.04021E+0	-20.6039E-3
-1.34817E-3	-15.8556E-12	1.01192E+0	-6.20470E-3	-15.3093E-12	1.05124E+0	7.26838E-3
-1.35318E-3	-16.1187E-12	1.02984E+0	-12.5213E-3	-15.8122E-12	1.08071E+0	27.3595E-3
-1.35818E-3	-16.5445E-12	1.03368E+0	-9.09236E-3	-16.3430E-12	1.11494E+0	-1.96095E-3
-1.36318E-3	-16.9403E-12	1.02759E+0	-1.79322E-3	-17.0145E-12	1.13129E+0	-38.4447E-3
-1.36818E-3	-17.5521E-12	1.05051E+0	9.78401E-3	-17.5341E-12	1.15674E+0	-24.9976E-3
-1.37319E-3	-17.9310E-12	1.07502E+0	13.5424E-3	-18.1860E-12	1.18411E+0	10.5384E-3
-1.37819E-3	-18.0642E-12	1.08420E+0	-5.27074E-3	-18.7274E-12	1.17370E+0	16.1850E-3
-1.38319E-3	-18.6082E-12	1.10078E+0	-20.2334E-3	-19.1598E-12	1.15865E+0	-7.07265E-3
-1.38819E-3	-19.0562E-12	1.10901E+0	-20.8218E-3	-19.6170E-12	1.17543E+0	-32.4827E-3
-1.39320E-3	-19.3696E-12	1.11391E+0	-22.7294E-3	-20.0178E-12	1.18078E+0	-32.7999E-3
-1.39820E-3	-19.5047E-12	1.13303E+0	-12.0939E-3	-20.3639E-12	1.16067E+0	-15.4307E-3
-1.40320E-3	-19.8499E-12	1.14026E+0	1.79300E-3	-20.5941E-12	1.14882E+0	-14.1610E-3
-1.40820E-3	-20.2136E-12	1.12672E+0	-8.97495E-3	-20.6592E-12	1.14398E+0	-23.5245E-3
-1.41321E-3	-20.6375E-12	1.11614E+0	-19.3896E-3	-20.9314E-12	1.14183E+0	-23.4358E-3
-1.41821E-3	-20.8939E-12	1.12374E+0	-13.9583E-3	-21.1105E-12	1.16061E+0	-27.3913E-3
-1.42321E-3	-21.0157E-12	1.14179E+0	-16.1631E-3	-21.1611E-12	1.16867E+0	-35.4377E-3
-1.42821E-3	-21.6213E-12	1.16134E+0	-30.2098E-3	-21.2419E-12	1.14763E+0	-25.7918E-3
-1.43322E-3	-22.0482E-12	1.16978E+0	-31.3651E-3	-21.5344E-12	1.13535E+0	-26.5477E-3
-1.43822E-3	-22.4210E-12	1.15857E+0	-21.2249E-3	-21.7561E-12	1.14103E+0	-40.1957E-3
-1.44322E-3	-22.9374E-12	1.15214E+0	-18.2483E-3	-22.0069E-12	1.16387E+0	-29.8187E-3
-1.44822E-3	-23.4418E-12	1.15935E+0	-6.18202E-3	-22.3231E-12	1.19782E+0	-13.9869E-3
-1.45323E-3	-23.8545E-12	1.17083E+0	-3.25724E-3	-22.8689E-12	1.20728E+0	-8.36176E-3
-1.45823E-3	-24.2895E-12	1.18767E+0	-25.1055E-3	-23.4490E-12	1.20064E+0	-3.90139E-3
-1.46323E-3	-24.9502E-12	1.19800E+0	-28.4003E-3	-24.2058E-12	1.22455E+0	1.76735E-3
-1.46823E-3	-25.3033E-12	1.19352E+0	-14.6476E-3	-24.9037E-12	1.26215E+0	734.889E-6
-1.47324E-3	-25.5831E-12	1.20239E+0	-17.1649E-3	-25.6716E-12	1.26161E+0	-7.03613E-3
-1.47824E-3	-25.9872E-12	1.22413E+0	-22.3344E-3	-26.3399E-12	1.23849E+0	-18.9529E-3
-1.48324E-3	-26.4951E-12	1.22556E+0	-18.3100E-3	-27.0155E-12	1.23650E+0	-39.8469E-3
-1.48824E-3	-26.5860E-12	1.21181E+0	-14.6226E-3	-27.7897E-12	1.25766E+0	-53.0998E-3
-1.49325E-3	-26.7591E-12	1.19864E+0	-7.69611E-3	-28.3806E-12	1.27372E+0	-43.2120E-3
-1.49825E-3	-27.0244E-12	1.18753E+0	-10.2598E-3	-28.8126E-12	1.26097E+0	-29.0582E-3
-1.50325E-3	-27.4726E-12	1.18259E+0	-35.0989E-3	-29.0136E-12	1.22784E+0	-19.9974E-3
-1.50825E-3	-27.9072E-12	1.17841E+0	-51.9794E-3	-29.3563E-12	1.19661E+0	-10.0219E-3
-1.51326E-3	-28.0657E-12	1.16236E+0	-40.2885E-3	-29.5699E-12	1.17526E+0	-3.90314E-3
-1.51826E-3	-28.4700E-12	1.14996E+0	-25.2813E-3	-29.4033E-12	1.15512E+0	-39.5159E-6
-1.52326E-3	-29.0554E-12	1.15913E+0	-23.7105E-3	-29.2977E-12	1.15228E+0	12.6844E-3
-1.52826E-3	-29.6609E-12	1.17241E+0	-26.1428E-3	-29.4688E-12	1.15067E+0	10.7874E-3
-1.53327E-3	-29.8663E-12	1.17678E+0	-22.9922E-3	-29.7471E-12	1.11827E+0	-23.0083E-3
-1.53827E-3	-30.3864E-12	1.17841E+0	-9.92172E-3	-29.7894E-12	1.10698E+0	-43.0291E-3
-1.54327E-3	-31.1304E-12	1.19017E+0	-580.715E-6	-29.7056E-12	1.13300E+0	-32.9193E-3
-1.54827E-3	-31.6827E-12	1.19911E+0	-10.0046E-3	-30.1533E-12	1.13890E+0	-21.1633E-3
-1.55328E-3	-31.9793E-12	1.18927E+0	-26.8217E-3	-30.5473E-12	1.11574E+0	-20.2494E-3
-1.55828E-3	-32.3272E-12	1.18366E+0	-33.6113E-3	-30.9801E-12	1.11051E+0	-37.3774E-3
-1.56328E-3	-33.0093E-12	1.17366E+0	-34.3234E-3	-31.4964E-12	1.13075E+0	-45.2310E-3
-1.56828E-3	-33.4088E-12	1.16666E+0	-31.7331E-3	-32.2020E-12	1.14962E+0	-17.3888E-3
-1.57329E-3	-33.4976E-12	1.18340E+0	-22.4020E-3	-32.9963E-12	1.16794E+0	10.6594E-3
-1.57829E-3	-33.5439E-12	1.18751E+0	-24.4939E-3	-33.9111E-12	1.17225E+0	5.16129E-3
-1.58329E-3	-34.0587E-12	1.16662E+0	-31.5269E-3	-34.7454E-12	1.16289E+0	-14.1852E-3
-1.58829E-3	-34.2920E-12	1.13932E+0	-18.7716E-3	-35.4449E-12	1.17544E+0	-23.2936E-3
-1.59330E-3	-34.3283E-12	1.10877E+0	-2.69647E-3	-36.0704E-12	1.19406E+0	-24.7553E-3
-1.59830E-3	-34.7704E-12	1.09820E+0	-7.53939E-3	-36.7433E-12	1.18463E+0	-13.1430E-3
-1.60330E-3	-35.2621E-12	1.11644E+0	-22.7687E-3	-37.1608E-12	1.16062E+0	1.29862E-3
-1.60830E-3	-35.5694E-12	1.12911E+0	-30.4688E-3	-37.4550E-12	1.12637E+0	-13.2024E-3
-1.61331E-3	-35.9777E-12	1.12472E+0	-28.4742E-3	-37.4521E-12	1.08724E+0	-27.7306E-3
-1.61831E-3	-36.6659E-12	1.11699E+0	-16.9380E-3	-37.5103E-12	1.06849E+0	-22.4110E-3
-1.62331E-3	-37.0147E-12	1.10997E+0	-10.3459E-3	-37.6325E-12	1.06603E+0	-18.3973E-3
-1.62831E-3	-37.3832E-12	1.11032E+0	-22.7698E-3	-37.4885E-12	1.04822E+0	-8.36746E-3
-1.63332E-3	-38.0429E-12	1.11369E+0	-25.3202E-3	-37.3098E-12	1.02989E+0	-4.02618E-3
-1.63832E-3	-38.5828E-12	1.10100E+0	-3.81701E-3	-37.4272E-12	1.03666E+0	-16.7910E-3
-1.64332E-3	-38.9395E-12	1.09163E+0	5.18877E-3	-37.3612E-12	1.03678E+0	-12.0705E-3
-1.64832E-3	-39.1334E-12	1.09525E+0	-2.30343E-3	-37.5949E-12	1.02512E+0	9.73182E-3
-1.65333E-3	-39.5398E-12	1.09130E+0	-8.22675E-3	-37.6746E-12	1.01750E+0	-6.94569E-3
-1.65833E-3	-39.9083E-12	1.07767E+0	-24.3737E-3	-37.9839E-12	1.01235E+0	-47.5705E-3
-1.66333E-3	-40.0636E-12	1.06769E+0	-29.2240E-3	-38.4593E-12	1.02584E+0	-52.1829E-3
-1.66833E-3	-40.2804E-12	1.06130E+0	-8.98158E-3	-39.2904E-12	1.04873E+0	-39.0501E-3
-1.67334E-3	-40.4767E-12	1.05764E+0	-11.9876E-3	-39.7022E-12	1.04886E+0	-25.5928E-3
-1.67834E-3	-40.7029E-12	1.05971E+0	-42.8304E-3	-40.4274E-12	1.04394E+0	-3.94355E-3
-1.68334E-3	-40.9443E-12	1.04873E+0	-53.8916E-3	-41.2485E-12	1.05142E+0	-9.42470E-3
-1.68834E-3	-41.1683E-12	1.02999E+0	-40.2097E-3	-42.2160E-12	1.05523E+0	-35.0995E-3
-1.69335E-3	-41.5288E-12	1.02938E+0	-23.4641E-3	-42.8325E-12	1.07153E+0	-31.3788E-3
-1.69835E-3	-42.1665E-12	1.03530E+0	-9.91422E-3	-43.4713E-12	1.09750E+0	-11.7492E-3
-1.70335E-3	-42.5327E-12	1.02912E+0	-9.52482E-3	-44.3292E-12	1.08252E+0	-2.91480E-3
-1.70835E-3	-42.8956E-12	1.02717E+0	-20.8850E-3	-44.8883E-12	1.04043E+0	-1.59064E-3
-1.71336E-3	-43.5343E-12	1.03281E+0	-15.6049E-3	-45.1779E-12	1.02806E+0	-22.1257E-3
-1.71836E-3	-43.9844E-12	1.02810E+0	5.59042E-3	-45.3354E-12	1.03772E+0	-47.6824E-3
-1.72336E-3	-44.3746E-12	1.02946E+0	7.73701E-3	-45.3972E-12	1.02323E+0	-36.5824E-3
-1.72836E-3	-44.5534E-12	1.04360E+0	-10.1402E-3	-45.2766E-12	989.645E-3	-23.7708E-3
-1.73337E-3	-44.9403E-12	1.04677E+0	-22.1427E-3	-45.0555E-12	973.863E-3	-37.7943E-3
-1.73837E-3	-45.1340E-12	1.03061E+0	-19.6065E-3	-44.7907E-12	964.360E-3	-35.6796E-3
-1.74337E-3	-45.4141E-12	1.01553E+0	-5.80617E-3	-44.5203E-12	955.624E-3	-24.6396E-3
-1.74837E-3	-45.2859E-12	1.02084E+0	-532.305E-6	-44.3720E-12	944.607E-3	-38.7675E-3
-1.75338E-3	-45.6092E-12	1.02017E+0	-12.3949E-3	-44.4355E-12	917.829E-3	-42.3760E-3
-1.75838E-3	-45.8723E-12	988.489E-3	-19.7305E-3	-44.4543E-12	915.157E-3	-24.3407E-3
-1.76338E-3	-46.1106E-12	960.987E-3	-21.6268E-3	-44.7014E-12	933.449E-3	-25.4425E-3
-1.76838E-3	-46.0676E-12	965.436E-3	-25.9383E-3	-44.9925E-12	932.733E-3	-21.0676E-3
-1.77339E-3	-46.5659E-12	969.991E-3	-21.4312E-3	-45.5369E-12	940.812E-3	-5.96957E-3
-1.77839E-3	-47.1941E-12	960.976E-3	-15.7615E-3	-46.2573E-12	957.493E-3	-16.4383E-3
-1.78339E-3	-47.5259E-12	957.539E-3	-24.0065E-3	-47.2286E-12	958.868E-3	-25.1071E-3
-1.78839E-3	-48.0257E-12	950.884E-3	-29.1162E-3	-48.0667E-12	985.603E-3	-18.0492E-3
-1.79340E-3	-48.7870E-12	942.229E-3	-19.3971E-3	-49.0777E-12	1.02517E+0	-20.0605E-3
-1.79840E-3	-49.4432E-12	949.130E-3	-22.8512E-3	-50.1187E-12	1.00670E+0	-20.3194E-3
-1.80340E-3	-49.9782E-12	967.675E-3	-36.9668E-3	-51.3629E-12	967.324E-3	-1.95341E-3
-1.80840E-3	-50.2988E-12	974.324E-3	-41.3554E-3	-52.2702E-12	971.467E-3	4.81523E-3
-1.81341E-3	-50.9069E-12	956.932E-3	-32.8437E-3	-52.9478E-12	982.131E-3	-5.58621E-3
-1.81841E-3	-51.0798E-12	943.750E-3	-10.3399E-3	-53.3440E-12	987.641E-3	9.21783E-3
-1.82341E-3	-51.1023E-12	949.686E-3	5.82133E-3	-53.6887E-12	995.619E-3	30.0555E-3
-1.82841E-3	-51.0534E-12	956.237E-3	-940.395E-6	-53.6099E-12	964.236E-3	11.4087E-3
-1.83342E-3	-51.3412E-12	958.817E-3	-20.5260E-3	-53.2956E-12	916.040E-3	-19.4965E-3
-1.83842E-3	-51.0688E-12	939.782E-3	-23.5629E-3	-52.7426E-12	896.059E-3	-33.4627E-3
-1.84342E-3	-51.0178E-12	906.575E-3	-5.79690E-3	-52.1043E-12	881.548E-3	-36.5845E-3
-1.84842E-3	-51.1043E-12	899.496E-3	-329.756E-6	-51.4584E-12	867.391E-3	-28.2648E-3
-1.85343E-3	-51.1904E-12	902.377E-3	-13.2280E-3	-50.8532E-12	863.520E-3	-22.7661E-3
-1.85843E-3	-51.3511E-12	889.127E-3	-26.9859E-3	-50.4213E-12	848.547E-3	-29.2968E-3
-1.86343E-3	-51.5898E-12	880.456E-3	-36.9725E-3	-50.4340E-12	833.096E-3	-26.7836E-3
-1.86843E-3	-52.3282E-12	884.358E-3	-27.0513E-3	-50.1523E-12	849.311E-3	-18.7078E-3
-1.87344E-3	-52.9266E-12	885.736E-3	-17.1791E-3	-50.5023E-12	868.427E-3	-14.4639E-3
-1.87844E-3	-53.7334E-12	885.709E-3	-36.2388E-3	-51.3342E-12	875.193E-3	2.39978E-3
-1.88344E-3	-54.4234E-12	886.376E-3	-45.8782E-3	-52.1409E-12	892.134E-3	7.74784E-3
-1.88844E-3	-55.0496E-12	887.842E-3	-28.8890E-3	-52.6589E-12	903.153E-3	-26.5509E-3
-1.89345E-3	-55.7565E-12	897.402E-3	-9.08802E-3	-53.8410E-12	907.367E-3	-47.0273E-3
-1.89845E-3	-56.0359E-12	909.997E-3	-2.22682E-3	-55.1485E-12	925.471E-3	-29.6142E-3
-1.90345E-3	-56.1540E-12	909.500E-3	-14.2320E-3	-56.5389E-12	925.086E-3	-19.4753E-3
-1.90845E-3	-56.5500E-12	903.430E-3	-30.9866E-3	-57.1328E-12	899.014E-3	-13.2400E-3
-1.91346E-3	-56.8460E-12	900.989E-3	-25.9760E-3	-58.2509E-12	907.271E-3	-1.58820E-3
-1.91846E-3	-56.6442E-12	892.427E-3	-2.76467E-3	-59.4095E-12	932.202E-3	-6.77567E-3
-1.92346E-3	-56.5807E-12	887.728E-3	3.41968E-3	-59.8583E-12	908.120E-3	-10.7990E-3
-1.92846E-3	-56.6617E-12	892.040E-3	-12.3164E-3	-59.7949E-12	871.802E-3	-1.14657E-3
-1.93347E-3	-56.8148E-12	888.751E-3	-24.1371E-3	-59.6885E-12	863.421E-3	-10.0963E-3
-1.93847E-3	-56.9210E-12	881.629E-3	-20.8313E-3	-59.2747E-12	854.403E-3	-33.7360E-3
-1.94347E-3	-56.9778E-12	874.823E-3	-7.22855E-3	-58.7164E-12	846.171E-3	-32.9121E-3
-1.94847E-3	-57.3188E-12	870.584E-3	-340.950E-6	-57.9117E-12	851.123E-3	-17.2919E-3
-1.95348E-3	-57.9081E-12	867.908E-3	-3.94075E-3	-57.2120E-12	839.021E-3	-8.61611E-3
-1.95848E-3	-58.3137E-12	866.054E-3	-9.07206E-3	-56.6366E-12	796.934E-3	3.63180E-3
-1.96348E-3	-58.8545E-12	863.083E-3	-14.4730E-3	-56.1892E-12	781.598E-3	2.14526E-3
-1.96848E-3	-59.3795E-12	857.906E-3	-11.9960E-3	-56.0421E-12	796.451E-3	-18.1082E-3
-1.97349E-3	-59.9849E-12	862.328E-3	-1.01171E-3	-56.0719E-12	801.980E-3	-18.5432E-3
-1.97849E-3	-60.3210E-12	864.631E-3	-10.8829E-3	-56.2295E-12	815.076E-3	-3.22869E-3
-1.98349E-3	-60.7944E-12	850.878E-3	-33.4971E-3	-56.7042E-12	821.376E-3	-8.33490E-3
-1.98849E-3	-60.8984E-12	845.321E-3	-22.7334E-3	-57.4604E-12	818.991E-3	-26.2013E-3
-1.99350E-3	-61.2441E-12	854.964E-3	5.30731E-3	-58.5641E-12	833.589E-3	-42.3441E-3
-1.99850E-3	-61.3757E-12	858.794E-3	6.23573E-3	-59.6391E-12	856.712E-3	-51.7937E-3
-2.00350E-3	-61.4060E-12	861.476E-3	-13.5242E-3	-61.0107E-12	874.690E-3	-31.6435E-3
-2.00850E-3	-61.5074E-12	857.795E-3	-25.6035E-3	-62.1769E-12	885.303E-3	-8.53041E-3
-2.01351E-3	-61.5803E-12	831.527E-3	-29.5553E-3	-63.3484E-12	893.134E-3	-15.7085E-3
-2.01851E-3	-61.5551E-12	804.063E-3	-23.0171E-3	-64.6744E-12	891.238E-3	-25.3245E-3
-2.02351E-3	-61.7965E-12	806.748E-3	-11.7247E-3	-65.7438E-12	887.818E-3	-17.4939E-3
-2.02851E-3	-62.1294E-12	827.543E-3	-13.0561E-3	-66.0474E-12	882.101E-3	-3.67153E-3
-2.03352E-3	-62.3489E-12	836.977E-3	-28.9541E-3	-66.2710E-12	857.783E-3	918.186E-6
-2.03852E-3	-62.2468E-12	822.880E-3	-40.5676E-3	-65.8491E-12	834.646E-3	2.63000E-3
-2.04352E-3	-62.9727E-12	793.529E-3	-34.4092E-3	-65.7431E-12	822.513E-3	-994.751E-6
-2.04852E-3	-63.6158E-12	786.893E-3	-24.0300E-3	-65.0214E-12	808.556E-3	1.25720E-3
-2.05353E-3	-64.1179E-12	820.820E-3	-18.0945E-3	-64.2270E-12	794.122E-3	18.1762E-3
-2.05853E-3	-64.4330E-12	835.252E-3	-21.5999E-3	-63.4659E-12	777.156E-3	-3.05828E-3
-2.06353E-3	-64.4468E-12	814.093E-3	-18.8519E-3	-63.1321E-12	756.433E-3	-46.2453E-3
-2.06853E-3	-65.1208E-12	808.047E-3	1.78782E-3	-62.5964E-12	752.835E-3	-41.2508E-3
-2.07354E-3	-65.5783E-12	816.930E-3	2.54379E-3	-62.3574E-12	757.290E-3	-10.1692E-3
-2.07854E-3	-65.6541E-12	828.758E-3	-33.1068E-3	-62.2766E-12	743.717E-3	204.668E-6
-2.08354E-3	-65.5373E-12	833.091E-3	-51.2836E-3	-62.1008E-12	743.555E-3	-15.0059E-3
-2.08854E-3	-65.6013E-12	819.822E-3	-32.9127E-3	-62.4764E-12	771.173E-3	-37.2757E-3
-2.09355E-3	-65.6533E-12	807.950E-3	-16.8881E-3	-63.1416E-12	784.267E-3	-30.2027E-3
-2.09855E-3	-65.4964E-12	815.403E-3	-15.5202E-3	-63.6252E-12	787.813E-3	-4.61448E-3
-2.10355E-3	-65.2923E-12	819.558E-3	-14.8401E-3	-64.5244E-12	806.043E-3	-3.39767E-3
-2.10855E-3	-65.4558E-12	803.378E-3	-16.7992E-3	-65.8485E-12	819.473E-3	-17.6113E-3
-2.11356E-3	-65.6549E-12	789.381E-3	-35.3441E-3	-67.0746E-12	830.022E-3	-14.9801E-3
-2.11856E-3	-65.9651E-12	783.441E-3	-39.6045E-3	-68.1481E-12	849.194E-3	-6.68975E-3
-2.12356E-3	-66.2173E-12	782.067E-3	-20.8789E-3	-69.3126E-12	846.216E-3	-14.2817E-3
-2.12856E-3	-66.7076E-12	782.591E-3	-21.1511E-3	-70.3045E-12	820.553E-3	-15.8773E-3
-2.13357E-3	-67.1483E-12	772.573E-3	-32.2044E-3	-71.1383E-12	811.355E-3	-11.6986E-3
-2.13857E-3	-67.7620E-12	758.114E-3	-33.7040E-3	-71.3148E-12	807.968E-3	-16.7020E-3
-2.14357E-3	-68.4830E-12	762.254E-3	-19.7115E-3	-71.2461E-12	805.029E-3	-14.3796E-3
-2.14857E-3	-68.6476E-12	787.587E-3	7.54880E-3	-71.0831E-12	808.068E-3	-4.97922E-3
-2.15358E-3	-69.2880E-12	805.327E-3	2.95995E-3	-71.0630E-12	782.223E-3	-14.8188E-3
-2.15858E-3	-69.9821E-12	810.294E-3	-25.3817E-3	-70.5736E-12	748.158E-3	-28.3643E-3
-2.16358E-3	-70.2285E-12	798.672E-3	-22.5612E-3	-69.7097E-12	755.634E-3	-26.9830E-3
-2.16858E-3	-70.4581E-12	770.267E-3	-5.90648E-3	-69.2873E-12	771.560E-3	-31.8672E-3
-2.17359E-3	-70.2879E-12	765.285E-3	-12.6050E-3	-68.5529E-12	761.023E-3	-25.3390E-3
-2.17859E-3	-70.0005E-12	769.761E-3	-23.9470E-3	-67.7054E-12	750.335E-3	-1.81322E-3
-2.18359E-3	-69.9673E-12	758.081E-3	-22.5895E-3	-67.1968E-12	742.628E-3	-6.38147E-3
-2.18859E-3	-69.6571E-12	744.542E-3	-21.1357E-3	-67.5211E-12	730.433E-3	-32.0462E-3
-2.19360E-3	-69.8050E-12	738.217E-3	-22.0528E-3	-67.5569E-12	738.865E-3	-39.4595E-3
-2.19860E-3	-70.1441E-12	749.462E-3	-15.0855E-3	-67.3833E-12	766.945E-3	-28.0489E-3
-2.20360E-3	-70.1007E-12	772.010E-3	-12.0826E-3	-68.2122E-12	779.729E-3	-13.6438E-3
-2.20860E-3	-70.4113E-12	791.418E-3	-29.1162E-3	-69.5247E-12	778.914E-3	-8.64847E-3
-2.21361E-3	-71.3143E-12	793.226E-3	-41.7092E-3	-70.8662E-12	790.538E-3	-12.0128E-3
-2.21861E-3	-71.9619E-12	776.334E-3	-28.2657E-3	-72.3168E-12	800.881E-3	-23.2576E-3
-2.22361E-3	-72.1760E-12	770.890E-3	-3.32407E-3	-73.6037E-12	795.355E-3	-24.3807E-3
-2.22861E-3	-73.0986E-12	779.342E-3	3.59512E-3	-75.4048E-12	788.339E-3	-20.5435E-3
-2.23362E-3	-74.0637E-12	781.095E-3	-15.1822E-3	-76.4953E-12	785.521E-3	-31.9799E-3
-2.23862E-3	-74.8203E-12	779.364E-3	-26.2456E-3	-77.1943E-12	782.525E-3	-20.5185E-3
-2.24362E-3	-75.1840E-12	781.820E-3	-10.7740E-3	-78.0764E-12	793.786E-3	9.04082E-3
-2.24862E-3	-75.6308E-12	784.177E-3	-7.06873E-3	-78.5213E-12	809.665E-3	8.68607E-3
-2.25363E-3	-75.9098E-12	781.986E-3	-33.4036E-3	-78.5554E-12	793.710E-3	-9.33438E-3
-2.25863E-3	-76.0542E-12	785.776E-3	-51.9188E-3	-78.3487E-12	761.731E-3	-17.6130E-3
-2.26363E-3	-75.4767E-12	784.268E-3	-50.4859E-3	-77.6140E-12	738.912E-3	-12.7196E-3
-2.26863E-3	-75.1133E-12	775.940E-3	-35.2473E-3	-76.3164E-12	729.677E-3	8.73038E-3
-2.27364E-3	-75.1125E-12	776.468E-3	-14.1181E-3	-75.3496E-12	735.380E-3	19.8802E-3
-2.27864E-3	-75.0888E-12	767.661E-3	-3.54942E-3	-74.0908E-12	726.054E-3	901.367E-6
-2.28364E-3	-74.6014E-12	753.111E-3	-3.45648E-3	-73.3988E-12	700.751E-3	-16.0070E-3
-2.28864E-3	-74.5290E-12	744.117E-3	-2.89347E-3	-72.6154E-12	705.665E-3	-21.7573E-3
-2.29365E-3	-75.1729E-12	730.014E-3	2.44516E-3	-72.2142E-12	720.528E-3	-35.6971E-3
-2.29865E-3	-75.6103E-12	735.604E-3	487.348E-6	-72.2011E-12	710.461E-3	-32.3484E-3
-2.30365E-3	-76.0024E-12	755.856E-3	-11.3077E-3	-72.7726E-12	714.266E-3	-17.5869E-3
-2.30865E-3	-77.0117E-12	754.688E-3	-19.0607E-3	-73.5940E-12	742.285E-3	-34.0173E-3
-2.31366E-3	-77.6200E-12	742.649E-3	-20.5303E-3	-74.5642E-12	751.125E-3	-41.9271E-3
-2.31866E-3	-78.4992E-12	743.593E-3	-13.7963E-3	-76.0686E-12	758.657E-3	-16.1358E-3
-2.32366E-3	-78.8518E-12	756.859E-3	-2.64764E-3	-77.6154E-12	783.970E-3	6.26677E-3
-2.32866E-3	-79.7353E-12	769.558E-3	-9.29834E-3	-79.4182E-12	781.330E-3	8.17572E-3
-2.33367E-3	-79.9719E-12	779.903E-3	-27.5053E-3	-80.4940E-12	774.468E-3	-273.690E-6
-2.33867E-3	-80.3423E-12	777.447E-3	-34.2496E-3	-82.3815E-12	801.513E-3	-16.0818E-3
-2.34367E-3	-80.3883E-12	758.976E-3	-35.5323E-3	-83.3588E-12	810.021E-3	-30.9338E-3
-2.34867E-3	-80.0700E-12	754.543E-3	-22.4613E-3	-84.3033E-12	798.318E-3	-16.1639E-3
-2.35368E-3	-80.0879E-12	768.442E-3	9.29995E-3	-84.6318E-12	787.769E-3	-6.83936E-3
-2.35868E-3	-80.2246E-12	767.784E-3	13.1460E-3	-84.6920E-12	754.153E-3	-24.8467E-3
-2.36368E-3	-79.9276E-12	749.949E-3	-16.2259E-3	-83.8634E-12	729.094E-3	-21.5489E-3
-2.36868E-3	-79.4682E-12	732.182E-3	-29.5738E-3	-82.5499E-12	732.418E-3	-12.4468E-3
-2.37369E-3	-79.8472E-12	728.950E-3	-14.3276E-3	-81.4466E-12	712.686E-3	-31.3314E-3
-2.37869E-3	-80.2155E-12	749.233E-3	2.29457E-3	-79.7405E-12	684.419E-3	-36.7961E-3
-2.38369E-3	-80.2957E-12	764.262E-3	-4.39990E-3	-78.6048E-12	693.224E-3	-24.7889E-3
-2.38869E-3	-80.4847E-12	744.285E-3	-22.0727E-3	-77.6649E-12	693.936E-3	-31.1542E-3
-2.39370E-3	-80.7370E-12	712.403E-3	-21.2111E-3	-77.0750E-12	681.664E-3	-30.8945E-3
-2.39870E-3	-81.7209E-12	691.648E-3	-10.0959E-3	-76.9662E-12	702.136E-3	-24.0980E-3
-2.40370E-3	-82.4423E-12	687.813E-3	3.33064E-3	-77.1040E-12	713.866E-3	-30.3335E-3
-2.40870E-3	-82.6662E-12	705.951E-3	11.7944E-3	-77.6410E-12	699.458E-3	-27.7500E-3
-2.41371E-3	-82.9452E-12	727.898E-3	-7.90792E-3	-78.2672E-12	712.883E-3	-23.4955E-3
-2.41871E-3	-83.7863E-12	732.409E-3	-28.8968E-3	-79.5237E-12	737.002E-3	-30.6184E-3
-2.42371E-3	-83.9632E-12	737.963E-3	-21.9124E-3	-80.5304E-12	725.094E-3	-17.9233E-3
-2.42871E-3	-84.1601E-12	758.233E-3	-7.90299E-3	-82.0998E-12	724.324E-3	7.04703E-3
-2.43372E-3	-84.0463E-12	761.971E-3	-4.57429E-3	-83.2442E-12	748.795E-3	-4.56692E-3
-2.43872E-3	-83.5189E-12	735.820E-3	-7.83201E-3	-85.1048E-12	752.469E-3	-33.0110E-3
-2.44372E-3	-83.5918E-12	715.809E-3	-8.90605E-3	-86.7149E-12	763.756E-3	-32.4501E-3
-2.44872E-3	-83.4770E-12	720.198E-3	-8.08543E-3	-87.6877E-12	788.553E-3	-21.6608E-3
-2.45373E-3	-83.3655E-12	734.056E-3	-24.6167E-3	-88.5278E-12	778.085E-3	-6.95831E-3
-2.45873E-3	-82.8672E-12	746.359E-3	-45.9770E-3	-88.5926E-12	742.042E-3	8.69286E-3
-2.46373E-3	-83.2968E-12	737.462E-3	-43.7695E-3	-88.9502E-12	718.722E-3	-8.14166E-3
-2.46873E-3	-83.6162E-12	712.014E-3	-29.0373E-3	-88.2597E-12	710.095E-3	-27.8440E-3
-2.47374E-3	-83.9317E-12	699.483E-3	-7.22788E-3	-87.1404E-12	706.336E-3	-15.7484E-3
-2.47874E-3	-84.3246E-12	703.673E-3	6.21646E-3	-85.9641E-12	690.961E-3	-7.38824E-3
-2.48374E-3	-85.0328E-12	703.615E-3	232.326E-6	-85.3939E-12	671.094E-3	-29.5125E-3
-2.48874E-3	-85.9484E-12	690.390E-3	-7.21258E-3	-84.2059E-12	675.240E-3	-41.2607E-3
-2.49375E-3	-86.5272E-12	683.132E-3	-13.0050E-3	-83.2575E-12	689.893E-3	-27.1998E-3
-2.49875E-3	-87.0085E-12	698.470E-3	-24.1193E-3	-82.6164E-12	689.461E-3	-16.4815E-3
-2.50375E-3	-87.2823E-12	728.007E-3	-24.5734E-3	-82.6213E-12	682.195E-3	-9.26821E-3
-2.50875E-3	-87.5419E-12	730.951E-3	-12.2617E-3	-82.6618E-12	684.714E-3	-14.1806E-3
-2.51376E-3	-87.6790E-12	699.128E-3	-16.2915E-3	-83.1865E-12	687.719E-3	-26.1648E-3
-2.51876E-3	-87.2659E-12	687.618E-3	-19.5885E-3	-83.6377E-12	696.318E-3	-12.5541E-3
-2.52376E-3	-86.8310E-12	707.290E-3	-5.39465E-3	-84.4054E-12	707.908E-3	-1.15811E-3
-2.52876E-3	-86.5634E-12	719.357E-3	3.10093E-3	-85.4495E-12	702.905E-3	-9.69748E-3
-2.53377E-3	-86.5368E-12	717.723E-3	-5.36082E-3	-86.3485E-12	702.344E-3	214.277E-6
-2.53877E-3	-86.6441E-12	711.543E-3	-15.9075E-3	-88.0508E-12	730.378E-3	12.4168E-3
-2.54377E-3	-86.6408E-12	699.815E-3	-6.44972E-3	-89.4741E-12	753.336E-3	-4.98335E-3
-2.54877E-3	-86.6522E-12	688.299E-3	-385.925E-6	-90.6203E-12	746.773E-3	-12.6610E-3
-2.55378E-3	-87.3429E-12	687.588E-3	-14.3404E-3	-92.1776E-12	746.370E-3	-6.36850E-3
-2.55878E-3	-88.0769E-12	694.739E-3	-20.1711E-3	-93.4559E-12	746.105E-3	-16.0830E-3
-2.56378E-3	-88.6228E-12	696.194E-3	-17.5761E-3	-94.2910E-12	732.770E-3	-2.47705E-3
-2.56878E-3	-89.6746E-12	688.281E-3	-16.7918E-3	-93.9690E-12	731.960E-3	22.3198E-3
-2.57379E-3	-90.6195E-12	682.513E-3	-12.2638E-3	-94.3174E-12	734.515E-3	-1.66966E-3
-2.57879E-3	-91.2699E-12	688.674E-3	-5.18160E-3	-93.4412E-12	722.602E-3	-26.2939E-3
-2.58379E-3	-91.6266E-12	709.464E-3	-1.12589E-3	-92.9338E-12	710.733E-3	-14.5392E-3
-2.58879E-3	-91.9630E-12	729.931E-3	-7.43474E-3	-91.9381E-12	700.123E-3	-10.1737E-3
-2.59380E-3	-92.0655E-12	729.597E-3	-29.9163E-3	-90.7001E-12	673.335E-3	-7.20247E-3
-2.59880E-3	-92.4503E-12	727.360E-3	-35.7750E-3	-89.5079E-12	658.332E-3	15.6074E-3
-2.60380E-3	-92.4344E-12	731.827E-3	-22.7443E-3	-88.5060E-12	665.902E-3	20.4965E-3
-2.60880E-3	-92.0053E-12	723.030E-3	-33.6307E-3	-88.3478E-12	656.298E-3	5.50206E-3
-2.61381E-3	-91.7957E-12	694.064E-3	-55.2834E-3	-87.6439E-12	650.467E-3	2.08569E-3
-2.61881E-3	-91.6557E-12	672.578E-3	-55.8945E-3	-87.4165E-12	680.302E-3	-7.39828E-3
-2.62381E-3	-91.3689E-12	688.617E-3	-48.8272E-3	-87.8337E-12	696.767E-3	-23.0023E-3
-2.62881E-3	-90.9940E-12	710.057E-3	-48.1749E-3	-88.5776E-12	686.269E-3	-23.4785E-3
-2.63382E-3	-91.2278E-12	704.187E-3	-42.4884E-3	-89.6512E-12	695.370E-3	-23.1801E-3
-2.63882E-3	-91.9821E-12	687.273E-3	-32.2288E-3	-90.8072E-12	706.187E-3	-27.3933E-3
-2.64382E-3	-92.3771E-12	685.686E-3	-24.7635E-3	-92.1595E-12	697.662E-3	-23.1875E-3
-2.64882E-3	-93.3271E-12	690.099E-3	-22.4433E-3	-94.2099E-12	711.400E-3	-25.3167E-3
-2.65383E-3	-94.2099E-12	698.443E-3	-13.1431E-3	-95.9209E-12	734.864E-3	-43.2687E-3
-2.65883E-3	-94.8995E-12	713.815E-3	-1.27918E-3	-97.4259E-12	738.681E-3	-47.0789E-3
-2.66383E-3	-95.1227E-12	715.108E-3	-9.48186E-3	-98.8202E-12	739.242E-3	-25.2808E-3
-2.66883E-3	-96.1522E-12	699.761E-3	-14.9200E-3	-99.7889E-12	737.597E-3	-895.465E-6
-2.67384E-3	-96.4066E-12	684.109E-3	-9.22329E-3	-100.232E-12	725.363E-3	24.1927E-3
-2.67884E-3	-96.2910E-12	695.245E-3	-12.3534E-3	-99.8883E-12	708.712E-3	19.6277E-3
-2.68384E-3	-96.2104E-12	716.617E-3	-24.3601E-3	-99.1505E-12	698.879E-3	-24.7004E-3
-2.68884E-3	-96.4100E-12	720.550E-3	-31.8239E-3	-97.9790E-12	702.008E-3	-51.9992E-3
-2.69385E-3	-96.2874E-12	718.575E-3	-18.7558E-3	-96.7696E-12	713.964E-3	-51.8340E-3
-2.69885E-3	-95.9295E-12	707.393E-3	-9.29644E-3	-95.4855E-12	710.398E-3	-44.5478E-3
-2.70385E-3	-95.3380E-12	702.709E-3	-12.5516E-3	-93.9386E-12	684.688E-3	-23.8747E-3
-2.70885E-3	-94.9691E-12	711.371E-3	-10.2995E-3	-93.2632E-12	674.967E-3	8.04428E-3
-2.71386E-3	-94.8551E-12	705.908E-3	-25.0303E-3	-92.4743E-12	676.296E-3	14.1861E-3
-2.71886E-3	-94.8582E-12	697.122E-3	-43.3193E-3	-92.1009E-12	663.546E-3	-2.68176E-3
-2.72386E-3	-94.9737E-12	695.420E-3	-25.4682E-3	-91.6955E-12	677.226E-3	-7.47251E-3
-2.72886E-3	-95.7613E-12	686.052E-3	5.67432E-3	-92.2135E-12	701.347E-3	-12.4091E-3
-2.73387E-3	-96.4605E-12	687.928E-3	-7.98941E-3	-93.2168E-12	689.053E-3	-20.1065E-3
-2.73887E-3	-97.3036E-12	687.574E-3	-55.2311E-3	-94.7287E-12	680.910E-3	-12.6432E-3
-2.74387E-3	-98.4817E-12	666.282E-3	-53.5653E-3	-95.6027E-12	704.610E-3	-15.6323E-3
-2.74887E-3	-99.2006E-12	659.506E-3	-21.4180E-3	-97.5219E-12	714.436E-3	-13.9486E-3
-2.75388E-3	-100.079E-12	681.477E-3	-5.73584E-3	-99.8222E-12	715.719E-3	18.0413E-3
-2.75888E-3	-100.484E-12	709.004E-3	4.63497E-3	-101.557E-12	735.893E-3	15.1492E-3
-2.76388E-3	-100.815E-12	711.236E-3	2.47907E-3	-102.956E-12	734.136E-3	-15.1587E-3
-2.76888E-3	-100.707E-12	706.874E-3	-4.93162E-3	-104.030E-12	709.875E-3	-8.41805E-3
-2.77389E-3	-100.482E-12	718.160E-3	2.34730E-3	-104.892E-12	705.451E-3	-4.03709E-3
-2.77889E-3	-99.9061E-12	725.353E-3	16.4526E-3	-104.936E-12	704.164E-3	-22.5657E-3
-2.78389E-3	-99.7206E-12	721.446E-3	15.6884E-3	-104.900E-12	703.549E-3	-21.7088E-3
-2.78889E-3	-99.3350E-12	705.047E-3	12.7550E-3	-104.323E-12	717.758E-3	-12.0461E-3
-2.79390E-3	-98.2919E-12	680.712E-3	9.05384E-3	-103.399E-12	709.187E-3	-23.3796E-3
-2.79890E-3	-98.3514E-12	680.710E-3	-3.63089E-3	-102.155E-12	676.563E-3	-28.0838E-3
-2.80390E-3	-98.1506E-12	705.747E-3	-23.3149E-3	-101.272E-12	664.970E-3	-17.7287E-3
-2.80890E-3	-98.4227E-12	718.034E-3	-45.9748E-3	-99.9272E-12	659.824E-3	-25.2189E-3
-2.81391E-3	-98.7213E-12	709.630E-3	-50.7043E-3	-98.7804E-12	648.768E-3	-36.4181E-3
-2.81891E-3	-99.4010E-12	689.905E-3	-40.3797E-3	-98.0668E-12	660.900E-3	-36.0876E-3
-2.82391E-3	-100.184E-12	671.041E-3	-18.9564E-3	-98.0010E-12	666.712E-3	-41.5457E-3
-2.82891E-3	-102.081E-12	664.870E-3	-3.33902E-3	-97.9150E-12	650.145E-3	-38.9958E-3
-2.83392E-3	-103.098E-12	675.439E-3	-15.7858E-3	-98.2080E-12	653.220E-3	-29.9625E-3
-2.83892E-3	-103.663E-12	692.420E-3	-37.8315E-3	-99.0207E-12	675.048E-3	-43.0952E-3
-2.84392E-3	-104.528E-12	698.169E-3	-45.4856E-3	-99.9752E-12	681.930E-3	-49.1104E-3
-2.84892E-3	-105.411E-12	708.343E-3	-46.4342E-3	-101.603E-12	694.073E-3	-26.9625E-3
-2.85393E-3	-105.820E-12	724.527E-3	-39.8404E-3	-102.863E-12	715.677E-3	-15.8069E-3
-2.85893E-3	-105.854E-12	721.945E-3	-33.3739E-3	-104.083E-12	709.240E-3	-29.5167E-3
-2.86393E-3	-105.344E-12	709.123E-3	-51.9822E-3	-105.676E-12	703.237E-3	-36.5538E-3
-2.86893E-3	-104.785E-12	701.037E-3	-58.6010E-3	-107.475E-12	717.471E-3	-38.3919E-3
-2.87394E-3	-104.174E-12	691.163E-3	-30.5621E-3	-108.345E-12	708.471E-3	-38.7095E-3
-2.87894E-3	-103.729E-12	683.375E-3	-7.24944E-3	-109.106E-12	690.914E-3	-11.0682E-3
-2.88394E-3	-103.027E-12	683.025E-3	-5.04456E-3	-109.257E-12	706.484E-3	9.81151E-3
-2.88894E-3	-102.464E-12	671.167E-3	-19.6351E-3	-109.209E-12	712.709E-3	4.80178E-3
-2.89395E-3	-102.505E-12	656.017E-3	-30.2568E-3	-108.914E-12	696.298E-3	7.57130E-3
-2.89895E-3	-103.044E-12	658.284E-3	-15.7487E-3	-107.651E-12	708.291E-3	8.84921E-3
-2.90395E-3	-103.500E-12	672.500E-3	5.88748E-3	-106.459E-12	706.909E-3	6.74222E-3
-2.90895E-3	-104.082E-12	684.156E-3	8.26577E-3	-105.476E-12	668.174E-3	5.66000E-3
-2.91396E-3	-104.610E-12	677.809E-3	-6.84757E-3	-105.251E-12	654.874E-3	-18.7720E-3
-2.91896E-3	-105.977E-12	661.219E-3	-8.91216E-3	-103.938E-12	657.023E-3	-41.1223E-3
-2.92396E-3	-106.805E-12	649.546E-3	-9.78126E-3	-102.899E-12	650.624E-3	-20.8464E-3
-2.92896E-3	-107.487E-12	649.740E-3	-28.6897E-3	-102.161E-12	649.315E-3	5.95260E-3
-2.93397E-3	-107.732E-12	665.130E-3	-33.4391E-3	-102.633E-12	641.315E-3	2.28556E-3
-2.93897E-3	-108.051E-12	675.341E-3	-22.5110E-3	-102.711E-12	639.286E-3	4.21859E-3
-2.94397E-3	-108.365E-12	679.288E-3	-10.1859E-3	-102.715E-12	670.852E-3	20.7219E-3
-2.94897E-3	-108.469E-12	686.869E-3	-1.46834E-3	-103.213E-12	680.868E-3	4.06565E-3
-2.95398E-3	-108.028E-12	692.464E-3	-2.16843E-3	-104.614E-12	652.325E-3	-16.4519E-3
-2.95898E-3	-108.046E-12	704.852E-3	-4.68464E-3	-105.969E-12	658.755E-3	-13.7878E-3
-2.96398E-3	-107.951E-12	704.780E-3	-10.8485E-3	-107.400E-12	700.732E-3	-32.5893E-3
-2.96898E-3	-107.778E-12	686.557E-3	-33.1574E-3	-108.763E-12	717.487E-3	-44.3414E-3
-2.97399E-3	-107.488E-12	674.709E-3	-42.5905E-3	-110.177E-12	724.844E-3	-29.3465E-3
-2.97899E-3	-107.741E-12	676.168E-3	-32.7063E-3	-111.885E-12	735.202E-3	-28.2103E-3
-2.98399E-3	-107.911E-12	681.747E-3	-38.6227E-3	-112.806E-12	704.450E-3	-33.1267E-3
-2.98899E-3	-107.912E-12	687.446E-3	-37.0362E-3	-113.321E-12	675.503E-3	-18.8119E-3
-2.99400E-3	-107.952E-12	686.168E-3	-22.5845E-3	-112.743E-12	685.848E-3	-21.8887E-3
-2.99900E-3	-108.816E-12	676.737E-3	-19.3375E-3	-113.242E-12	683.254E-3	-36.1900E-3
-3.00400E-3	-109.339E-12	679.539E-3	-21.1346E-3	-112.964E-12	668.895E-3	-3.02522E-3
-3.00900E-3	-109.673E-12	688.847E-3	-29.9444E-3	-112.250E-12	676.908E-3	16.1528E-3
-3.01401E-3	-110.336E-12	682.840E-3	-31.1674E-3	-111.338E-12	662.879E-3	3.56103E-3
-3.01901E-3	-110.728E-12	669.097E-3	-24.4139E-3	-109.980E-12	625.704E-3	12.6729E-3
-3.02401E-3	-111.046E-12	666.704E-3	-30.6580E-3	-108.954E-12	623.129E-3	10.8093E-3
-3.02901E-3	-111.154E-12	680.783E-3	-27.9797E-3	-107.967E-12	623.275E-3	-12.1647E-3
-3.03402E-3	-111.500E-12	705.633E-3	-13.1038E-3	-107.355E-12	625.926E-3	-20.3982E-3
-3.03902E-3	-111.360E-12	712.605E-3	-8.81999E-3	-106.583E-12	652.797E-3	-5.79461E-3
-3.04402E-3	-111.114E-12	701.068E-3	-5.76527E-3	-105.932E-12	654.428E-3	1.92065E-3
-3.04902E-3	-111.313E-12	699.151E-3	-590.994E-6	-106.474E-12	646.237E-3	948.242E-6
-3.05403E-3	-111.708E-12	704.193E-3	-5.97880E-3	-107.625E-12	661.547E-3	-4.73219E-3
-3.05903E-3	-112.111E-12	700.899E-3	-15.1217E-3	-108.730E-12	672.469E-3	-37.4907E-3
-3.06403E-3	-112.367E-12	687.049E-3	-29.1667E-3	-109.788E-12	675.369E-3	-51.9283E-3
-3.06903E-3	-112.954E-12	675.480E-3	-39.8326E-3	-111.643E-12	694.007E-3	-42.6514E-3
-3.07404E-3	-113.616E-12	676.166E-3	-21.5552E-3	-113.405E-12	712.282E-3	-48.1610E-3
-3.07904E-3	-114.606E-12	673.730E-3	-5.51473E-3	-115.533E-12	705.319E-3	-36.5337E-3
-3.08404E-3	-114.633E-12	664.307E-3	-21.1582E-3	-116.966E-12	698.126E-3	-31.4886E-3
-3.08904E-3	-115.020E-12	663.045E-3	-24.2470E-3	-118.720E-12	699.413E-3	-42.3866E-3
-3.09405E-3	-115.563E-12	669.573E-3	-4.84508E-3	-119.473E-12	688.282E-3	-18.9573E-3
-3.09905E-3	-115.581E-12	679.423E-3	-5.00235E-3	-119.669E-12	680.677E-3	3.69150E-3
-3.10405E-3	-115.197E-12	689.747E-3	-16.9806E-3	-119.382E-12	684.405E-3	-14.0401E-3
-3.10905E-3	-115.385E-12	690.583E-3	-30.3692E-3	-118.855E-12	681.924E-3	-24.8721E-3
-3.11406E-3	-115.338E-12	682.727E-3	-40.9623E-3	-117.823E-12	674.464E-3	-7.78363E-3
-3.11906E-3	-115.146E-12	677.652E-3	-23.0438E-3	-116.552E-12	667.286E-3	-15.1583E-3
-3.12406E-3	-114.686E-12	676.935E-3	14.4364E-3	-115.538E-12	662.185E-3	-30.3188E-3
-3.12906E-3	-114.296E-12	684.556E-3	36.2109E-3	-114.310E-12	656.838E-3	-16.6858E-3
-3.13407E-3	-114.033E-12	698.166E-3	28.1764E-3	-112.941E-12	655.102E-3	-12.7125E-3
-3.13907E-3	-113.880E-12	703.752E-3	6.54606E-3	-112.116E-12	655.616E-3	-19.8026E-3
-3.14407E-3	-113.784E-12	690.167E-3	-7.37252E-3	-112.228E-12	656.675E-3	-13.5702E-3
-3.14907E-3	-113.841E-12	672.740E-3	-10.0783E-3	-112.231E-12	664.971E-3	-25.9295E-3
-3.15408E-3	-114.494E-12	666.956E-3	-11.7249E-3	-112.423E-12	662.820E-3	-48.4084E-3
-3.15908E-3	-115.515E-12	656.857E-3	-23.9121E-3	-113.033E-12	660.027E-3	-30.2300E-3
-3.16408E-3	-116.616E-12	650.526E-3	-35.4152E-3	-114.773E-12	687.573E-3	-19.0534E-3
-3.16908E-3	-117.446E-12	654.794E-3	-34.6465E-3	-116.057E-12	703.513E-3	-36.1262E-3
-3.17409E-3	-118.521E-12	660.449E-3	-24.9341E-3	-117.750E-12	687.137E-3	-20.1362E-3
-3.17909E-3	-119.513E-12	673.583E-3	-4.71921E-3	-119.505E-12	694.452E-3	5.10778E-3
-3.18409E-3	-119.757E-12	685.929E-3	15.5217E-3	-121.437E-12	715.248E-3	-13.1617E-3
-3.18909E-3	-120.269E-12	690.635E-3	13.1599E-3	-122.693E-12	725.032E-3	-30.7888E-3
-3.19410E-3	-120.514E-12	694.777E-3	1.09733E-3	-124.054E-12	732.536E-3	-18.3928E-3
-3.19910E-3	-120.701E-12	686.770E-3	7.84374E-3	-124.444E-12	712.169E-3	-17.4115E-3
-3.20410E-3	-120.065E-12	678.417E-3	23.4773E-3	-124.345E-12	677.250E-3	-16.6023E-3
-3.20910E-3	-119.735E-12	671.511E-3	22.4227E-3	-124.022E-12	673.892E-3	-7.64708E-3
-3.21411E-3	-119.529E-12	669.517E-3	4.61129E-3	-123.667E-12	694.418E-3	-4.57879E-3
-3.21911E-3	-118.708E-12	672.369E-3	-5.03467E-3	-121.881E-12	692.949E-3	-4.01816E-3
-3.22411E-3	-118.229E-12	658.907E-3	4.17765E-3	-120.856E-12	671.948E-3	-15.3900E-3
-3.22911E-3	-117.610E-12	650.287E-3	3.45091E-3	-119.522E-12	651.560E-3	-28.3528E-3
-3.23412E-3	-117.877E-12	655.004E-3	-8.07776E-3	-118.231E-12	637.926E-3	-30.2807E-3
-3.23912E-3	-117.785E-12	654.847E-3	-16.0268E-3	-116.753E-12	646.419E-3	-34.6713E-3
-3.24412E-3	-118.571E-12	640.266E-3	-19.6468E-3	-116.199E-12	646.332E-3	-41.9897E-3
-3.24912E-3	-118.866E-12	628.392E-3	-26.6682E-3	-115.892E-12	626.400E-3	-25.3360E-3
-3.25413E-3	-120.262E-12	648.422E-3	-27.9495E-3	-116.227E-12	636.257E-3	-1.09623E-3
-3.25913E-3	-120.826E-12	681.493E-3	-10.4900E-3	-116.666E-12	642.189E-3	2.92941E-3
-3.26413E-3	-122.423E-12	687.255E-3	-20.9718E-3	-117.535E-12	627.056E-3	5.69717E-3
-3.26913E-3	-122.910E-12	682.396E-3	-47.4258E-3	-118.415E-12	646.458E-3	6.73746E-3
-3.27414E-3	-124.008E-12	685.647E-3	-36.2657E-3	-120.000E-12	678.505E-3	-10.1739E-3
-3.27914E-3	-124.470E-12	680.406E-3	-17.7449E-3	-121.049E-12	689.903E-3	-18.4716E-3
-3.28414E-3	-124.772E-12	670.745E-3	-24.8152E-3	-122.552E-12	691.950E-3	-3.19967E-3
-3.28914E-3	-124.633E-12	686.314E-3	-45.1577E-3	-124.346E-12	694.492E-3	-6.13395E-3
-3.29415E-3	-125.103E-12	713.329E-3	-45.3773E-3	-125.700E-12	697.551E-3	-26.6922E-3
-3.29915E-3	-123.931E-12	719.638E-3	-10.2191E-3	-126.783E-12	699.106E-3	-26.3236E-3
-3.30415E-3	-123.188E-12	704.736E-3	5.89029E-3	-127.011E-12	709.156E-3	-24.8328E-3
-3.30915E-3	-122.830E-12	693.453E-3	-8.65914E-3	-127.620E-12	710.640E-3	-33.1829E-3
-3.31416E-3	-123.156E-12	697.456E-3	-13.0230E-3	-127.588E-12	692.435E-3	-29.7947E-3
-3.31916E-3	-121.993E-12	684.958E-3	-11.9396E-3	-127.460E-12	682.881E-3	-24.0602E-3
-3.32416E-3	-121.972E-12	659.446E-3	-17.5013E-3	-127.099E-12	676.873E-3	-22.4389E-3
-3.32916E-3	-122.166E-12	651.834E-3	-24.6994E-3	-126.358E-12	663.781E-3	-6.02831E-3
-3.33417E-3	-122.513E-12	653.028E-3	-29.9119E-3	-125.339E-12	660.562E-3	-11.1538E-3
-3.33917E-3	-122.442E-12	646.773E-3	-29.8941E-3	-124.334E-12	642.593E-3	-48.8377E-3
-3.34417E-3	-123.574E-12	642.674E-3	-29.4459E-3	-123.813E-12	609.964E-3	-50.3549E-3
-3.34917E-3	-124.150E-12	643.638E-3	-35.4982E-3	-122.732E-12	610.525E-3	-21.3241E-3
-3.35418E-3	-125.615E-12	647.527E-3	-37.9458E-3	-122.399E-12	619.790E-3	-7.42237E-3
-3.35918E-3	-126.457E-12	659.211E-3	-31.6306E-3	-122.008E-12	613.296E-3	-2.44045E-3
-3.36418E-3	-126.711E-12	672.517E-3	-21.3588E-3	-122.282E-12	629.996E-3	6.23144E-3
-3.36918E-3	-127.277E-12	681.754E-3	-13.6164E-3	-122.109E-12	653.980E-3	146.057E-6
-3.37419E-3	-128.332E-12	672.809E-3	-11.9240E-3	-122.495E-12	647.331E-3	-394.941E-6
-3.37919E-3	-128.524E-12	652.135E-3	-8.04802E-3	-123.462E-12	647.656E-3	17.8208E-3
-3.38419E-3	-128.562E-12	654.507E-3	8.06597E-3	-124.767E-12	673.052E-3	-752.555E-6
-3.38919E-3	-128.903E-12	672.381E-3	21.0666E-3	-125.878E-12	696.197E-3	-33.3945E-3
-3.39420E-3	-128.797E-12	675.191E-3	16.0172E-3	-127.582E-12	720.022E-3	-29.1690E-3
-3.39920E-3	-128.375E-12	666.085E-3	6.04667E-3	-129.213E-12	730.340E-3	-21.3691E-3
-3.40420E-3	-127.731E-12	667.196E-3	-1.59598E-3	-131.115E-12	702.667E-3	-28.7022E-3
-3.40920E-3	-128.137E-12	681.973E-3	-6.21736E-3	-132.192E-12	686.369E-3	-30.5061E-3
-3.41421E-3	-127.604E-12	684.357E-3	-22.5977E-3	-133.179E-12	706.490E-3	-17.1920E-3
-3.41921E-3	-127.801E-12	668.491E-3	-37.7987E-3	-133.931E-12	700.875E-3	-12.3890E-3
-3.42421E-3	-128.019E-12	650.516E-3	-33.0826E-3	-133.550E-12	683.410E-3	-16.2358E-3
-3.42921E-3	-128.610E-12	649.418E-3	-16.6452E-3	-133.111E-12	683.891E-3	-3.41993E-3
-3.43422E-3	-128.776E-12	671.851E-3	-1.54994E-3	-132.652E-12	669.545E-3	2.52749E-3
-3.43922E-3	-129.014E-12	692.694E-3	-18.9198E-3	-131.198E-12	662.873E-3	-9.84257E-3
-3.44422E-3	-129.522E-12	700.653E-3	-33.3217E-3	-130.320E-12	666.484E-3	-22.2793E-3
-3.44922E-3	-130.512E-12	687.799E-3	-8.35588E-3	-129.624E-12	652.744E-3	-13.6837E-3
-3.45423E-3	-129.960E-12	667.272E-3	3.15201E-3	-128.514E-12	639.547E-3	10.6818E-3
-3.45923E-3	-130.592E-12	668.948E-3	-7.79119E-3	-127.291E-12	650.398E-3	5.92038E-3
-3.46423E-3	-130.995E-12	669.123E-3	-12.0966E-3	-126.676E-12	657.942E-3	-13.1836E-3
-3.46923E-3	-131.005E-12	657.869E-3	-12.7772E-3	-126.558E-12	649.759E-3	-2.25421E-3
-3.47424E-3	-131.063E-12	658.685E-3	-20.6851E-3	-126.924E-12	656.073E-3	12.7444E-3
-3.47924E-3	-131.354E-12	661.217E-3	-20.9412E-3	-127.301E-12	656.499E-3	5.37381E-3
-3.48424E-3	-131.687E-12	655.404E-3	-6.57262E-3	-127.938E-12	637.489E-3	-5.47212E-3
-3.48924E-3	-131.738E-12	647.026E-3	12.5815E-6	-129.550E-12	646.369E-3	-5.57437E-3
-3.49425E-3	-131.742E-12	644.501E-3	-9.80057E-3	-130.299E-12	665.118E-3	-20.3054E-3
-3.49925E-3	-132.088E-12	645.355E-3	-28.7206E-3	-131.847E-12	664.760E-3	-30.1773E-3
-3.50425E-3	-132.334E-12	635.031E-3	-39.2222E-3	-133.022E-12	683.161E-3	-13.3825E-3
-3.50925E-3	-132.393E-12	631.173E-3	-36.7305E-3	-134.448E-12	704.589E-3	-16.8008E-3
-3.51426E-3	-132.586E-12	644.531E-3	-31.2695E-3	-135.360E-12	702.460E-3	-29.2560E-3
-3.51926E-3	-133.299E-12	642.017E-3	-29.4739E-3	-136.559E-12	695.353E-3	-18.9434E-3
-3.52426E-3	-134.133E-12	627.990E-3	-20.4164E-3	-136.853E-12	677.830E-3	-13.0900E-3
-3.52926E-3	-134.286E-12	640.740E-3	-6.68858E-3	-137.602E-12	642.850E-3	-19.5411E-3
-3.53427E-3	-135.009E-12	658.401E-3	-9.17745E-3	-137.200E-12	625.337E-3	-14.0897E-3
-3.53927E-3	-135.199E-12	670.342E-3	-20.5666E-3	-136.269E-12	625.683E-3	-2.82586E-3
-3.54427E-3	-134.866E-12	698.111E-3	-22.2439E-3	-135.115E-12	618.713E-3	3.46099E-3
-3.54927E-3	-134.213E-12	695.707E-3	-19.0770E-3	-133.937E-12	625.096E-3	5.57232E-3
-3.55428E-3	-134.233E-12	666.959E-3	-22.9945E-3	-132.741E-12	637.288E-3	-6.17017E-3
-3.55928E-3	-133.405E-12	664.984E-3	-25.6737E-3	-131.491E-12	622.523E-3	-16.0737E-3
-3.56428E-3	-133.051E-12	664.929E-3	-19.7373E-3	-130.791E-12	609.176E-3	-6.80675E-3
-3.56928E-3	-132.554E-12	653.483E-3	-16.1067E-3	-130.362E-12	620.995E-3	3.81791E-3
-3.57429E-3	-132.965E-12	653.357E-3	-11.5562E-3	-129.666E-12	632.546E-3	5.44367E-3
-3.57929E-3	-132.989E-12	650.958E-3	6.65815E-3	-130.159E-12	634.405E-3	7.18167E-3
-3.58429E-3	-133.444E-12	632.497E-3	10.9231E-3	-131.792E-12	637.910E-3	-988.438E-6
-3.58929E-3	-133.650E-12	617.698E-3	-21.7249E-3	-132.745E-12	639.744E-3	-15.8052E-3
-3.59430E-3	-134.424E-12	625.043E-3	-42.5263E-3	-133.853E-12	649.809E-3	-3.41652E-3
-3.59930E-3	-135.622E-12	646.250E-3	-23.7019E-3	-136.020E-12	683.092E-3	11.2763E-3
-3.60430E-3	-136.430E-12	663.771E-3	1.22894E-3	-138.128E-12	689.750E-3	3.25267E-3
-3.60930E-3	-137.845E-12	670.308E-3	17.5117E-3	-139.943E-12	672.874E-3	-13.5980E-3
-3.61431E-3	-137.968E-12	655.400E-3	18.4605E-3	-141.594E-12	691.358E-3	-26.7222E-3
-3.61931E-3	-138.898E-12	637.644E-3	13.5566E-3	-142.439E-12	707.486E-3	-19.3831E-3
-3.62431E-3	-139.555E-12	647.058E-3	13.3848E-3	-143.291E-12	690.612E-3	-224.959E-6
-3.62931E-3	-139.519E-12	668.145E-3	21.0042E-3	-143.274E-12	681.132E-3	6.10983E-3
-3.63432E-3	-139.221E-12	675.775E-3	32.7106E-3	-142.517E-12	673.977E-3	-18.8996E-3
-3.63932E-3	-139.293E-12	670.493E-3	21.7497E-3	-141.093E-12	656.931E-3	-28.5947E-3
-3.64432E-3	-138.889E-12	667.212E-3	-3.01585E-3	-139.634E-12	657.158E-3	-8.40139E-3
-3.64932E-3	-138.529E-12	665.754E-3	-17.6491E-3	-138.340E-12	665.042E-3	-4.82425E-3
-3.65433E-3	-137.776E-12	673.465E-3	-14.8169E-3	-137.845E-12	659.306E-3	-4.98429E-3
-3.65933E-3	-137.268E-12	680.192E-3	974.487E-6	-136.458E-12	653.081E-3	-3.24135E-3
-3.66433E-3	-137.404E-12	661.153E-3	-518.407E-6	-135.711E-12	648.447E-3	-6.38714E-3
-3.66933E-3	-137.474E-12	643.555E-3	-29.6480E-3	-135.242E-12	644.642E-3	-5.30068E-3
-3.67434E-3	-137.971E-12	645.334E-3	-45.7920E-3	-134.991E-12	644.043E-3	-931.780E-6
-3.67934E-3	-138.099E-12	651.344E-3	-26.5534E-3	-135.254E-12	634.877E-3	-7.30137E-3
-3.68434E-3	-140.033E-12	671.026E-3	-19.0310E-3	-136.013E-12	619.792E-3	-28.4998E-3
-3.68934E-3	-140.326E-12	683.335E-3	-43.8319E-3	-136.826E-12	615.247E-3	-24.5983E-3
-3.69435E-3	-142.077E-12	666.830E-3	-63.2862E-3	-138.155E-12	632.513E-3	-14.1575E-3
-3.69935E-3	-142.577E-12	654.105E-3	-55.6802E-3	-139.780E-12	661.461E-3	-23.4686E-3
-3.70435E-3	-143.558E-12	652.331E-3	-46.7467E-3	-141.399E-12	678.381E-3	-16.4117E-3
-3.70935E-3	-143.866E-12	655.290E-3	-47.8062E-3	-143.387E-12	685.495E-3	-5.20047E-3
-3.71436E-3	-144.539E-12	663.867E-3	-34.3195E-3	-144.747E-12	688.546E-3	-8.96873E-3
-3.71936E-3	-144.220E-12	674.830E-3	-25.4009E-3	-145.439E-12	681.457E-3	-1.42160E-3
-3.72436E-3	-143.765E-12	680.654E-3	-28.6722E-3	-146.360E-12	678.670E-3	7.31083E-3
-3.72936E-3	-143.610E-12	665.612E-3	-19.2717E-3	-146.643E-12	664.674E-3	-12.0953E-3
-3.73437E-3	-143.407E-12	660.998E-3	-9.96729E-3	-145.986E-12	646.665E-3	-28.7912E-3
-3.73937E-3	-142.515E-12	677.634E-3	-9.40547E-3	-145.482E-12	673.049E-3	-16.4982E-3
-3.74437E-3	-142.234E-12	663.267E-3	-11.2608E-3	-145.043E-12	684.920E-3	-9.51081E-3
-3.74937E-3	-142.180E-12	641.155E-3	-14.8585E-3	-144.850E-12	630.153E-3	-13.7659E-3
-3.75438E-3	-141.486E-12	637.256E-3	-4.77152E-3	-143.285E-12	584.755E-3	-16.4739E-3
-3.75938E-3	-141.221E-12	637.401E-3	8.80408E-3	-143.052E-12	583.353E-3	-27.4224E-3
-3.76438E-3	-140.949E-12	639.410E-3	7.25793E-3	-142.555E-12	603.504E-3	-45.5336E-3
-3.76938E-3	-141.341E-12	622.645E-3	-6.33923E-3	-141.605E-12	636.017E-3	-52.2026E-3
-3.77439E-3	-142.693E-12	601.156E-3	-18.6638E-3	-141.397E-12	633.146E-3	-35.0284E-3
-3.77939E-3	-143.008E-12	614.051E-3	-5.49025E-3	-141.436E-12	605.968E-3	-13.1526E-3
-3.78439E-3	-143.860E-12	654.216E-3	7.26233E-3	-141.870E-12	617.519E-3	-15.5534E-3
-3.78939E-3	-146.085E-12	685.219E-3	-7.09169E-3	-141.655E-12	648.820E-3	-33.6829E-3
-3.79440E-3	-146.362E-12	677.768E-3	-5.26947E-3	-142.526E-12	654.194E-3	-28.9274E-3
-3.79940E-3	-147.062E-12	654.501E-3	2.72413E-3	-143.099E-12	644.490E-3	733.363E-6
-3.80440E-3	-147.886E-12	653.137E-3	-1.27420E-3	-144.163E-12	645.312E-3	21.4098E-3
-3.80940E-3	-149.271E-12	663.614E-3	7.91436E-3	-145.016E-12	644.490E-3	11.8438E-3
-3.81441E-3	-148.324E-12	661.656E-3	-2.28643E-3	-145.870E-12	646.801E-3	3.83025E-3
-3.81941E-3	-148.010E-12	660.783E-3	-22.9556E-3	-146.996E-12	670.146E-3	9.96788E-3
-3.82441E-3	-148.227E-12	684.813E-3	-19.5428E-3	-148.467E-12	671.295E-3	-1.67457E-3
-3.82941E-3	-148.381E-12	702.859E-3	-19.3676E-3	-149.377E-12	655.517E-3	-30.1070E-3
-3.83442E-3	-147.774E-12	687.198E-3	-23.9950E-3	-149.448E-12	683.083E-3	-38.9626E-3
-3.83942E-3	-146.553E-12	647.733E-3	-26.8975E-3	-150.496E-12	713.108E-3	-28.0685E-3
-3.84442E-3	-146.317E-12	617.011E-3	-31.4465E-3	-151.011E-12	713.415E-3	-12.2825E-3
-3.84942E-3	-146.592E-12	617.806E-3	-34.1711E-3	-151.876E-12	712.660E-3	-5.14289E-3
-3.85443E-3	-146.196E-12	631.605E-3	-27.2552E-3	-151.434E-12	705.412E-3	-25.0018E-3
-3.85943E-3	-145.827E-12	651.297E-3	-9.08559E-3	-150.860E-12	686.406E-3	-39.0562E-3
-3.86443E-3	-145.818E-12	668.677E-3	-1.02598E-3	-151.074E-12	664.156E-3	-24.4003E-3
-3.86943E-3	-146.381E-12	669.372E-3	-18.5502E-3	-149.741E-12	644.883E-3	-19.7571E-3
-3.87444E-3	-147.627E-12	653.607E-3	-33.2442E-3	-148.461E-12	628.188E-3	-33.3566E-3
-3.87944E-3	-148.244E-12	633.929E-3	-22.5736E-3	-148.145E-12	619.483E-3	-29.6774E-3
-3.88444E-3	-148.458E-12	639.490E-3	-5.81142E-3	-147.396E-12	627.082E-3	-31.3461E-3
-3.88944E-3	-148.765E-12	663.629E-3	3.31373E-3	-146.533E-12	637.961E-3	-42.5428E-3
-3.89445E-3	-148.795E-12	672.404E-3	-2.97920E-3	-146.627E-12	635.946E-3	-33.9304E-3
-3.89945E-3	-149.880E-12	668.917E-3	-16.8248E-3	-146.188E-12	626.495E-3	-29.0625E-3
-3.90445E-3	-150.188E-12	674.055E-3	-24.8230E-3	-145.877E-12	627.455E-3	-20.9575E-3
-3.90945E-3	-149.595E-12	680.886E-3	-22.4681E-3	-146.197E-12	646.749E-3	-1.99016E-3
-3.91446E-3	-150.135E-12	678.908E-3	-12.2558E-3	-147.362E-12	670.032E-3	-10.9123E-3
-3.91946E-3	-150.993E-12	660.138E-3	4.99507E-3	-148.203E-12	675.754E-3	-26.5433E-3
-3.92446E-3	-150.781E-12	650.566E-3	7.79423E-3	-149.631E-12	668.183E-3	-9.52445E-3
-3.92946E-3	-150.835E-12	650.432E-3	-6.46553E-3	-151.765E-12	652.181E-3	9.05183E-3
-3.93447E-3	-151.880E-12	643.331E-3	-17.0431E-3	-153.498E-12	629.807E-3	9.29717E-3
-3.93947E-3	-151.360E-12	653.617E-3	-21.8122E-3	-155.017E-12	623.952E-3	-7.89029E-3
-3.94447E-3	-151.803E-12	658.319E-3	-25.6913E-3	-156.460E-12	639.764E-3	-24.3489E-3
-3.94947E-3	-152.495E-12	656.395E-3	-35.7790E-3	-157.259E-12	657.179E-3	-14.0809E-3
-3.95448E-3	-152.433E-12	663.643E-3	-40.0088E-3	-157.090E-12	667.508E-3	-2.83227E-3
-3.95948E-3	-152.627E-12	666.918E-3	-38.2216E-3	-156.477E-12	675.638E-3	-18.8629E-3
-3.96448E-3	-152.837E-12	657.454E-3	-23.7885E-3	-155.908E-12	679.392E-3	-25.5024E-3
-3.96948E-3	-152.986E-12	638.518E-3	-8.13953E-3	-155.040E-12	658.981E-3	-8.38184E-3
-3.97449E-3	-152.870E-12	628.076E-3	-22.0227E-3	-153.602E-12	635.479E-3	-10.9302E-3
-3.97949E-3	-152.298E-12	618.253E-3	-50.6270E-3	-152.450E-12	636.795E-3	-21.6818E-3
-3.98449E-3	-151.212E-12	625.211E-3	-58.0694E-3	-151.649E-12	641.138E-3	-17.2415E-3
-3.98949E-3	-151.100E-12	653.244E-3	-35.0500E-3	-150.124E-12	639.665E-3	-24.2452E-3
-3.99450E-3	-151.459E-12	644.089E-3	-21.3005E-3	-149.397E-12	617.602E-3	-42.6137E-3
-3.99950E-3	-151.159E-12	615.476E-3	-29.8906E-3	-149.654E-12	602.967E-3	-30.2320E-3
-4.00450E-3	-151.429E-12	618.446E-3	-12.8598E-3	-149.017E-12	620.630E-3	-6.43467E-3
-4.00950E-3	-152.254E-12	632.959E-3	17.9856E-3	-149.041E-12	636.800E-3	-8.01393E-3
-4.01451E-3	-153.340E-12	639.970E-3	5.76284E-3	-151.048E-12	662.385E-3	-16.3501E-3
-4.01951E-3	-154.299E-12	657.034E-3	-39.7920E-3	-153.127E-12	701.555E-3	-28.6716E-3
-4.02451E-3	-155.654E-12	678.767E-3	-70.0023E-3	-154.474E-12	714.311E-3	-35.7741E-3
-4.02951E-3	-156.672E-12	686.966E-3	-66.1462E-3	-156.484E-12	700.928E-3	-13.1643E-3
-4.03452E-3	-157.120E-12	682.935E-3	-42.9206E-3	-158.635E-12	689.637E-3	2.31671E-3
-4.03952E-3	-157.933E-12	675.722E-3	-5.77227E-3	-160.577E-12	685.930E-3	-29.8219E-3
-4.04452E-3	-159.128E-12	680.711E-3	5.40431E-3	-160.822E-12	676.969E-3	-48.3888E-3
-4.04952E-3	-159.207E-12	684.996E-3	-18.6607E-3	-161.176E-12	670.566E-3	-19.6539E-3
-4.05453E-3	-158.885E-12	694.423E-3	-6.69704E-3	-160.677E-12	659.111E-3	4.34446E-3
-4.05953E-3	-158.918E-12	695.193E-3	7.25833E-3	-160.874E-12	639.875E-3	2.74715E-3
-4.06453E-3	-158.509E-12	667.507E-3	-12.2313E-3	-159.700E-12	653.515E-3	-5.33376E-3
-4.06953E-3	-157.154E-12	673.826E-3	-19.7536E-3	-158.617E-12	666.274E-3	-15.7008E-3
-4.07454E-3	-156.338E-12	691.257E-3	-25.6515E-3	-157.445E-12	634.914E-3	-19.5903E-3
-4.07954E-3	-155.495E-12	663.233E-3	-43.3646E-3	-156.320E-12	618.531E-3	-10.5477E-3
-4.08454E-3	-154.855E-12	644.558E-3	-45.5556E-3	-155.012E-12	636.954E-3	-9.33316E-3
-4.08954E-3	-154.090E-12	641.143E-3	-16.1066E-3	-154.138E-12	643.045E-3	-8.19642E-3
-4.09455E-3	-154.140E-12	630.628E-3	-476.134E-6	-153.573E-12	625.414E-3	11.1838E-3
-4.09955E-3	-154.856E-12	632.641E-3	-4.58760E-3	-153.470E-12	610.702E-3	11.8128E-3
-4.10455E-3	-156.386E-12	639.584E-3	-6.34596E-3	-153.977E-12	608.399E-3	-13.0487E-3
-4.10955E-3	-156.607E-12	657.258E-3	-15.2351E-3	-154.369E-12	626.931E-3	-10.1107E-3
-4.11456E-3	-157.846E-12	679.297E-3	-12.3001E-3	-155.719E-12	666.189E-3	-1.26682E-3
-4.11956E-3	-159.692E-12	670.011E-3	4.84630E-3	-156.579E-12	685.478E-3	-12.5073E-3
-4.12456E-3	-160.840E-12	648.506E-3	-890.294E-6	-158.902E-12	673.050E-3	-15.6797E-3
-4.12956E-3	-161.676E-12	655.118E-3	-18.0310E-3	-160.679E-12	670.617E-3	-21.9664E-3
-4.13457E-3	-163.647E-12	671.222E-3	169.206E-6	-161.445E-12	683.484E-3	-34.3648E-3
-4.13957E-3	-163.629E-12	675.648E-3	16.0537E-3	-161.656E-12	677.080E-3	-18.8190E-3
-4.14457E-3	-164.058E-12	678.299E-3	-4.57353E-3	-163.862E-12	665.500E-3	3.98105E-3
-4.14957E-3	-164.351E-12	666.792E-3	-18.1557E-3	-163.342E-12	647.826E-3	-3.97973E-3
-4.15458E-3	-164.449E-12	635.740E-3	-23.8048E-3	-162.306E-12	620.448E-3	-15.9416E-3
-4.15958E-3	-163.124E-12	622.718E-3	-44.8530E-3	-162.636E-12	627.620E-3	-18.8588E-3
-4.16458E-3	-162.229E-12	646.514E-3	-49.1061E-3	-163.079E-12	652.360E-3	-26.0688E-3
-4.16958E-3	-161.254E-12	670.302E-3	-32.0632E-3	-162.437E-12	650.459E-3	-13.6823E-3
-4.17459E-3	-160.105E-12	657.230E-3	-30.3174E-3	-161.507E-12	642.655E-3	18.2538E-3
-4.17959E-3	-158.724E-12	642.453E-3	-41.7475E-3	-160.476E-12	641.481E-3	30.1249E-3
-4.18459E-3	-158.066E-12	647.818E-3	-25.8787E-3	-160.941E-12	629.135E-3	17.4989E-3
-4.18959E-3	-158.473E-12	639.670E-3	-6.29314E-3	-160.950E-12	629.067E-3	13.4884E-3
-4.19460E-3	-158.866E-12	631.615E-3	-29.1176E-3	-160.474E-12	636.926E-3	977.591E-6
-4.19960E-3	-158.568E-12	632.372E-3	-50.5953E-3	-160.283E-12	631.807E-3	-30.7418E-3
-4.20460E-3	-159.683E-12	617.741E-3	-35.4661E-3	-160.702E-12	626.709E-3	-39.8787E-3
-4.20960E-3	-161.313E-12	606.896E-3	-18.0092E-3	-161.531E-12	627.951E-3	-25.5827E-3
-4.21461E-3	-163.134E-12	621.933E-3	-14.3595E-3	-161.928E-12	638.304E-3	-11.6269E-3
-4.21961E-3	-164.288E-12	633.478E-3	-16.7765E-3	-162.937E-12	662.891E-3	-4.66044E-3
-4.22461E-3	-165.056E-12	637.828E-3	-10.9464E-3	-163.476E-12	689.885E-3	-2.58603E-3
-4.22961E-3	-167.623E-12	669.089E-3	-7.63025E-3	-164.140E-12	675.771E-3	192.906E-6
-4.23462E-3	-168.659E-12	681.884E-3	-19.1981E-3	-164.710E-12	647.364E-3	3.51179E-3
-4.23962E-3	-169.511E-12	654.684E-3	-15.7221E-3	-165.231E-12	660.366E-3	-1.53806E-3
-4.24462E-3	-169.449E-12	646.189E-3	5.95776E-3	-165.539E-12	669.091E-3	-20.7429E-3
-4.24962E-3	-169.599E-12	664.664E-3	16.0494E-3	-166.695E-12	661.190E-3	-26.3265E-3
-4.25463E-3	-168.979E-12	671.142E-3	11.8980E-3	-166.867E-12	658.700E-3	-24.3526E-3
-4.25963E-3	-168.272E-12	668.379E-3	1.78588E-3	-167.090E-12	655.223E-3	-38.5428E-3
-4.26463E-3	-166.787E-12	664.715E-3	-8.18666E-3	-167.001E-12	657.622E-3	-35.3999E-3
-4.26963E-3	-165.689E-12	639.492E-3	-14.8250E-3	-167.482E-12	673.408E-3	-16.3425E-3
-4.27464E-3	-165.739E-12	647.267E-3	-31.3092E-3	-167.708E-12	682.074E-3	-29.1686E-3
-4.27964E-3	-165.418E-12	698.055E-3	-46.1458E-3	-167.676E-12	657.003E-3	-47.4085E-3
-4.28464E-3	-164.362E-12	704.024E-3	-53.2213E-3	-167.254E-12	638.591E-3	-26.3362E-3
-4.28964E-3	-163.620E-12	667.703E-3	-53.3120E-3	-166.997E-12	652.424E-3	-1.36224E-3
-4.29465E-3	-164.545E-12	649.171E-3	-31.5089E-3	-166.747E-12	643.034E-3	9.90948E-3
-4.29965E-3	-165.664E-12	660.375E-3	-21.5583E-3	-166.741E-12	619.032E-3	34.4327E-3
-4.30465E-3	-165.488E-12	671.331E-3	-36.2510E-3	-166.026E-12	612.718E-3	37.1626E-3
-4.30965E-3	-165.488E-12	670.747E-3	-27.3190E-3	-165.707E-12	598.231E-3	-3.29997E-3
-4.31466E-3	-166.797E-12	671.345E-3	1.75575E-3	-165.321E-12	604.950E-3	-20.3305E-3
-4.31966E-3	-168.229E-12	663.407E-3	12.3873E-3	-164.672E-12	634.436E-3	-28.9687E-3
-4.32466E-3	-167.975E-12	650.019E-3	-1.89634E-3	-165.245E-12	645.121E-3	-45.4240E-3
-4.32966E-3	-168.814E-12	643.855E-3	-7.45118E-3	-164.936E-12	654.037E-3	-14.8532E-3
-4.33467E-3	-169.048E-12	630.761E-3	2.35742E-3	-165.140E-12	658.480E-3	11.8628E-3
-4.33967E-3	-170.538E-12	617.894E-3	-9.63347E-3	-165.852E-12	653.751E-3	-4.59224E-3
-4.34467E-3	-170.398E-12	620.950E-3	-17.2708E-3	-167.601E-12	651.726E-3	-20.2058E-3
-4.34967E-3	-171.474E-12	626.022E-3	-7.45543E-3	-168.780E-12	649.717E-3	-25.8016E-3
-4.35468E-3	-171.161E-12	622.350E-3	-18.6983E-3	-169.124E-12	652.381E-3	-21.4442E-3
-4.35968E-3	-171.885E-12	632.786E-3	-36.1120E-3	-170.858E-12	656.087E-3	-4.78588E-3
-4.36468E-3	-171.906E-12	653.188E-3	-39.3637E-3	-172.461E-12	664.405E-3	-3.29527E-3
-4.36968E-3	-171.949E-12	648.363E-3	-24.1342E-3	-173.803E-12	677.595E-3	-23.6631E-3
-4.37469E-3	-171.963E-12	645.886E-3	-6.62245E-3	-172.925E-12	673.373E-3	-29.6452E-3
-4.37969E-3	-171.496E-12	651.594E-3	-11.0015E-3	-174.483E-12	663.374E-3	-20.8350E-3
-4.38469E-3	-171.039E-12	640.887E-3	-9.91330E-3	-174.584E-12	657.173E-3	-26.8409E-3
-4.38969E-3	-170.895E-12	637.153E-3	4.71412E-3	-174.039E-12	646.848E-3	-12.2313E-3
-4.39470E-3	-171.429E-12	631.249E-3	11.5852E-3	-172.405E-12	652.893E-3	33.3421E-3
-4.39970E-3	-169.936E-12	612.438E-3	8.54426E-3	-171.135E-12	659.944E-3	32.5200E-3
-4.40470E-3	-170.274E-12	613.367E-3	11.6797E-3	-169.671E-12	639.023E-3	533.762E-6
-4.40970E-3	-170.221E-12	618.941E-3	9.47343E-3	-168.426E-12	615.777E-3	-5.86696E-3
-4.41471E-3	-170.449E-12	598.067E-3	-9.85270E-3	-168.176E-12	616.528E-3	-15.3348E-3
-4.41971E-3	-170.205E-12	598.620E-3	-10.0993E-3	-166.841E-12	615.689E-3	-21.8364E-3
-4.42471E-3	-171.290E-12	630.385E-3	-1.35236E-3	-166.860E-12	634.762E-3	-18.5676E-3
-4.42971E-3	-171.801E-12	646.964E-3	-2.88475E-3	-167.143E-12	663.000E-3	-10.7850E-3
-4.43472E-3	-171.996E-12	650.779E-3	-8.13425E-3	-168.395E-12	639.991E-3	6.61257E-3
-4.43972E-3	-172.282E-12	658.323E-3	-14.4467E-3	-170.356E-12	625.533E-3	4.46548E-3
-4.44472E-3	-172.863E-12	668.563E-3	-12.8405E-3	-170.805E-12	640.793E-3	-10.3752E-3
-4.44972E-3	-173.552E-12	670.967E-3	-11.3891E-3	-172.537E-12	632.387E-3	-21.5372E-3
-4.45473E-3	-174.645E-12	665.584E-3	-20.4823E-3	-174.843E-12	626.798E-3	-37.0986E-3
-4.45973E-3	-175.693E-12	653.804E-3	-24.7753E-3	-177.434E-12	657.141E-3	-51.4641E-3
-4.46473E-3	-176.459E-12	646.690E-3	-28.4163E-3	-177.918E-12	668.016E-3	-46.7414E-3
-4.46973E-3	-177.144E-12	659.582E-3	-37.7897E-3	-179.425E-12	658.612E-3	-38.7464E-3
-4.47474E-3	-176.973E-12	664.986E-3	-26.6402E-3	-179.915E-12	683.253E-3	-58.2303E-3
-4.47974E-3	-178.042E-12	647.857E-3	-14.2321E-3	-180.213E-12	679.089E-3	-47.5547E-3
-4.48474E-3	-177.615E-12	636.832E-3	-21.5333E-3	-179.208E-12	635.809E-3	5.09393E-3
-4.48974E-3	-176.396E-12	640.609E-3	-31.8670E-3	-178.853E-12	634.812E-3	-1.11325E-3
-4.49475E-3	-175.626E-12	651.083E-3	-37.2220E-3	-177.664E-12	646.312E-3	-27.9457E-3
-4.49975E-3	-175.808E-12	669.460E-3	-34.8266E-3	-175.476E-12	624.970E-3	-3.07053E-3
-4.50475E-3	-174.782E-12	681.056E-3	-20.2165E-3	-174.789E-12	616.434E-3	8.84893E-3
-4.50975E-3	-173.806E-12	664.047E-3	-6.03226E-3	-173.743E-12	627.649E-3	-10.4535E-3
-4.51476E-3	-173.156E-12	639.564E-3	-11.9219E-3	-172.743E-12	633.204E-3	-23.0737E-3
-4.51976E-3	-172.983E-12	651.549E-3	-13.3091E-3	-172.005E-12	643.782E-3	-18.9409E-3
-4.52476E-3	-173.271E-12	676.536E-3	-17.8486E-3	-171.973E-12	665.105E-3	-20.4681E-3
-4.52976E-3	-172.867E-12	667.586E-3	-39.6273E-3	-172.266E-12	669.165E-3	-27.5719E-3
-4.53477E-3	-173.329E-12	644.925E-3	-32.0718E-3	-172.901E-12	653.061E-3	-25.3527E-3
-4.53977E-3	-174.665E-12	625.910E-3	-15.5722E-3	-174.476E-12	644.830E-3	-35.5854E-3
-4.54477E-3	-175.779E-12	631.372E-3	-27.8229E-3	-175.171E-12	631.763E-3	-44.3880E-3
-4.54977E-3	-176.557E-12	659.822E-3	-24.9042E-3	-177.545E-12	623.373E-3	-38.9264E-3
-4.55478E-3	-177.923E-12	647.778E-3	4.95829E-3	-179.454E-12	635.017E-3	-36.2774E-3
-4.55978E-3	-179.448E-12	604.278E-3	14.4510E-3	-180.787E-12	646.381E-3	-26.9888E-3
-4.56478E-3	-180.431E-12	589.632E-3	3.94642E-3	-181.119E-12	651.665E-3	167.986E-6
-4.56978E-3	-181.292E-12	616.105E-3	7.09932E-3	-181.885E-12	660.994E-3	14.3830E-3
-4.57479E-3	-181.538E-12	663.687E-3	18.2977E-3	-182.960E-12	637.399E-3	-7.61951E-3
-4.57979E-3	-182.308E-12	687.112E-3	24.9693E-3	-182.681E-12	593.583E-3	-30.8933E-3
-4.58479E-3	-180.871E-12	662.315E-3	10.8840E-3	-182.759E-12	606.990E-3	-45.6626E-3
-4.58979E-3	-180.901E-12	635.630E-3	-620.518E-6	-181.089E-12	640.477E-3	-48.6463E-3
-4.59480E-3	-180.106E-12	622.318E-3	-1.08938E-3	-180.469E-12	638.542E-3	-24.6719E-3
-4.59980E-3	-179.156E-12	617.381E-3	-35.9297E-3	-180.206E-12	632.103E-3	-4.10519E-3
-4.60480E-3	-179.167E-12	628.450E-3	-62.4510E-3	-179.503E-12	628.134E-3	-4.59594E-3
-4.60980E-3	-178.480E-12	631.512E-3	-34.3828E-3	-178.185E-12	609.738E-3	-32.0984E-3
-4.61481E-3	-178.080E-12	632.549E-3	-6.04485E-3	-177.343E-12	613.319E-3	-46.9150E-3
-4.61981E-3	-177.824E-12	640.591E-3	-7.71566E-3	-177.950E-12	646.046E-3	-41.3249E-3
-4.62481E-3	-179.009E-12	649.761E-3	-22.0280E-3	-177.724E-12	663.444E-3	-52.5742E-3
-4.62981E-3	-179.202E-12	660.117E-3	-39.3543E-3	-178.486E-12	654.092E-3	-47.9704E-3
-4.63482E-3	-180.237E-12	672.171E-3	-47.1628E-3	-178.589E-12	633.896E-3	-27.0530E-3
-4.63982E-3	-181.347E-12	674.471E-3	-31.2251E-3	-179.730E-12	628.640E-3	-15.0244E-3
-4.64482E-3	-182.402E-12	653.031E-3	-18.2795E-3	-180.292E-12	636.602E-3	-5.87179E-3
-4.64982E-3	-183.241E-12	636.552E-3	-28.3327E-3	-180.866E-12	660.801E-3	2.78462E-3
-4.65483E-3	-183.759E-12	641.052E-3	-27.7161E-3	-182.025E-12	673.517E-3	1.62079E-3
-4.65983E-3	-184.782E-12	642.912E-3	-31.5850E-3	-183.022E-12	633.614E-3	-13.1251E-3
-4.66483E-3	-185.821E-12	636.817E-3	-30.3825E-3	-183.880E-12	602.038E-3	-13.0780E-3
-4.66983E-3	-185.957E-12	627.456E-3	-11.0818E-3	-184.480E-12	615.043E-3	-3.40233E-3
-4.67484E-3	-186.557E-12	623.545E-3	-18.3188E-3	-184.691E-12	639.607E-3	-10.5023E-3
-4.67984E-3	-186.893E-12	647.554E-3	-35.3455E-3	-184.645E-12	659.481E-3	-12.8666E-3
-4.68484E-3	-186.134E-12	680.947E-3	-34.3334E-3	-186.122E-12	662.643E-3	-8.83418E-3
-4.68984E-3	-185.293E-12	695.739E-3	-23.1735E-3	-186.310E-12	644.937E-3	-6.04438E-3
-4.69485E-3	-184.476E-12	699.409E-3	-2.47729E-3	-186.424E-12	634.155E-3	-10.5959E-3
-4.69985E-3	-184.216E-12	704.714E-3	24.3417E-3	-185.547E-12	629.229E-3	-11.4592E-3
-4.70485E-3	-183.373E-12	701.537E-3	39.9845E-3	-186.016E-12	613.917E-3	-2.46938E-3
-4.70985E-3	-183.303E-12	681.622E-3	39.9701E-3	-187.027E-12	613.821E-3	-6.61465E-3
-4.71486E-3	-182.669E-12	662.585E-3	26.2603E-3	-186.176E-12	624.961E-3	-24.8412E-3
-4.71986E-3	-184.156E-12	653.520E-3	-1.14015E-3	-185.184E-12	617.370E-3	-46.7640E-3
-4.72486E-3	-185.010E-12	643.522E-3	-24.1087E-3	-184.210E-12	612.191E-3	-55.5147E-3
-4.72986E-3	-185.225E-12	629.910E-3	-28.5611E-3	-184.753E-12	620.827E-3	-55.3296E-3
-4.73487E-3	-185.714E-12	622.913E-3	-13.1549E-3	-183.879E-12	611.603E-3	-59.5034E-3
-4.73987E-3	-186.817E-12	633.551E-3	-14.7833E-3	-183.684E-12	601.806E-3	-46.6716E-3
-4.74487E-3	-188.312E-12	651.144E-3	-31.6874E-3	-183.272E-12	616.510E-3	-23.5136E-3
-4.74988E-3	-187.697E-12	646.581E-3	-15.8332E-3	-184.103E-12	630.431E-3	-17.0341E-3
-4.75488E-3	-188.698E-12	633.500E-3	8.78930E-3	-183.809E-12	626.792E-3	-17.6957E-3
-4.75988E-3	-189.090E-12	630.515E-3	14.9167E-3	-184.245E-12	616.029E-3	-7.46239E-3
-4.76488E-3	-189.447E-12	623.508E-3	8.60687E-3	-183.964E-12	607.380E-3	-184.588E-6
-4.76988E-3	-188.841E-12	625.786E-3	4.09113E-3	-185.192E-12	616.201E-3	-8.31039E-3
-4.77489E-3	-188.660E-12	653.091E-3	14.1496E-3	-186.905E-12	635.660E-3	-107.238E-6
-4.77989E-3	-188.313E-12	664.692E-3	6.73853E-3	-187.238E-12	658.450E-3	12.4131E-3
-4.78489E-3	-187.742E-12	642.932E-3	-34.1272E-3	-188.473E-12	671.555E-3	-17.7663E-3
-4.78989E-3	-187.943E-12	623.893E-3	-51.8661E-3	-190.033E-12	660.498E-3	-44.1322E-3
-4.79490E-3	-187.758E-12	634.286E-3	-30.5256E-3	-191.837E-12	654.688E-3	-34.9707E-3
-4.79990E-3	-187.294E-12	654.327E-3	-19.5839E-3	-192.028E-12	653.493E-3	-42.5007E-3
-4.80490E-3	-187.278E-12	657.823E-3	-15.1684E-3	-192.172E-12	629.596E-3	-60.7193E-3
-4.80990E-3	-188.447E-12	644.965E-3	9.57110E-3	-192.976E-12	607.358E-3	-52.2583E-3
-4.81491E-3	-188.195E-12	639.511E-3	23.2091E-3	-191.890E-12	616.837E-3	-33.4485E-3
-4.81991E-3	-187.697E-12	676.859E-3	2.38928E-3	-191.510E-12	626.291E-3	-18.4478E-3
-4.82491E-3	-188.641E-12	700.076E-3	-20.0783E-3	-190.256E-12	622.729E-3	3.50891E-3
-4.82991E-3	-189.656E-12	671.372E-3	-16.8483E-3	-190.113E-12	624.242E-3	17.1417E-3
-4.83492E-3	-189.465E-12	634.162E-3	-8.75292E-3	-188.083E-12	641.580E-3	-5.72477E-3
-4.83992E-3	-188.596E-12	612.458E-3	-10.5685E-3	-188.011E-12	639.326E-3	-26.5751E-3
-4.84492E-3	-188.824E-12	612.717E-3	-4.20164E-3	-187.427E-12	617.935E-3	-22.4181E-3
-4.84992E-3	-189.973E-12	622.248E-3	-11.4398E-3	-186.943E-12	604.312E-3	-30.1200E-3
-4.85493E-3	-190.569E-12	626.798E-3	-23.1341E-3	-187.130E-12	607.407E-3	-43.0979E-3
-4.85993E-3	-190.471E-12	616.439E-3	-17.9660E-3	-187.443E-12	641.427E-3	-46.5947E-3
-4.86493E-3	-191.132E-12	607.728E-3	-39.6303E-3	-187.665E-12	673.073E-3	-43.9063E-3
-4.86993E-3	-191.225E-12	620.320E-3	-56.5492E-3	-189.571E-12	677.864E-3	-21.1830E-3
-4.87494E-3	-191.785E-12	639.753E-3	-30.8460E-3	-191.531E-12	677.115E-3	-2.57720E-3
-4.87994E-3	-192.408E-12	644.117E-3	-19.6524E-3	-192.208E-12	677.003E-3	-38.5555E-3
-4.88494E-3	-192.861E-12	647.093E-3	-33.9429E-3	-193.356E-12	654.559E-3	-63.9888E-3
-4.88995E-3	-193.094E-12	650.660E-3	-39.6132E-3	-195.251E-12	641.364E-3	-24.8772E-3
-4.89495E-3	-192.417E-12	650.687E-3	-18.4473E-3	-196.299E-12	665.783E-3	1.24379E-3
-4.89995E-3	-192.925E-12	662.169E-3	-10.3087E-3	-196.531E-12	694.311E-3	-2.79251E-3
-4.90495E-3	-193.735E-12	662.905E-3	-35.9599E-3	-196.553E-12	702.428E-3	-519.252E-6
-4.90995E-3	-194.187E-12	653.303E-3	-35.5091E-3	-196.935E-12	676.491E-3	-4.00175E-3
-4.91496E-3	-192.453E-12	649.857E-3	-22.7246E-3	-197.690E-12	634.288E-3	-19.2889E-3
-4.91996E-3	-193.683E-12	657.193E-3	-23.3101E-3	-196.434E-12	620.342E-3	-12.0026E-3
-4.92496E-3	-194.342E-12	665.494E-3	-17.3773E-3	-195.068E-12	627.689E-3	14.7977E-3
-4.92996E-3	-194.487E-12	675.046E-3	-10.3902E-3	-194.152E-12	626.448E-3	26.0154E-3
-4.93497E-3	-192.652E-12	673.655E-3	-6.27195E-3	-194.350E-12	608.025E-3	26.2624E-3
-4.93997E-3	-192.435E-12	637.999E-3	-1.21829E-3	-193.825E-12	598.100E-3	17.8710E-3
-4.94497E-3	-193.146E-12	608.193E-3	4.62996E-3	-192.306E-12	602.696E-3	13.8272E-3
-4.94997E-3	-193.430E-12	620.350E-3	5.12435E-3	-190.966E-12	614.356E-3	35.3030E-3
-4.95498E-3	-193.053E-12	661.705E-3	3.40757E-3	-191.670E-12	652.861E-3	48.4821E-3
-4.95998E-3	-193.443E-12	688.830E-3	-523.490E-6	-193.214E-12	665.651E-3	15.8680E-3
-4.96498E-3	-193.591E-12	683.974E-3	-14.9638E-3	-192.935E-12	647.611E-3	-20.4413E-3
-4.96998E-3	-194.614E-12	673.312E-3	-19.3044E-3	-193.509E-12	644.337E-3	-35.8333E-3
-4.97499E-3	-196.454E-12	664.279E-3	-22.9644E-3	-193.809E-12	628.153E-3	-53.6715E-3
-4.97999E-3	-196.252E-12	673.450E-3	-35.1502E-3	-195.713E-12	627.871E-3	-59.1030E-3
-4.98499E-3	-195.693E-12	689.120E-3	-38.9330E-3	-197.006E-12	657.688E-3	-39.7577E-3
-4.98999E-3	-197.839E-12	677.664E-3	-39.5585E-3	-197.511E-12	672.429E-3	-21.9309E-3
-4.99500E-3	-199.411E-12	661.966E-3	-32.1333E-3	-197.849E-12	671.578E-3	-26.5684E-3
-5.00000E-3	-198.477E-12	660.511E-3	-29.2450E-3	-198.119E-12	666.002E-3	-33.7986E-3
