Experiment	bias spectroscopy	
Date	19.01.2016 21:02:28	
User		
X (m)	50.0579E-9	
Y (m)	257.187E-9	
Z (m)	-132.52E-9	
Z offset (m)	0E+0	
Settling time (s)	200E-6	
Integration time (s)	5E-3	
Z-Ctrl hold	TRUE	
Final Z (m)	N/A	
Filter type	None	
Order		
Cutoff frq		
Comment01	MnPc/Pb(111)	
Comment02	dz =00pm	
Comment03	7 Sweeps	
Comment04	MagField =0.T	
Comment05	Divider 1:10	
Comment06	Setpoint:5mV,200 pA	
Comment07	Lockin: 50uVrms,5ms,5mV	
Comment08	Gain:9; 912Hz modulation	
Comment09	T=1.06K	
Bias>Bias (V)	5E-3	
Bias>Calibration (V/V)	81.475E-3	
Bias>Offset (V)	1.046E-3	
Bias Spectroscopy>Sweep Start (V)	5E-3	
Bias Spectroscopy>Sweep End (V)	-5E-3	
Bias Spectroscopy>Num Pixel	2000	
Bias Spectroscopy>Z Avg time (s)	500E-3	
Bias Spectroscopy>Z offset (m)	0E+0	
Bias Spectroscopy>1st Settling time (s)	500E-3	
Bias Spectroscopy>Settling time (s)	200E-6	
Bias Spectroscopy>Integration time (s)	5E-3	
Bias Spectroscopy>End Settling time (s)	500E-3	
Bias Spectroscopy>Z control time (s)	500E-3	
Bias Spectroscopy>Max Slew rate (V/s)	Inf	
Bias Spectroscopy>backward sweep	TRUE	
Bias Spectroscopy>Z-controller hold	TRUE	
Bias Spectroscopy>Number of sweeps	7	
Bias Spectroscopy>Channels	Current (A);X% LockIn (V);Y% LockIn (V)	
Bias Spectroscopy>Reset Bias	TRUE	
Bias Spectroscopy>Record final Z	FALSE	
Bias Spectroscopy>Lock-In run	FALSE	
Bias Spectroscopy>Sweep mode	Linear	
Bias Spectroscopy>MultiLine Settings : Segment Start (V), Segment End (V), Settling (s), Integration (s), Steps (xn)	100E-3,3.3E-3,100E-6,10E-3,2500;3.3E-3,-3.3E-3,100E-6,10E-3,10;-3.3E-3,-100E-3,100E-6,10E-3,2500	
Current>Current (A)	200.084E-12	
Current>Calibration (A/V)	999.99900E-12	
Current>Offset (A)	-455.429E-15	
Current>Gain	LN 10^9	
Z-Controller>Z (m)	-132.519E-9	
Z-Controller>Controller name	log Current	
Z-Controller>Controller status	ON	
Z-Controller>Setpoint	200E-12	
Z-Controller>Setpoint unit	A	
Z-Controller>P gain	2.96994E-12	
Z-Controller>I gain	67.0321E-9	
Z-Controller>Time const (s)	44.3062E-6	
Z-Controller>TipLift (m)	0E+0	
Z-Controller>Switch off delay (s)	50E-3	
Current (A)	200.482E-12	
Z (m)	-132.519E-9	

[DATA]
Bias calc (V)	Current (A)	X% LockIn (V)	Y% LockIn (V)	Current [bwd] (A)	X% LockIn [bwd] (V)	Y% LockIn [bwd] (V)
5.00000E-3	196.515E-12	554.747E-3	-56.4545E-3	201.241E-12	497.190E-3	-28.0124E-3
4.99500E-3	196.717E-12	522.022E-3	-46.4441E-3	199.070E-12	509.114E-3	-32.2975E-3
4.98999E-3	197.774E-12	506.573E-3	-25.9923E-3	197.866E-12	513.513E-3	-36.4705E-3
4.98499E-3	197.283E-12	497.335E-3	4.97362E-3	199.338E-12	490.831E-3	-32.7035E-3
4.97999E-3	198.432E-12	494.142E-3	-11.9009E-3	201.091E-12	479.713E-3	-11.7100E-3
4.97499E-3	198.687E-12	505.319E-3	-39.8756E-3	199.739E-12	486.845E-3	13.3664E-3
4.96998E-3	198.822E-12	511.298E-3	-35.4845E-3	195.979E-12	492.454E-3	969.639E-6
4.96498E-3	199.681E-12	499.997E-3	-2.12380E-3	197.068E-12	525.546E-3	-8.95961E-3
4.95998E-3	199.914E-12	455.773E-3	37.7355E-3	199.451E-12	549.269E-3	18.5176E-3
4.95498E-3	199.773E-12	445.592E-3	20.8721E-3	198.809E-12	517.154E-3	24.1566E-3
4.94997E-3	200.128E-12	490.600E-3	-24.6949E-3	195.766E-12	486.052E-3	-21.3825E-3
4.94497E-3	200.014E-12	505.654E-3	-41.4473E-3	195.023E-12	488.763E-3	-57.3518E-3
4.93997E-3	199.466E-12	496.532E-3	-29.8481E-3	195.879E-12	486.730E-3	-55.1845E-3
4.93497E-3	198.836E-12	495.178E-3	-4.64530E-3	196.785E-12	488.309E-3	-32.7327E-3
4.92996E-3	198.054E-12	523.869E-3	1.97360E-3	194.443E-12	504.418E-3	-9.15609E-3
4.92496E-3	197.682E-12	545.054E-3	1.64469E-3	194.037E-12	489.716E-3	-15.5937E-3
4.91996E-3	196.455E-12	543.420E-3	9.64609E-3	194.689E-12	474.568E-3	-43.6430E-3
4.91496E-3	195.618E-12	536.319E-3	33.5857E-3	197.535E-12	476.643E-3	-56.6149E-3
4.90995E-3	196.055E-12	512.065E-3	52.4402E-3	196.949E-12	464.352E-3	-51.6594E-3
4.90495E-3	196.266E-12	515.281E-3	22.7280E-3	194.978E-12	469.432E-3	-24.2877E-3
4.89995E-3	193.968E-12	547.534E-3	-12.7642E-3	193.463E-12	491.892E-3	-11.1813E-3
4.89495E-3	193.688E-12	538.395E-3	-4.88104E-3	195.251E-12	500.610E-3	-33.0022E-3
4.88995E-3	194.584E-12	495.270E-3	19.7078E-3	197.087E-12	500.508E-3	-20.0218E-3
4.88494E-3	195.081E-12	466.854E-3	21.0475E-3	195.355E-12	499.604E-3	4.95586E-3
4.87994E-3	194.025E-12	457.163E-3	10.4050E-3	193.639E-12	511.926E-3	-11.6338E-3
4.87494E-3	194.405E-12	460.873E-3	-18.5865E-3	194.808E-12	551.159E-3	-21.1160E-3
4.86993E-3	193.461E-12	475.284E-3	-52.1064E-3	196.544E-12	582.539E-3	-29.7484E-3
4.86493E-3	193.295E-12	497.118E-3	-37.7051E-3	195.470E-12	574.257E-3	-60.7063E-3
4.85993E-3	192.111E-12	501.013E-3	-6.48665E-3	192.610E-12	566.299E-3	-60.4203E-3
4.85493E-3	193.155E-12	515.138E-3	-2.68548E-3	192.108E-12	566.070E-3	-49.3447E-3
4.84992E-3	194.179E-12	555.485E-3	-2.06741E-3	193.935E-12	546.365E-3	-56.3274E-3
4.84492E-3	193.359E-12	548.456E-3	6.05493E-3	193.903E-12	509.357E-3	-34.8308E-3
4.83992E-3	193.385E-12	505.693E-3	8.81722E-3	192.453E-12	498.836E-3	4.23640E-3
4.83492E-3	193.307E-12	509.666E-3	17.5897E-3	190.718E-12	526.995E-3	9.32667E-3
4.82991E-3	194.114E-12	545.669E-3	8.77828E-3	191.930E-12	506.914E-3	-14.1680E-3
4.82491E-3	193.651E-12	544.722E-3	-20.6401E-3	193.353E-12	470.896E-3	-32.0189E-3
4.81991E-3	194.255E-12	511.968E-3	-25.8188E-3	194.192E-12	490.941E-3	-27.2599E-3
4.81491E-3	195.070E-12	480.286E-3	-3.43739E-3	192.564E-12	523.533E-3	-20.8721E-3
4.80990E-3	195.102E-12	464.303E-3	15.8093E-3	191.374E-12	540.651E-3	-2.84391E-3
4.80490E-3	194.666E-12	482.559E-3	-2.70754E-3	192.378E-12	530.706E-3	11.8808E-3
4.79990E-3	194.579E-12	513.654E-3	-32.8241E-3	193.274E-12	509.115E-3	-20.0251E-3
4.79490E-3	194.231E-12	505.204E-3	-47.2499E-3	193.714E-12	498.979E-3	-32.5782E-3
4.78989E-3	193.625E-12	493.762E-3	-48.5065E-3	191.216E-12	498.877E-3	-14.5845E-3
4.78489E-3	193.291E-12	502.758E-3	-15.9584E-3	192.231E-12	507.731E-3	-9.05730E-3
4.77989E-3	192.925E-12	489.552E-3	21.9768E-3	193.076E-12	526.833E-3	-37.3875E-6
4.77489E-3	192.391E-12	500.539E-3	14.8089E-3	192.224E-12	547.780E-3	-7.75426E-3
4.76988E-3	191.209E-12	543.805E-3	1.81787E-3	190.669E-12	562.640E-3	-27.7329E-3
4.76488E-3	190.625E-12	520.649E-3	10.9051E-3	191.396E-12	542.676E-3	-28.9557E-3
4.75988E-3	190.726E-12	461.692E-3	3.66116E-3	191.886E-12	495.562E-3	-23.9923E-3
4.75488E-3	189.833E-12	476.006E-3	-4.14491E-3	190.906E-12	470.578E-3	-16.4059E-3
4.74988E-3	190.896E-12	507.229E-3	5.22541E-3	188.532E-12	474.392E-3	-12.3711E-3
4.74487E-3	191.512E-12	524.686E-3	-7.08309E-3	188.944E-12	500.446E-3	-30.6219E-3
4.73987E-3	192.228E-12	552.119E-3	-28.2393E-3	189.997E-12	523.562E-3	-40.0609E-3
4.73487E-3	191.092E-12	532.154E-3	-18.7554E-3	189.192E-12	514.707E-3	-3.48085E-3
4.72986E-3	191.822E-12	491.557E-3	3.06225E-3	187.109E-12	492.556E-3	33.6889E-3
4.72486E-3	192.312E-12	499.220E-3	8.70434E-3	187.942E-12	482.255E-3	30.7489E-3
4.71986E-3	193.549E-12	512.798E-3	-17.3317E-3	188.409E-12	508.021E-3	11.0925E-3
4.71486E-3	192.784E-12	487.015E-3	-44.4491E-3	188.972E-12	557.457E-3	-13.5476E-3
4.70985E-3	191.342E-12	456.359E-3	-38.5626E-3	186.742E-12	577.132E-3	-47.9693E-3
4.70485E-3	190.531E-12	466.810E-3	-27.0862E-3	185.498E-12	571.094E-3	-64.2165E-3
4.69985E-3	190.642E-12	489.159E-3	-20.2879E-3	187.864E-12	558.462E-3	-43.5773E-3
4.69485E-3	190.135E-12	480.905E-3	-23.0703E-3	189.094E-12	538.180E-3	-19.2257E-3
4.68984E-3	187.674E-12	484.529E-3	-41.5921E-3	188.156E-12	529.037E-3	-15.1515E-3
4.68484E-3	186.628E-12	494.712E-3	-57.2928E-3	187.491E-12	531.163E-3	-182.643E-6
4.67984E-3	185.806E-12	499.174E-3	-64.7856E-3	188.398E-12	519.604E-3	21.3978E-3
4.67484E-3	186.510E-12	511.628E-3	-61.0931E-3	189.596E-12	495.220E-3	33.7226E-3
4.66983E-3	186.990E-12	507.388E-3	-48.3140E-3	189.201E-12	493.772E-3	26.0219E-3
4.66483E-3	187.273E-12	496.019E-3	-35.7502E-3	186.770E-12	518.416E-3	-15.9855E-3
4.65983E-3	187.053E-12	504.643E-3	-45.2381E-3	187.210E-12	522.318E-3	-27.1297E-3
4.65483E-3	187.497E-12	502.292E-3	-70.4263E-3	187.898E-12	506.077E-3	-2.23268E-3
4.64982E-3	189.105E-12	494.060E-3	-60.2945E-3	188.457E-12	509.638E-3	2.83090E-3
4.64482E-3	189.002E-12	507.021E-3	-31.4603E-3	185.969E-12	528.822E-3	-13.3169E-3
4.63982E-3	188.725E-12	512.254E-3	-13.2973E-3	184.442E-12	534.597E-3	-21.9737E-3
4.63482E-3	188.962E-12	526.303E-3	10.1328E-3	184.949E-12	522.892E-3	-12.6895E-3
4.62981E-3	190.254E-12	540.488E-3	25.5321E-3	186.807E-12	509.137E-3	7.73679E-3
4.62481E-3	190.047E-12	533.546E-3	6.74206E-3	185.814E-12	514.345E-3	28.6218E-3
4.61981E-3	188.372E-12	517.922E-3	-22.9804E-3	183.701E-12	529.115E-3	16.0125E-3
4.61481E-3	188.397E-12	505.630E-3	-38.4691E-3	185.221E-12	548.332E-3	-3.68399E-3
4.60980E-3	187.907E-12	538.440E-3	-21.1720E-3	186.946E-12	571.869E-3	15.8718E-3
4.60480E-3	186.332E-12	568.553E-3	2.30243E-3	186.177E-12	562.311E-3	36.3428E-3
4.59980E-3	184.625E-12	549.090E-3	-11.3389E-3	183.545E-12	526.531E-3	33.2245E-3
4.59480E-3	184.119E-12	540.362E-3	-3.51920E-3	184.617E-12	514.952E-3	23.6298E-3
4.58979E-3	183.399E-12	546.034E-3	21.9829E-3	186.833E-12	532.102E-3	4.58229E-3
4.58479E-3	182.684E-12	540.808E-3	-5.15165E-3	186.120E-12	540.286E-3	-10.6748E-3
4.57979E-3	183.286E-12	533.738E-3	-47.4059E-3	185.258E-12	547.918E-3	-28.0493E-3
4.57479E-3	182.519E-12	514.392E-3	-43.0359E-3	184.993E-12	546.832E-3	-25.3920E-3
4.56978E-3	181.547E-12	505.839E-3	-26.4349E-3	184.718E-12	501.068E-3	-10.3538E-3
4.56478E-3	182.241E-12	504.534E-3	-24.5553E-3	185.147E-12	461.679E-3	-27.6802E-3
4.55978E-3	183.553E-12	491.706E-3	-28.6950E-3	184.656E-12	489.061E-3	-26.6058E-3
4.55478E-3	184.236E-12	497.654E-3	-39.4214E-3	183.373E-12	531.262E-3	3.80732E-3
4.54977E-3	183.656E-12	506.268E-3	-49.5333E-3	183.686E-12	542.997E-3	14.6225E-3
4.54477E-3	184.815E-12	477.061E-3	-39.8874E-3	183.389E-12	536.680E-3	-8.53748E-3
4.53977E-3	185.507E-12	466.363E-3	-29.7870E-3	182.233E-12	518.517E-3	-28.3850E-3
4.53477E-3	184.592E-12	514.651E-3	-56.6367E-3	181.940E-12	508.717E-3	3.04053E-3
4.52976E-3	184.676E-12	555.292E-3	-54.5903E-3	182.099E-12	520.040E-3	24.2588E-3
4.52476E-3	185.968E-12	554.719E-3	-8.55564E-3	183.112E-12	540.741E-3	-15.4666E-3
4.51976E-3	185.963E-12	555.423E-3	-8.08553E-3	182.938E-12	544.661E-3	-38.5971E-3
4.51476E-3	183.729E-12	576.505E-3	-47.4329E-3	183.012E-12	547.602E-3	-24.2074E-3
4.50975E-3	183.778E-12	555.512E-3	-56.8911E-3	183.610E-12	562.876E-3	-29.8973E-3
4.50475E-3	183.290E-12	526.536E-3	-46.8474E-3	183.673E-12	556.802E-3	-38.2214E-3
4.49975E-3	181.243E-12	542.595E-3	-41.5469E-3	184.085E-12	541.248E-3	-35.5485E-3
4.49475E-3	180.016E-12	543.007E-3	-58.9847E-3	183.072E-12	542.886E-3	-48.5797E-3
4.48974E-3	179.964E-12	516.367E-3	-89.3980E-3	183.336E-12	544.361E-3	-51.1789E-3
4.48474E-3	180.634E-12	502.489E-3	-65.8168E-3	182.787E-12	519.426E-3	-32.2242E-3
4.47974E-3	181.277E-12	507.204E-3	-33.6228E-3	183.386E-12	500.398E-3	-26.6997E-3
4.47474E-3	181.133E-12	519.559E-3	-33.6316E-3	184.105E-12	506.576E-3	-11.0096E-3
4.46973E-3	181.380E-12	519.224E-3	-21.4037E-3	183.392E-12	519.355E-3	24.4921E-3
4.46473E-3	180.320E-12	495.292E-3	-12.9511E-3	182.752E-12	529.540E-3	17.2081E-3
4.45973E-3	180.631E-12	474.168E-3	-35.4674E-3	181.313E-12	520.861E-3	-9.29944E-3
4.45473E-3	180.265E-12	474.602E-3	-51.4128E-3	181.528E-12	499.708E-3	-11.7029E-3
4.44972E-3	181.104E-12	501.509E-3	-44.7659E-3	181.296E-12	480.853E-3	-39.6368E-3
4.44472E-3	182.200E-12	513.324E-3	-39.6762E-3	179.677E-12	479.829E-3	-47.5001E-3
4.43972E-3	182.023E-12	515.676E-3	-28.9003E-3	179.061E-12	494.686E-3	-7.99972E-3
4.43472E-3	181.227E-12	532.561E-3	-11.9693E-3	178.412E-12	492.261E-3	-10.9962E-3
4.42971E-3	180.669E-12	523.487E-3	-26.6688E-3	179.454E-12	473.364E-3	-16.5437E-3
4.42471E-3	180.988E-12	507.148E-3	-66.2265E-3	179.726E-12	491.749E-3	98.3364E-6
4.41971E-3	181.711E-12	528.584E-3	-71.8742E-3	178.546E-12	542.315E-3	-10.2023E-3
4.41471E-3	182.075E-12	564.755E-3	-53.2372E-3	177.573E-12	563.293E-3	-16.7976E-3
4.40970E-3	179.773E-12	578.451E-3	-31.3428E-3	178.644E-12	552.144E-3	-14.0300E-3
4.40470E-3	179.220E-12	545.138E-3	-14.6644E-3	179.363E-12	529.126E-3	-24.3826E-3
4.39970E-3	180.464E-12	492.857E-3	-41.4309E-3	178.830E-12	527.746E-3	-28.2024E-3
4.39470E-3	180.502E-12	473.238E-3	-63.7369E-3	178.448E-12	548.075E-3	-20.8907E-3
4.38969E-3	179.872E-12	480.186E-3	-31.0967E-3	179.847E-12	542.626E-3	-19.2066E-3
4.38469E-3	178.857E-12	522.414E-3	-9.63608E-3	180.092E-12	533.377E-3	-8.39924E-3
4.37969E-3	179.637E-12	569.460E-3	-20.6184E-3	180.160E-12	526.665E-3	700.971E-6
4.37469E-3	179.276E-12	564.338E-3	-36.2740E-3	179.931E-12	525.860E-3	-8.79197E-3
4.36968E-3	179.462E-12	535.179E-3	-52.1659E-3	179.641E-12	529.506E-3	-16.4580E-3
4.36468E-3	179.115E-12	527.219E-3	-48.3488E-3	179.334E-12	502.748E-3	-26.1263E-3
4.35968E-3	178.333E-12	524.523E-3	-33.8471E-3	180.072E-12	486.097E-3	-28.3772E-3
4.35468E-3	177.294E-12	506.383E-3	-23.4479E-3	179.622E-12	488.520E-3	-21.4937E-3
4.34967E-3	176.717E-12	494.104E-3	-25.2825E-3	178.432E-12	479.797E-3	-17.4307E-3
4.34467E-3	176.659E-12	505.599E-3	-22.9600E-3	178.787E-12	509.122E-3	-16.4511E-3
4.33967E-3	175.883E-12	515.538E-3	-2.88022E-3	178.550E-12	540.251E-3	-10.1676E-3
4.33467E-3	175.079E-12	520.823E-3	7.66930E-3	178.242E-12	531.698E-3	12.4639E-3
4.32966E-3	175.994E-12	535.756E-3	-5.19881E-3	177.175E-12	536.072E-3	14.8005E-3
4.32466E-3	176.413E-12	536.600E-3	-25.8172E-3	177.180E-12	536.878E-3	-4.37179E-3
4.31966E-3	175.669E-12	531.321E-3	-37.0406E-3	176.822E-12	530.124E-3	4.24092E-3
4.31466E-3	175.063E-12	497.349E-3	-35.7561E-3	175.340E-12	528.313E-3	-3.74664E-3
4.30965E-3	176.447E-12	457.417E-3	-25.7918E-3	174.906E-12	516.565E-3	-36.2037E-3
4.30465E-3	177.453E-12	485.569E-3	-22.1556E-3	174.648E-12	506.505E-3	-41.1522E-3
4.29965E-3	176.522E-12	522.588E-3	-30.1747E-3	174.215E-12	506.535E-3	-47.2460E-3
4.29465E-3	175.880E-12	509.725E-3	-34.1525E-3	173.913E-12	531.679E-3	-35.4598E-3
4.28964E-3	175.813E-12	492.208E-3	-16.5609E-3	173.888E-12	561.856E-3	-79.1888E-6
4.28464E-3	176.485E-12	479.626E-3	-16.8148E-3	174.129E-12	562.393E-3	-9.42703E-3
4.27964E-3	176.588E-12	469.482E-3	-36.9780E-3	172.827E-12	540.589E-3	-54.8670E-3
4.27464E-3	175.001E-12	482.892E-3	-42.9187E-3	174.854E-12	512.974E-3	-60.4558E-3
4.26963E-3	174.163E-12	499.662E-3	-42.8188E-3	176.001E-12	517.893E-3	-17.2720E-3
4.26463E-3	174.025E-12	501.198E-3	-34.6126E-3	176.052E-12	529.708E-3	5.18108E-3
4.25963E-3	172.651E-12	499.344E-3	-25.8055E-3	176.119E-12	518.982E-3	-4.87721E-3
4.25463E-3	171.612E-12	508.827E-3	-28.4598E-3	174.786E-12	542.297E-3	3.97989E-3
4.24962E-3	170.949E-12	497.938E-3	-36.2501E-3	175.565E-12	575.329E-3	33.4606E-3
4.24462E-3	170.891E-12	475.342E-3	-45.7339E-3	174.880E-12	572.884E-3	38.9294E-3
4.23962E-3	171.535E-12	481.972E-3	-42.3795E-3	173.755E-12	555.835E-3	11.0343E-3
4.23462E-3	172.351E-12	477.621E-3	-9.66194E-3	173.518E-12	534.200E-3	-24.5245E-3
4.22961E-3	172.194E-12	476.416E-3	5.58464E-3	172.995E-12	525.907E-3	-32.7763E-3
4.22461E-3	173.516E-12	497.381E-3	-31.0157E-3	171.856E-12	532.332E-3	-10.1653E-3
4.21961E-3	174.229E-12	498.077E-3	-57.9508E-3	170.555E-12	540.327E-3	-1.56327E-3
4.21461E-3	175.201E-12	492.266E-3	-31.0872E-3	171.605E-12	517.001E-3	-7.66926E-3
4.20960E-3	176.446E-12	506.489E-3	-24.6144E-3	173.153E-12	479.326E-3	-1.67941E-3
4.20460E-3	176.001E-12	511.467E-3	-56.6142E-3	172.244E-12	477.989E-3	-144.444E-6
4.19960E-3	177.110E-12	504.919E-3	-52.8325E-3	169.495E-12	483.643E-3	9.15728E-3
4.19460E-3	177.011E-12	513.846E-3	-29.4433E-3	170.596E-12	475.949E-3	20.3667E-3
4.18959E-3	176.746E-12	531.159E-3	-36.0022E-3	171.882E-12	470.809E-3	15.5957E-3
4.18459E-3	174.825E-12	531.414E-3	-50.6341E-3	172.475E-12	497.228E-3	18.7336E-3
4.17959E-3	173.679E-12	525.792E-3	-37.2427E-3	171.502E-12	543.375E-3	8.61964E-3
4.17459E-3	174.364E-12	534.169E-3	-44.1982E-3	170.659E-12	543.351E-3	-36.9351E-3
4.16958E-3	172.246E-12	541.940E-3	-70.1845E-3	171.763E-12	526.285E-3	-69.1065E-3
4.16458E-3	170.660E-12	539.384E-3	-69.6881E-3	172.063E-12	541.848E-3	-44.6085E-3
4.15958E-3	169.408E-12	524.858E-3	-33.3265E-3	172.450E-12	534.503E-3	-4.31388E-3
4.15458E-3	169.270E-12	513.102E-3	2.42912E-3	171.529E-12	508.139E-3	5.64250E-3
4.14957E-3	167.747E-12	514.567E-3	-5.22755E-3	170.606E-12	532.696E-3	-9.34389E-3
4.14457E-3	168.401E-12	522.408E-3	-21.4428E-3	169.699E-12	569.641E-3	-18.4353E-3
4.13957E-3	168.124E-12	522.333E-3	-41.4696E-3	171.819E-12	574.740E-3	-15.2736E-3
4.13457E-3	168.297E-12	510.592E-3	-48.0881E-3	172.064E-12	543.439E-3	-10.2312E-3
4.12956E-3	167.711E-12	507.917E-3	-21.3353E-3	170.380E-12	501.676E-3	1.03976E-3
4.12456E-3	170.265E-12	527.614E-3	5.59335E-3	169.158E-12	502.842E-3	12.4408E-3
4.11956E-3	170.970E-12	545.282E-3	-7.40311E-3	169.372E-12	529.683E-3	1.68481E-3
4.11456E-3	171.693E-12	552.724E-3	-31.5643E-3	169.826E-12	542.080E-3	-21.0351E-3
4.10955E-3	171.327E-12	546.509E-3	-31.1328E-3	169.319E-12	532.139E-3	-28.7196E-3
4.10455E-3	173.410E-12	511.245E-3	-24.6463E-3	169.040E-12	522.125E-3	-30.4076E-3
4.09955E-3	172.668E-12	493.188E-3	-22.7797E-3	168.825E-12	512.037E-3	-23.1388E-3
4.09455E-3	172.202E-12	518.253E-3	-30.9497E-3	169.865E-12	494.801E-3	8.60915E-3
4.08954E-3	171.463E-12	546.532E-3	-37.1190E-3	169.354E-12	493.423E-3	20.3064E-3
4.08454E-3	171.320E-12	559.159E-3	-32.8924E-3	169.011E-12	502.447E-3	-4.95754E-3
4.07954E-3	170.862E-12	572.241E-3	-29.1745E-3	168.669E-12	514.997E-3	-10.0679E-3
4.07454E-3	169.400E-12	578.364E-3	-38.2181E-3	168.340E-12	520.814E-3	9.40787E-3
4.06953E-3	168.310E-12	552.579E-3	-40.5961E-3	168.329E-12	514.497E-3	2.24304E-3
4.06453E-3	166.774E-12	515.095E-3	-37.5155E-3	167.893E-12	520.911E-3	-40.5065E-3
4.05953E-3	165.690E-12	507.327E-3	-47.9372E-3	167.856E-12	546.774E-3	-65.2650E-3
4.05453E-3	164.641E-12	498.901E-3	-54.8937E-3	167.467E-12	571.769E-3	-60.5102E-3
4.04952E-3	166.436E-12	479.257E-3	-45.1801E-3	168.196E-12	580.210E-3	-37.8151E-3
4.04452E-3	165.265E-12	488.847E-3	-25.9289E-3	169.099E-12	590.380E-3	-17.8382E-3
4.03952E-3	162.785E-12	510.733E-3	-3.44674E-3	168.333E-12	585.241E-3	-15.4488E-3
4.03452E-3	163.544E-12	518.972E-3	4.07397E-3	167.880E-12	540.516E-3	-17.7110E-3
4.02951E-3	165.371E-12	499.905E-3	-526.341E-6	168.106E-12	513.959E-3	-37.0116E-3
4.02451E-3	165.818E-12	481.756E-3	7.34297E-3	169.400E-12	525.261E-3	-58.6669E-3
4.01951E-3	163.180E-12	506.599E-3	20.0119E-3	167.910E-12	540.232E-3	-55.8722E-3
4.01451E-3	164.058E-12	542.655E-3	-3.08923E-3	167.308E-12	537.518E-3	-29.1684E-3
4.00950E-3	165.553E-12	546.030E-3	-41.9252E-3	167.127E-12	511.650E-3	-14.6242E-3
4.00450E-3	166.408E-12	527.259E-3	-40.7734E-3	166.809E-12	506.619E-3	-32.2425E-3
3.99950E-3	164.629E-12	533.715E-3	-37.2263E-3	167.032E-12	531.509E-3	-44.5631E-3
3.99450E-3	164.388E-12	571.819E-3	-32.3623E-3	166.269E-12	555.334E-3	-46.1123E-3
3.98949E-3	165.966E-12	582.875E-3	-8.92130E-3	165.552E-12	571.920E-3	-34.8136E-3
3.98449E-3	165.828E-12	550.812E-3	-30.2765E-3	164.261E-12	576.943E-3	-10.6659E-3
3.97949E-3	166.033E-12	522.634E-3	-72.5714E-3	164.080E-12	559.117E-3	-4.98584E-3
3.97449E-3	163.043E-12	502.114E-3	-54.3087E-3	164.729E-12	534.526E-3	-12.9068E-3
3.96948E-3	163.946E-12	491.549E-3	-12.1136E-3	164.059E-12	539.288E-3	-19.8424E-3
3.96448E-3	163.476E-12	507.197E-3	-5.22956E-3	163.166E-12	553.494E-3	-30.0298E-3
3.95948E-3	163.630E-12	514.289E-3	5.83111E-3	163.291E-12	548.295E-3	-26.7227E-3
3.95448E-3	163.038E-12	506.393E-3	35.2276E-3	164.753E-12	533.817E-3	-5.54814E-3
3.94947E-3	160.739E-12	516.928E-3	24.4892E-3	165.385E-12	505.103E-3	3.95289E-3
3.94447E-3	160.721E-12	534.088E-3	-17.4694E-3	164.224E-12	499.175E-3	10.6463E-3
3.93947E-3	160.505E-12	545.045E-3	-28.2795E-3	162.837E-12	541.489E-3	-6.35866E-3
3.93447E-3	161.549E-12	544.598E-3	-13.5602E-3	164.331E-12	560.453E-3	-39.3391E-3
3.92946E-3	159.666E-12	520.311E-3	-6.73566E-3	165.067E-12	543.923E-3	-39.0578E-3
3.92446E-3	159.140E-12	499.918E-3	1.89919E-3	164.742E-12	537.910E-3	-25.3148E-3
3.91946E-3	160.016E-12	512.919E-3	2.08860E-3	162.981E-12	546.970E-3	-26.5548E-3
3.91446E-3	160.202E-12	543.337E-3	-28.0509E-3	162.432E-12	551.292E-3	-41.3832E-3
3.90945E-3	160.150E-12	541.103E-3	-52.8760E-3	163.238E-12	543.214E-3	-47.9809E-3
3.90445E-3	159.533E-12	523.907E-3	-36.8741E-3	163.185E-12	558.384E-3	-29.7362E-3
3.89945E-3	160.835E-12	515.674E-3	-22.8913E-3	161.628E-12	589.680E-3	-16.0833E-3
3.89445E-3	161.070E-12	499.353E-3	-31.2221E-3	160.250E-12	596.600E-3	-24.9990E-3
3.88944E-3	161.506E-12	502.026E-3	-34.3493E-3	160.863E-12	580.823E-3	-43.7764E-3
3.88444E-3	160.743E-12	523.085E-3	-36.1016E-3	160.247E-12	542.863E-3	-56.3446E-3
3.87944E-3	160.447E-12	518.680E-3	-52.4158E-3	159.630E-12	508.708E-3	-41.9090E-3
3.87444E-3	161.238E-12	502.875E-3	-58.9746E-3	156.933E-12	501.750E-3	-16.2256E-3
3.86943E-3	162.097E-12	521.003E-3	-30.4777E-3	157.385E-12	503.566E-3	-1.20183E-3
3.86443E-3	161.749E-12	553.669E-3	-2.12349E-3	158.117E-12	525.457E-3	10.3933E-3
3.85943E-3	160.687E-12	546.402E-3	-88.4923E-6	158.075E-12	549.442E-3	15.4014E-3
3.85443E-3	159.826E-12	514.434E-3	-3.70061E-3	158.579E-12	534.728E-3	-589.154E-6
3.84942E-3	159.992E-12	514.988E-3	-12.2119E-3	159.238E-12	509.505E-3	-13.8503E-3
3.84442E-3	159.587E-12	535.586E-3	-21.7371E-3	160.018E-12	513.289E-3	-10.1398E-3
3.83942E-3	157.783E-12	548.322E-3	-10.4893E-3	159.634E-12	534.334E-3	-23.3712E-3
3.83442E-3	157.402E-12	539.107E-3	-23.1236E-3	159.721E-12	551.943E-3	-40.2892E-3
3.82941E-3	157.126E-12	524.997E-3	-53.4646E-3	158.909E-12	565.237E-3	-36.6104E-3
3.82441E-3	157.248E-12	523.245E-3	-39.7539E-3	159.801E-12	560.014E-3	-29.2177E-3
3.81941E-3	157.027E-12	507.836E-3	-4.84119E-3	158.650E-12	556.515E-3	-13.7393E-3
3.81441E-3	156.633E-12	498.918E-3	-649.728E-6	157.860E-12	578.704E-3	-2.51222E-3
3.80940E-3	155.434E-12	517.435E-3	-8.07555E-3	159.448E-12	583.576E-3	-11.0751E-3
3.80440E-3	156.132E-12	543.607E-3	-10.3300E-3	158.373E-12	550.637E-3	-32.9731E-3
3.79940E-3	156.701E-12	556.038E-3	-21.9270E-3	158.495E-12	529.249E-3	-35.7062E-3
3.79440E-3	157.051E-12	548.574E-3	-15.0680E-3	158.047E-12	528.789E-3	-10.0856E-3
3.78939E-3	156.892E-12	526.420E-3	-14.4420E-3	158.186E-12	532.621E-3	-5.88003E-3
3.78439E-3	157.906E-12	514.971E-3	-66.3523E-3	157.952E-12	541.211E-3	-17.4121E-3
3.77939E-3	158.657E-12	523.785E-3	-103.867E-3	157.445E-12	548.282E-3	-25.7461E-3
3.77439E-3	159.010E-12	526.465E-3	-80.8906E-3	157.409E-12	550.776E-3	-30.3314E-3
3.76938E-3	158.970E-12	520.888E-3	-45.0560E-3	158.253E-12	534.240E-3	-22.6414E-3
3.76438E-3	158.724E-12	522.887E-3	-5.36217E-3	158.166E-12	513.955E-3	-13.9269E-3
3.75938E-3	158.874E-12	536.617E-3	21.2695E-3	158.214E-12	511.021E-3	-16.3562E-3
3.75438E-3	158.396E-12	545.704E-3	9.85980E-3	157.954E-12	523.609E-3	-33.8131E-3
3.74937E-3	156.351E-12	549.756E-3	-521.555E-6	157.759E-12	545.879E-3	-38.1637E-3
3.74437E-3	155.068E-12	556.604E-3	19.8875E-3	158.569E-12	537.689E-3	-14.8955E-3
3.73937E-3	154.609E-12	554.900E-3	25.7296E-3	159.025E-12	515.395E-3	-8.19938E-3
3.73437E-3	154.744E-12	544.941E-3	-7.57363E-3	158.648E-12	514.642E-3	-21.3159E-3
3.72936E-3	154.016E-12	532.861E-3	-18.2384E-3	156.784E-12	519.806E-3	-38.7280E-3
3.72436E-3	152.228E-12	518.722E-3	-10.0460E-3	156.664E-12	531.243E-3	-65.7188E-3
3.71936E-3	151.958E-12	519.399E-3	-22.7182E-3	157.136E-12	533.193E-3	-74.0501E-3
3.71436E-3	151.949E-12	532.593E-3	-24.6241E-3	156.049E-12	518.008E-3	-54.9726E-3
3.70935E-3	152.273E-12	547.111E-3	-6.67562E-3	155.211E-12	517.492E-3	-35.8136E-3
3.70435E-3	152.783E-12	558.207E-3	-13.8345E-3	153.731E-12	524.111E-3	-34.1022E-3
3.69935E-3	152.820E-12	563.144E-3	-31.5596E-3	153.916E-12	519.939E-3	-46.7412E-3
3.69435E-3	153.202E-12	570.647E-3	-31.9449E-3	154.429E-12	520.241E-3	-52.9467E-3
3.68934E-3	154.348E-12	576.618E-3	-26.4834E-3	154.878E-12	528.758E-3	-48.9317E-3
3.68434E-3	154.815E-12	574.803E-3	-8.53602E-3	154.334E-12	540.842E-3	-42.3601E-3
3.67934E-3	152.894E-12	554.154E-3	5.59070E-3	153.361E-12	545.309E-3	-34.3581E-3
3.67434E-3	154.370E-12	522.703E-3	429.268E-6	153.696E-12	541.744E-3	-42.6750E-3
3.66933E-3	155.768E-12	519.977E-3	-15.2614E-3	153.736E-12	550.830E-3	-48.0763E-3
3.66433E-3	156.263E-12	552.098E-3	-21.2998E-3	153.639E-12	555.724E-3	-32.6631E-3
3.65933E-3	155.275E-12	572.485E-3	11.8289E-3	152.685E-12	539.030E-3	-20.9763E-3
3.65433E-3	154.324E-12	563.440E-3	47.1310E-3	152.388E-12	524.106E-3	-29.6480E-3
3.64932E-3	154.861E-12	540.406E-3	21.6705E-3	153.810E-12	531.067E-3	-45.9658E-3
3.64432E-3	154.032E-12	530.354E-3	-17.6958E-3	154.178E-12	543.156E-3	-50.9252E-3
3.63932E-3	152.988E-12	537.821E-3	-20.3191E-3	153.139E-12	556.554E-3	-34.2650E-3
3.63432E-3	150.898E-12	542.503E-3	-9.06018E-3	151.865E-12	581.150E-3	-21.7489E-3
3.62931E-3	150.796E-12	549.775E-3	-16.3959E-3	152.459E-12	587.135E-3	-27.5737E-3
3.62431E-3	150.615E-12	558.623E-3	-24.1053E-3	152.397E-12	564.596E-3	-11.4691E-3
3.61931E-3	150.567E-12	558.584E-3	-15.0261E-3	152.188E-12	551.101E-3	9.59460E-3
3.61431E-3	149.503E-12	562.632E-3	-14.6756E-3	151.575E-12	556.554E-3	-14.2773E-3
3.60930E-3	149.937E-12	576.935E-3	-16.4717E-3	151.312E-12	550.104E-3	-50.7146E-3
3.60430E-3	149.739E-12	567.036E-3	-9.04651E-3	151.987E-12	539.153E-3	-38.9241E-3
3.59930E-3	149.852E-12	539.912E-3	-7.86631E-3	152.638E-12	545.011E-3	-15.7953E-3
3.59430E-3	149.796E-12	538.910E-3	-8.67972E-3	152.656E-12	550.355E-3	-17.4662E-3
3.58929E-3	151.417E-12	543.855E-3	-10.5822E-3	152.417E-12	555.595E-3	-14.1693E-3
3.58429E-3	152.152E-12	541.486E-3	-21.3814E-3	152.103E-12	558.999E-3	-6.05892E-3
3.57929E-3	151.942E-12	558.300E-3	-25.5231E-3	151.854E-12	543.849E-3	7.06970E-3
3.57429E-3	152.658E-12	577.701E-3	-32.3350E-3	152.355E-12	529.022E-3	6.72113E-3
3.56928E-3	152.056E-12	591.783E-3	-41.5872E-3	151.009E-12	534.591E-3	-17.5236E-3
3.56428E-3	151.912E-12	605.706E-3	-23.9747E-3	149.170E-12	543.303E-3	-23.2087E-3
3.55928E-3	151.318E-12	590.853E-3	-1.42976E-3	148.986E-12	543.289E-3	-24.1019E-3
3.55428E-3	151.036E-12	568.430E-3	-5.75174E-3	150.385E-12	541.168E-3	-39.5119E-3
3.54927E-3	150.157E-12	555.939E-3	-13.6664E-3	149.534E-12	535.161E-3	-36.3311E-3
3.54427E-3	149.394E-12	550.966E-3	-3.69003E-3	148.467E-12	547.688E-3	-10.7681E-3
3.53927E-3	149.207E-12	549.302E-3	-2.52062E-3	147.691E-12	576.273E-3	10.2781E-3
3.53427E-3	148.606E-12	526.913E-3	-8.36369E-3	149.225E-12	568.579E-3	11.2217E-3
3.52926E-3	147.768E-12	506.309E-3	12.5817E-3	150.156E-12	542.223E-3	-6.57542E-3
3.52426E-3	146.923E-12	516.532E-3	20.1076E-3	148.975E-12	545.144E-3	-23.8726E-3
3.51926E-3	147.201E-12	547.533E-3	-14.5019E-3	149.590E-12	551.611E-3	-28.6353E-3
3.51426E-3	147.364E-12	563.638E-3	-43.1483E-3	148.835E-12	545.056E-3	-13.0675E-3
3.50925E-3	146.466E-12	550.346E-3	-47.3496E-3	150.340E-12	536.583E-3	498.874E-6
3.50425E-3	146.595E-12	521.725E-3	-22.4149E-3	149.428E-12	531.167E-3	-19.3151E-3
3.49925E-3	147.276E-12	513.614E-3	17.7979E-3	148.424E-12	526.188E-3	-25.0650E-3
3.49425E-3	147.724E-12	531.846E-3	27.3967E-3	147.677E-12	540.485E-3	-3.67152E-3
3.48924E-3	147.100E-12	558.508E-3	-3.10071E-3	147.412E-12	555.365E-3	-1.60503E-6
3.48424E-3	146.976E-12	571.743E-3	-33.3643E-3	147.912E-12	531.855E-3	-1.67753E-3
3.47924E-3	148.292E-12	553.392E-3	-38.6320E-3	147.512E-12	506.598E-3	9.66193E-3
3.47424E-3	149.306E-12	523.834E-3	-38.5209E-3	146.653E-12	504.495E-3	2.38312E-3
3.46923E-3	148.618E-12	517.424E-3	-47.3659E-3	144.396E-12	519.952E-3	-29.1850E-3
3.46423E-3	147.625E-12	532.815E-3	-59.6587E-3	145.323E-12	539.134E-3	-39.7783E-3
3.45923E-3	147.642E-12	542.094E-3	-60.0526E-3	145.327E-12	546.231E-3	-34.3280E-3
3.45423E-3	147.024E-12	544.074E-3	-48.0562E-3	145.469E-12	542.719E-3	-18.3664E-3
3.44922E-3	147.068E-12	546.040E-3	-28.2986E-3	143.970E-12	535.633E-3	14.2807E-3
3.44422E-3	146.482E-12	549.910E-3	-11.2492E-3	143.985E-12	535.357E-3	28.5466E-3
3.43922E-3	144.652E-12	548.755E-3	-42.1803E-3	145.318E-12	539.122E-3	31.6742E-3
3.43422E-3	144.714E-12	530.334E-3	-83.0307E-3	145.606E-12	545.165E-3	13.9875E-3
3.42921E-3	144.872E-12	517.343E-3	-65.8939E-3	145.302E-12	560.256E-3	-23.8078E-3
3.42421E-3	145.046E-12	526.114E-3	-36.7336E-3	144.904E-12	558.665E-3	-34.6410E-3
3.41921E-3	143.768E-12	522.334E-3	-39.8212E-3	144.770E-12	543.852E-3	-42.5890E-3
3.41421E-3	142.897E-12	512.561E-3	-39.9444E-3	144.207E-12	516.533E-3	-53.8870E-3
3.40920E-3	142.871E-12	512.946E-3	-3.40534E-3	145.120E-12	485.341E-3	-35.8998E-3
3.40420E-3	142.412E-12	519.384E-3	23.3807E-3	144.903E-12	504.260E-3	-12.5621E-3
3.39920E-3	142.183E-12	539.644E-3	-2.05043E-3	143.315E-12	527.949E-3	-11.6955E-3
3.39420E-3	142.407E-12	542.371E-3	-33.7749E-3	142.544E-12	517.920E-3	-20.5316E-3
3.38919E-3	143.373E-12	519.351E-3	-43.1686E-3	142.458E-12	520.690E-3	-15.2940E-3
3.38419E-3	143.356E-12	498.838E-3	-45.0482E-3	143.508E-12	537.160E-3	-3.00694E-3
3.37919E-3	143.324E-12	501.980E-3	-30.6042E-3	141.466E-12	544.334E-3	-10.1271E-3
3.37419E-3	143.695E-12	526.959E-3	-2.04874E-3	141.367E-12	533.724E-3	-26.0286E-3
3.36918E-3	144.418E-12	536.680E-3	9.46947E-3	141.415E-12	530.302E-3	-18.5522E-3
3.36418E-3	144.567E-12	522.699E-3	5.82483E-3	142.010E-12	543.465E-3	-13.6022E-3
3.35918E-3	143.831E-12	513.520E-3	-21.1637E-3	141.440E-12	546.218E-3	-14.5441E-3
3.35418E-3	144.038E-12	508.190E-3	-53.5248E-3	141.565E-12	542.358E-3	-4.22068E-3
3.34917E-3	143.939E-12	499.356E-3	-34.1079E-3	142.295E-12	543.471E-3	-4.17955E-3
3.34417E-3	143.840E-12	519.958E-3	-11.2946E-3	142.086E-12	556.541E-3	-19.2055E-3
3.33917E-3	143.845E-12	552.103E-3	-8.35526E-3	141.971E-12	573.523E-3	-39.0900E-3
3.33417E-3	143.813E-12	547.519E-3	16.1917E-3	141.669E-12	586.688E-3	-47.7749E-3
3.32916E-3	143.866E-12	528.419E-3	21.6942E-3	141.979E-12	584.942E-3	-36.0000E-3
3.32416E-3	143.065E-12	530.729E-3	-15.1744E-3	141.906E-12	548.904E-3	-36.1616E-3
3.31916E-3	142.246E-12	545.838E-3	-28.0254E-3	142.291E-12	517.305E-3	-59.7014E-3
3.31416E-3	141.068E-12	560.795E-3	-14.0632E-3	141.288E-12	537.562E-3	-53.1526E-3
3.30915E-3	140.492E-12	575.779E-3	-16.4350E-3	140.858E-12	566.987E-3	-14.9009E-3
3.30415E-3	138.920E-12	571.876E-3	-72.9636E-6	140.247E-12	545.315E-3	1.31215E-3
3.29915E-3	139.034E-12	553.677E-3	19.7375E-3	140.584E-12	511.569E-3	-21.9330E-3
3.29415E-3	138.710E-12	554.817E-3	3.94807E-3	139.019E-12	517.948E-3	-45.9021E-3
3.28914E-3	138.683E-12	555.578E-3	-22.6540E-3	139.071E-12	527.781E-3	-47.6353E-3
3.28414E-3	137.648E-12	534.419E-3	-41.0902E-3	139.745E-12	525.896E-3	-30.7880E-3
3.27914E-3	137.633E-12	532.205E-3	-47.0479E-3	139.872E-12	528.055E-3	9.53249E-3
3.27414E-3	138.802E-12	549.450E-3	-49.5203E-3	138.551E-12	516.630E-3	20.6358E-3
3.26913E-3	139.656E-12	538.476E-3	-45.4882E-3	138.356E-12	508.800E-3	-9.98791E-3
3.26413E-3	139.653E-12	521.674E-3	-15.5326E-3	138.960E-12	533.166E-3	-35.3625E-3
3.25913E-3	139.739E-12	530.758E-3	2.59549E-3	138.615E-12	566.642E-3	-47.5221E-3
3.25413E-3	139.793E-12	549.635E-3	-33.2257E-3	137.546E-12	573.163E-3	-40.7159E-3
3.24912E-3	140.616E-12	560.279E-3	-67.6184E-3	136.950E-12	552.750E-3	-17.1801E-3
3.24412E-3	140.789E-12	554.591E-3	-56.3151E-3	137.599E-12	525.621E-3	-14.9055E-3
3.23912E-3	139.964E-12	547.344E-3	-17.2313E-3	137.642E-12	520.112E-3	-37.2496E-3
3.23412E-3	139.116E-12	534.359E-3	13.5367E-3	136.982E-12	538.627E-3	-39.2890E-3
3.22911E-3	139.753E-12	526.282E-3	6.71469E-3	137.576E-12	546.858E-3	-16.6936E-3
3.22411E-3	139.251E-12	537.645E-3	10.1510E-3	137.194E-12	536.420E-3	-7.15599E-3
3.21911E-3	138.077E-12	539.861E-3	27.3525E-3	138.237E-12	532.859E-3	-12.5094E-3
3.21411E-3	136.465E-12	548.928E-3	14.1416E-3	137.413E-12	543.794E-3	-34.1635E-3
3.20910E-3	136.049E-12	567.848E-3	-4.58021E-3	137.081E-12	546.602E-3	-61.9440E-3
3.20410E-3	136.596E-12	561.689E-3	-16.5344E-3	136.928E-12	526.490E-3	-52.0186E-3
3.19910E-3	135.557E-12	539.286E-3	-21.7967E-3	137.298E-12	523.913E-3	-21.2012E-3
3.19410E-3	134.446E-12	517.550E-3	-6.41472E-3	138.113E-12	539.147E-3	-5.97627E-3
3.18909E-3	133.788E-12	524.940E-3	5.97226E-3	137.664E-12	555.097E-3	-9.81921E-3
3.18409E-3	134.610E-12	569.731E-3	-16.1960E-3	137.221E-12	568.911E-3	-24.4343E-3
3.17909E-3	135.485E-12	590.847E-3	-39.9288E-3	137.282E-12	549.327E-3	-26.4152E-3
3.17409E-3	135.975E-12	553.455E-3	-41.4138E-3	138.650E-12	535.168E-3	-6.02066E-3
3.16908E-3	136.207E-12	520.533E-3	-33.2155E-3	137.452E-12	548.320E-3	-2.46120E-3
3.16408E-3	136.162E-12	527.192E-3	-16.0330E-3	135.407E-12	548.548E-3	-34.5643E-3
3.15908E-3	136.334E-12	536.149E-3	-4.38798E-3	134.360E-12	545.183E-3	-44.5876E-3
3.15408E-3	136.896E-12	557.393E-3	-9.87001E-3	134.190E-12	557.555E-3	-8.67889E-3
3.14907E-3	137.572E-12	581.399E-3	-16.6247E-3	135.253E-12	547.178E-3	4.78165E-3
3.14407E-3	137.150E-12	559.911E-3	-18.3126E-3	133.922E-12	513.379E-3	-19.8916E-3
3.13907E-3	136.773E-12	537.265E-3	-21.1848E-3	132.206E-12	519.621E-3	-37.6408E-3
3.13407E-3	136.608E-12	553.042E-3	-10.3565E-3	131.704E-12	556.045E-3	-41.9524E-3
3.12906E-3	135.956E-12	566.028E-3	385.498E-6	132.670E-12	565.734E-3	-17.4376E-3
3.12406E-3	135.281E-12	556.502E-3	-11.2066E-3	132.305E-12	537.982E-3	31.3632E-3
3.11906E-3	134.225E-12	544.099E-3	-10.9787E-3	131.989E-12	485.018E-3	41.4627E-3
3.11406E-3	133.166E-12	533.561E-3	4.72760E-3	130.586E-12	463.451E-3	3.06973E-3
3.10905E-3	132.230E-12	521.862E-3	18.4687E-3	131.708E-12	519.951E-3	-22.1328E-3
3.10405E-3	131.014E-12	538.548E-3	30.8557E-3	132.805E-12	567.985E-3	-30.8689E-3
3.09905E-3	130.568E-12	566.091E-3	23.1851E-3	133.060E-12	552.925E-3	-41.0674E-3
3.09405E-3	129.392E-12	566.379E-3	-11.8590E-3	132.778E-12	536.054E-3	-46.6462E-3
3.08904E-3	129.605E-12	553.545E-3	-36.4466E-3	133.298E-12	544.267E-3	-42.1468E-3
3.08404E-3	129.609E-12	539.128E-3	-39.0385E-3	134.588E-12	560.884E-3	-13.0193E-3
3.07904E-3	129.744E-12	521.558E-3	-31.3907E-3	134.449E-12	562.839E-3	-465.820E-6
3.07404E-3	129.473E-12	525.952E-3	-14.7520E-3	133.069E-12	548.321E-3	-34.0516E-3
3.06903E-3	130.262E-12	543.023E-3	-11.6649E-3	131.529E-12	535.300E-3	-57.7721E-3
3.06403E-3	131.642E-12	536.055E-3	-20.4560E-3	132.431E-12	531.988E-3	-43.4584E-3
3.05903E-3	133.111E-12	529.909E-3	-33.5153E-3	131.599E-12	539.347E-3	-36.5344E-3
3.05403E-3	132.738E-12	559.042E-3	-45.0327E-3	130.114E-12	560.423E-3	-54.3004E-3
3.04902E-3	132.939E-12	595.066E-3	-34.5847E-3	128.334E-12	579.039E-3	-44.6471E-3
3.04402E-3	133.520E-12	592.148E-3	-22.0601E-3	128.481E-12	564.927E-3	-3.58214E-3
3.03902E-3	135.018E-12	563.729E-3	-33.3467E-3	129.411E-12	532.645E-3	7.80545E-3
3.03402E-3	133.846E-12	546.463E-3	-50.0895E-3	128.675E-12	512.647E-3	-18.8384E-3
3.02901E-3	132.463E-12	542.768E-3	-46.8348E-3	127.013E-12	507.489E-3	-30.5753E-3
3.02401E-3	132.009E-12	540.335E-3	-20.5759E-3	127.618E-12	519.254E-3	-5.50309E-3
3.01901E-3	132.655E-12	535.170E-3	7.63409E-3	128.293E-12	553.939E-3	17.6766E-3
3.01401E-3	131.104E-12	539.707E-3	20.0170E-3	129.340E-12	562.742E-3	16.6024E-3
3.00900E-3	130.236E-12	546.989E-3	34.7102E-3	127.862E-12	533.610E-3	6.07969E-3
3.00400E-3	129.100E-12	550.594E-3	26.9572E-3	128.596E-12	532.445E-3	12.9752E-3
2.99900E-3	129.059E-12	554.725E-3	-11.2090E-3	128.899E-12	550.737E-3	18.2590E-3
2.99400E-3	128.463E-12	534.548E-3	-25.5032E-3	129.837E-12	540.027E-3	8.50241E-3
2.98899E-3	127.643E-12	496.155E-3	-16.4610E-3	130.337E-12	532.705E-3	8.01237E-3
2.98399E-3	126.900E-12	485.400E-3	-16.7268E-3	129.452E-12	553.904E-3	-3.43004E-3
2.97899E-3	126.672E-12	526.566E-3	-21.8803E-3	128.452E-12	572.129E-3	-16.8345E-3
2.97399E-3	126.788E-12	567.418E-3	-28.7050E-3	128.322E-12	569.396E-3	3.95286E-3
2.96898E-3	126.944E-12	561.100E-3	-40.6230E-3	129.157E-12	560.834E-3	30.2716E-3
2.96398E-3	127.564E-12	533.658E-3	-41.7146E-3	128.518E-12	556.026E-3	38.5064E-3
2.95898E-3	127.209E-12	519.395E-3	-30.2056E-3	127.735E-12	546.273E-3	31.8949E-3
2.95398E-3	128.154E-12	537.809E-3	-11.3346E-3	126.534E-12	542.777E-3	-4.07348E-3
2.94897E-3	127.637E-12	562.300E-3	5.49500E-3	126.472E-12	538.232E-3	-33.6010E-3
2.94397E-3	128.357E-12	561.492E-3	-11.8768E-3	125.886E-12	524.861E-3	-29.0283E-3
2.93897E-3	128.080E-12	552.725E-3	-47.7001E-3	125.192E-12	527.008E-3	-18.8504E-3
2.93397E-3	127.917E-12	546.434E-3	-47.3440E-3	125.413E-12	538.017E-3	-21.6423E-3
2.92896E-3	128.307E-12	544.829E-3	-16.0470E-3	125.285E-12	540.115E-3	-29.9137E-3
2.92396E-3	128.211E-12	562.645E-3	-4.47648E-3	125.474E-12	536.682E-3	-26.2673E-3
2.91896E-3	128.116E-12	577.864E-3	-18.0102E-3	126.402E-12	542.028E-3	-25.8455E-3
2.91396E-3	128.002E-12	562.867E-3	-18.0491E-3	127.514E-12	567.789E-3	-32.2486E-3
2.90895E-3	127.379E-12	536.668E-3	-6.34140E-3	126.782E-12	585.165E-3	-37.5838E-3
2.90395E-3	127.034E-12	523.167E-3	-11.6174E-3	125.838E-12	570.545E-3	-43.4510E-3
2.89895E-3	126.251E-12	551.158E-3	-11.9036E-3	126.064E-12	546.051E-3	-37.1251E-3
2.89395E-3	126.640E-12	598.229E-3	-9.46448E-3	126.142E-12	539.372E-3	-32.5918E-3
2.88894E-3	125.040E-12	583.173E-3	-26.3890E-3	126.060E-12	553.249E-3	-33.1854E-3
2.88394E-3	123.997E-12	545.637E-3	-50.2988E-3	124.881E-12	561.484E-3	-21.6887E-3
2.87894E-3	123.244E-12	549.804E-3	-56.2823E-3	124.986E-12	541.218E-3	-34.9597E-3
2.87394E-3	123.355E-12	560.660E-3	-44.2647E-3	124.509E-12	508.530E-3	-66.1689E-3
2.86893E-3	122.918E-12	563.142E-3	-41.4736E-3	123.709E-12	507.860E-3	-45.5578E-3
2.86393E-3	122.510E-12	560.339E-3	-36.0105E-3	122.837E-12	528.055E-3	-6.15709E-3
2.85893E-3	122.724E-12	535.775E-3	-17.7992E-3	122.429E-12	528.370E-3	-25.0489E-3
2.85393E-3	123.395E-12	515.066E-3	-5.07999E-3	122.850E-12	523.547E-3	-56.0151E-3
2.84892E-3	123.306E-12	525.955E-3	-3.16896E-3	122.910E-12	535.319E-3	-50.5077E-3
2.84392E-3	123.024E-12	534.913E-3	-1.85093E-3	122.395E-12	544.911E-3	-42.1216E-3
2.83892E-3	123.357E-12	526.073E-3	2.60518E-3	122.206E-12	532.773E-3	-31.1396E-3
2.83392E-3	123.866E-12	525.047E-3	10.6032E-3	122.274E-12	529.859E-3	-10.5177E-3
2.82891E-3	124.544E-12	538.490E-3	6.40892E-3	121.994E-12	546.412E-3	-3.90948E-3
2.82391E-3	124.544E-12	552.579E-3	-14.9312E-3	122.097E-12	553.869E-3	-7.30818E-3
2.81891E-3	124.398E-12	552.719E-3	-24.9488E-3	122.618E-12	555.300E-3	-7.40438E-3
2.81391E-3	125.203E-12	538.333E-3	-23.7791E-3	121.242E-12	547.468E-3	-7.66427E-3
2.80890E-3	124.408E-12	524.359E-3	-16.0530E-3	121.321E-12	539.446E-3	-24.2028E-3
2.80390E-3	124.283E-12	520.654E-3	-298.670E-6	121.893E-12	530.549E-3	-24.0781E-3
2.79890E-3	122.938E-12	519.969E-3	3.32720E-3	121.494E-12	513.679E-3	-4.04330E-3
2.79390E-3	122.416E-12	515.417E-3	-6.28830E-3	120.640E-12	536.620E-3	-2.81655E-3
2.78889E-3	122.366E-12	522.963E-3	-13.0884E-3	120.814E-12	578.220E-3	13.0798E-3
2.78389E-3	121.061E-12	546.709E-3	-21.4106E-3	120.598E-12	573.704E-3	23.1550E-3
2.77889E-3	119.728E-12	552.272E-3	-29.1606E-3	121.551E-12	541.316E-3	-10.7348E-3
2.77389E-3	118.506E-12	545.622E-3	-33.2897E-3	120.754E-12	522.556E-3	-28.2998E-3
2.76888E-3	119.421E-12	555.229E-3	-36.5196E-3	120.936E-12	520.959E-3	-12.1271E-3
2.76388E-3	118.896E-12	560.605E-3	-46.6918E-3	120.123E-12	511.879E-3	-9.93118E-3
2.75888E-3	117.853E-12	553.882E-3	-55.1018E-3	120.430E-12	501.920E-3	-23.1289E-3
2.75388E-3	116.982E-12	544.004E-3	-21.4840E-3	121.512E-12	505.569E-3	-18.5417E-3
2.74887E-3	118.567E-12	543.717E-3	15.6311E-3	120.772E-12	510.715E-3	-1.63921E-3
2.74387E-3	119.472E-12	549.729E-3	24.5332E-3	120.156E-12	524.762E-3	-8.77365E-3
2.73887E-3	118.710E-12	552.495E-3	23.8312E-3	120.819E-12	535.594E-3	-27.6571E-3
2.73387E-3	118.011E-12	541.900E-3	-4.55153E-3	120.988E-12	530.412E-3	-29.6760E-3
2.72886E-3	118.940E-12	514.545E-3	-36.0268E-3	119.949E-12	534.617E-3	-11.9805E-3
2.72386E-3	120.584E-12	511.987E-3	-29.9320E-3	118.770E-12	546.254E-3	5.07791E-3
2.71886E-3	120.201E-12	546.007E-3	-17.3638E-3	118.069E-12	540.132E-3	-456.700E-6
2.71386E-3	119.931E-12	579.635E-3	-23.3480E-3	118.100E-12	522.631E-3	-24.9867E-3
2.70885E-3	119.217E-12	583.956E-3	-26.6370E-3	117.103E-12	518.289E-3	-38.8157E-3
2.70385E-3	120.109E-12	561.874E-3	-30.4158E-3	115.236E-12	541.772E-3	-37.4280E-3
2.69885E-3	120.095E-12	547.245E-3	-32.1829E-3	115.718E-12	562.482E-3	-39.5450E-3
2.69385E-3	118.504E-12	557.154E-3	-19.4176E-3	116.971E-12	563.873E-3	-34.2609E-3
2.68884E-3	116.787E-12	571.940E-3	-20.4683E-3	117.052E-12	571.554E-3	-28.6484E-3
2.68384E-3	116.252E-12	586.906E-3	-30.6167E-3	116.073E-12	589.597E-3	-37.5288E-3
2.67884E-3	117.320E-12	579.998E-3	-24.8050E-3	116.264E-12	592.181E-3	-43.1701E-3
2.67384E-3	116.174E-12	547.583E-3	-25.8390E-3	117.735E-12	567.735E-3	-36.7815E-3
2.66883E-3	114.612E-12	543.168E-3	-31.4600E-3	118.519E-12	555.238E-3	-27.6832E-3
2.66383E-3	113.581E-12	556.930E-3	-21.9854E-3	118.789E-12	563.557E-3	-24.4387E-3
2.65883E-3	115.076E-12	560.918E-3	-16.9542E-3	118.063E-12	553.268E-3	-28.6696E-3
2.65383E-3	115.565E-12	566.186E-3	-12.9603E-3	118.771E-12	536.862E-3	-31.3868E-3
2.64882E-3	115.114E-12	563.487E-3	-12.8663E-3	118.550E-12	538.281E-3	-27.8627E-3
2.64382E-3	115.656E-12	546.478E-3	-45.4296E-3	118.614E-12	531.087E-3	-17.6484E-3
2.63882E-3	116.256E-12	540.720E-3	-64.3202E-3	116.616E-12	517.599E-3	72.5011E-6
2.63382E-3	116.661E-12	545.045E-3	-41.7499E-3	115.906E-12	527.804E-3	6.23088E-3
2.62881E-3	116.572E-12	525.818E-3	-32.5574E-3	115.691E-12	553.906E-3	-8.87315E-3
2.62381E-3	117.569E-12	511.238E-3	-48.5164E-3	115.245E-12	557.459E-3	-22.3122E-3
2.61881E-3	117.542E-12	536.155E-3	-43.1862E-3	113.252E-12	543.245E-3	-25.5261E-3
2.61381E-3	118.155E-12	568.132E-3	-20.3102E-3	111.377E-12	543.174E-3	-23.2565E-3
2.60880E-3	117.670E-12	578.146E-3	-18.6752E-3	112.050E-12	558.655E-3	-24.0016E-3
2.60380E-3	117.199E-12	570.754E-3	-35.6889E-3	112.944E-12	575.523E-3	-30.5166E-3
2.59880E-3	117.086E-12	551.190E-3	-47.3986E-3	113.733E-12	560.012E-3	-27.9218E-3
2.59380E-3	116.691E-12	554.900E-3	-42.2506E-3	112.824E-12	527.606E-3	-21.9383E-3
2.58879E-3	116.644E-12	571.248E-3	-17.7854E-3	113.920E-12	533.180E-3	-11.6243E-3
2.58379E-3	115.302E-12	554.738E-3	9.02188E-3	114.754E-12	562.462E-3	2.80975E-3
2.57879E-3	114.020E-12	543.361E-3	6.03169E-3	115.434E-12	559.849E-3	6.94769E-3
2.57379E-3	112.850E-12	541.593E-3	-10.9029E-3	114.928E-12	547.184E-3	5.37434E-3
2.56878E-3	112.557E-12	533.122E-3	-19.2567E-3	114.673E-12	549.226E-3	-8.22199E-3
2.56378E-3	112.179E-12	549.915E-3	-29.9871E-3	115.288E-12	531.006E-3	-28.0908E-3
2.55878E-3	111.898E-12	574.436E-3	-32.8478E-3	114.493E-12	515.347E-3	-34.0844E-3
2.55378E-3	111.868E-12	561.398E-3	-16.4597E-3	114.502E-12	528.865E-3	-45.7562E-3
2.54877E-3	111.830E-12	534.562E-3	-8.82829E-3	113.186E-12	538.746E-3	-50.6712E-3
2.54377E-3	111.136E-12	534.468E-3	-5.49553E-3	112.620E-12	528.055E-3	-30.7584E-3
2.53877E-3	111.126E-12	552.409E-3	19.4782E-3	111.217E-12	524.087E-3	-23.9456E-3
2.53377E-3	111.309E-12	573.375E-3	21.2876E-3	110.460E-12	533.079E-3	-34.1689E-3
2.52876E-3	110.914E-12	581.268E-3	-23.1749E-3	109.464E-12	541.704E-3	-30.9328E-3
2.52376E-3	111.328E-12	564.538E-3	-54.7687E-3	108.703E-12	542.601E-3	-7.70448E-3
2.51876E-3	110.922E-12	538.368E-3	-28.9235E-3	108.287E-12	544.856E-3	11.2941E-3
2.51376E-3	111.435E-12	532.847E-3	9.46016E-3	108.191E-12	562.765E-3	10.6991E-3
2.50875E-3	111.290E-12	546.952E-3	18.6680E-3	108.402E-12	570.209E-3	1.08992E-3
2.50375E-3	111.723E-12	541.321E-3	4.12301E-3	108.552E-12	571.611E-3	-7.94026E-3
2.49875E-3	111.259E-12	528.293E-3	-17.5620E-3	109.756E-12	578.155E-3	-12.8933E-3
2.49375E-3	110.117E-12	548.544E-3	-6.69563E-3	110.413E-12	570.148E-3	-16.6029E-3
2.48874E-3	109.895E-12	570.348E-3	20.0443E-3	110.345E-12	551.584E-3	-25.0135E-3
2.48374E-3	110.479E-12	568.390E-3	21.0494E-3	109.768E-12	544.180E-3	-29.7663E-3
2.47874E-3	110.752E-12	556.022E-3	10.2612E-3	110.362E-12	555.053E-3	-27.2750E-3
2.47374E-3	110.298E-12	548.658E-3	-8.07743E-3	111.869E-12	556.758E-3	-20.2738E-3
2.46873E-3	109.763E-12	557.691E-3	-31.2832E-3	111.810E-12	550.474E-3	-3.31951E-3
2.46373E-3	108.843E-12	561.670E-3	-38.3500E-3	110.595E-12	556.832E-3	7.37919E-3
2.45873E-3	108.837E-12	553.634E-3	-41.5790E-3	109.048E-12	566.046E-3	-10.9107E-3
2.45373E-3	108.378E-12	559.308E-3	-47.2264E-3	109.774E-12	567.592E-3	-33.3144E-3
2.44872E-3	107.455E-12	569.921E-3	-45.7080E-3	108.648E-12	549.768E-3	-34.1407E-3
2.44372E-3	108.288E-12	566.919E-3	-46.5844E-3	107.168E-12	529.180E-3	-17.8124E-3
2.43872E-3	108.389E-12	568.206E-3	-53.9008E-3	104.881E-12	534.354E-3	-12.8342E-3
2.43372E-3	107.672E-12	567.377E-3	-51.5312E-3	104.650E-12	530.349E-3	-39.2334E-3
2.42871E-3	107.154E-12	558.769E-3	-29.0463E-3	106.242E-12	516.208E-3	-52.2992E-3
2.42371E-3	107.859E-12	561.169E-3	-3.59551E-3	105.821E-12	532.382E-3	-29.5771E-3
2.41871E-3	107.909E-12	549.829E-3	8.53789E-3	103.765E-12	549.733E-3	-1.12987E-3
2.41371E-3	106.915E-12	521.143E-3	10.8964E-3	103.099E-12	541.192E-3	13.1620E-3
2.40870E-3	106.824E-12	519.466E-3	15.7151E-3	105.403E-12	528.835E-3	-4.47425E-3
2.40370E-3	106.947E-12	533.820E-3	12.0673E-3	106.470E-12	541.211E-3	-38.3377E-3
2.39870E-3	107.530E-12	537.430E-3	-14.5211E-3	105.202E-12	556.949E-3	-41.5422E-3
2.39370E-3	107.057E-12	539.615E-3	-35.9218E-3	103.940E-12	547.829E-3	-26.0076E-3
2.38869E-3	106.345E-12	538.543E-3	-30.5124E-3	105.114E-12	549.884E-3	-19.4237E-3
2.38369E-3	106.664E-12	546.484E-3	-19.4128E-3	107.358E-12	568.579E-3	-16.4527E-3
2.37869E-3	107.533E-12	566.754E-3	-18.8439E-3	106.617E-12	573.462E-3	-25.2833E-3
2.37369E-3	107.017E-12	581.581E-3	-18.5767E-3	104.290E-12	572.865E-3	-43.1113E-3
2.36868E-3	105.080E-12	580.220E-3	-11.1767E-3	104.151E-12	570.722E-3	-42.6547E-3
2.36368E-3	104.683E-12	569.057E-3	-2.76913E-3	104.675E-12	564.718E-3	-22.9084E-3
2.35868E-3	104.975E-12	556.552E-3	2.00925E-3	104.546E-12	554.902E-3	-7.37223E-3
2.35368E-3	104.992E-12	546.197E-3	-7.12917E-3	103.191E-12	542.993E-3	-24.5280E-3
2.34867E-3	103.649E-12	545.750E-3	-20.1650E-3	102.463E-12	544.196E-3	-55.9170E-3
2.34367E-3	103.184E-12	544.293E-3	-9.17079E-3	103.317E-12	554.892E-3	-56.2907E-3
2.33867E-3	103.574E-12	537.757E-3	3.92085E-3	104.272E-12	541.621E-3	-28.3928E-3
2.33367E-3	104.524E-12	538.327E-3	2.85594E-3	104.308E-12	518.078E-3	-8.94746E-3
2.32866E-3	104.267E-12	537.530E-3	1.77938E-3	103.889E-12	519.375E-3	-13.5874E-3
2.32366E-3	103.185E-12	532.842E-3	-5.25962E-3	103.590E-12	534.083E-3	-14.2655E-3
2.31866E-3	102.961E-12	537.392E-3	-18.1742E-3	104.974E-12	562.241E-3	-20.6814E-3
2.31366E-3	104.444E-12	540.363E-3	-23.4346E-3	105.613E-12	578.627E-3	-40.9562E-3
2.30865E-3	105.016E-12	528.364E-3	-7.32630E-3	104.453E-12	560.845E-3	-34.6471E-3
2.30365E-3	104.525E-12	519.406E-3	10.8237E-3	103.320E-12	541.608E-3	-19.2291E-3
2.29865E-3	104.105E-12	528.869E-3	694.536E-6	103.380E-12	524.767E-3	-31.6777E-3
2.29365E-3	105.070E-12	533.545E-3	-5.35529E-3	103.437E-12	514.952E-3	-42.9505E-3
2.28864E-3	106.066E-12	536.065E-3	-1.49500E-3	102.098E-12	528.419E-3	-28.9088E-3
2.28364E-3	105.305E-12	552.078E-3	-1.80716E-3	99.7285E-12	541.276E-3	-19.1320E-3
2.27864E-3	104.027E-12	560.622E-3	-8.07826E-3	99.6404E-12	543.765E-3	-31.7256E-3
2.27364E-3	103.577E-12	555.729E-3	-15.8447E-3	100.499E-12	531.583E-3	-38.7956E-3
2.26863E-3	103.378E-12	548.610E-3	-14.0374E-3	100.651E-12	529.811E-3	-23.3200E-3
2.26363E-3	102.527E-12	546.340E-3	-24.9743E-3	99.1517E-12	558.705E-3	-9.30338E-3
2.25863E-3	100.924E-12	546.910E-3	-28.0884E-3	99.6977E-12	568.457E-3	-20.7409E-3
2.25363E-3	100.943E-12	546.575E-3	-6.10206E-3	100.862E-12	565.584E-3	-29.3347E-3
2.24862E-3	100.430E-12	540.357E-3	13.4417E-3	102.176E-12	575.051E-3	-21.7982E-3
2.24362E-3	100.168E-12	527.756E-3	7.81619E-3	101.139E-12	569.244E-3	-14.2633E-3
2.23862E-3	99.6910E-12	536.905E-3	-21.3793E-3	101.523E-12	566.556E-3	-10.3444E-3
2.23362E-3	99.4618E-12	547.462E-3	-30.3135E-3	101.659E-12	573.862E-3	-14.9695E-3
2.22861E-3	98.9662E-12	535.155E-3	-22.1976E-3	102.780E-12	560.596E-3	-3.75567E-3
2.22361E-3	99.0035E-12	535.502E-3	-20.2897E-3	102.705E-12	541.465E-3	14.8743E-3
2.21861E-3	99.9531E-12	552.964E-3	-22.7368E-3	101.001E-12	522.344E-3	16.0218E-3
2.21361E-3	99.9800E-12	565.640E-3	-33.9096E-3	99.6741E-12	512.091E-3	9.34656E-3
2.20860E-3	99.8725E-12	568.917E-3	-37.5606E-3	99.3167E-12	524.836E-3	-7.00353E-3
2.20360E-3	99.7991E-12	562.188E-3	-22.5326E-3	99.1022E-12	535.925E-3	-17.1548E-3
2.19860E-3	101.091E-12	556.478E-3	-15.1304E-3	96.9085E-12	547.587E-3	-12.4332E-3
2.19360E-3	101.004E-12	557.208E-3	-30.7161E-3	94.9228E-12	562.829E-3	-17.2867E-3
2.18859E-3	100.896E-12	553.275E-3	-40.8128E-3	95.5881E-12	562.901E-3	-23.0459E-3
2.18359E-3	99.9204E-12	545.710E-3	-32.5295E-3	96.5939E-12	559.891E-3	-20.1149E-3
2.17859E-3	100.058E-12	552.171E-3	-22.8482E-3	96.4848E-12	562.633E-3	-17.8064E-3
2.17359E-3	100.408E-12	560.070E-3	-19.5303E-3	95.6022E-12	550.984E-3	-6.32202E-3
2.16858E-3	99.9148E-12	554.240E-3	-31.8124E-3	96.6332E-12	542.527E-3	-1.01785E-3
2.16358E-3	98.2728E-12	553.889E-3	-40.5038E-3	98.3655E-12	557.128E-3	-15.4478E-3
2.15858E-3	97.2546E-12	559.169E-3	-21.5599E-3	98.3568E-12	568.084E-3	-27.9631E-3
2.15358E-3	97.4901E-12	559.268E-3	-4.78266E-3	98.6258E-12	562.809E-3	-18.8772E-3
2.14857E-3	97.2760E-12	548.278E-3	-7.81052E-3	99.4096E-12	542.751E-3	-470.617E-6
2.14357E-3	96.8631E-12	532.108E-3	-10.2963E-3	99.7194E-12	530.804E-3	-4.13357E-3
2.13857E-3	95.8858E-12	523.842E-3	-104.458E-6	99.4635E-12	540.465E-3	-17.2471E-3
2.13357E-3	96.0000E-12	524.661E-3	-3.10347E-3	98.7628E-12	550.657E-3	-12.0486E-3
2.12856E-3	96.0135E-12	531.691E-3	-18.2445E-3	98.4207E-12	549.251E-3	-8.93801E-3
2.12356E-3	95.9136E-12	518.665E-3	-21.0964E-3	97.8344E-12	537.701E-3	-5.52235E-3
2.11856E-3	95.6067E-12	501.522E-3	-34.8041E-3	96.4280E-12	532.557E-3	11.8474E-3
2.11356E-3	96.3925E-12	519.890E-3	-38.6508E-3	95.3193E-12	530.243E-3	3.18030E-3
2.10855E-3	96.4523E-12	534.928E-3	-24.1358E-3	93.6926E-12	529.718E-3	-24.2933E-3
2.10355E-3	96.3428E-12	533.854E-3	-48.3974E-3	93.4227E-12	529.577E-3	-29.0039E-3
2.09855E-3	96.2593E-12	530.418E-3	-61.9461E-3	92.6023E-12	517.834E-3	-20.1827E-3
2.09355E-3	96.5114E-12	514.005E-3	-10.5747E-3	92.9383E-12	514.121E-3	-9.30409E-3
2.08854E-3	96.5591E-12	507.240E-3	22.1600E-3	92.5680E-12	532.438E-3	-2.99404E-3
2.08354E-3	96.3504E-12	521.413E-3	9.07065E-3	93.1418E-12	556.955E-3	-9.69278E-3
2.07854E-3	96.3439E-12	528.979E-3	-31.5025E-6	93.9277E-12	566.783E-3	-15.5166E-3
2.07354E-3	96.0340E-12	533.244E-3	-12.8899E-3	94.8733E-12	564.614E-3	-8.51278E-3
2.06853E-3	96.0699E-12	545.970E-3	-29.7637E-3	95.1895E-12	560.550E-3	-3.82734E-3
2.06353E-3	95.8495E-12	554.185E-3	-36.7635E-3	94.7407E-12	561.115E-3	-14.1611E-3
2.05853E-3	95.1621E-12	545.257E-3	-52.0309E-3	95.4739E-12	570.706E-3	-17.2127E-3
2.05353E-3	94.6635E-12	529.077E-3	-66.1268E-3	96.1214E-12	580.392E-3	-7.28033E-3
2.04852E-3	93.9747E-12	526.487E-3	-50.9178E-3	95.8298E-12	564.892E-3	7.17644E-3
2.04352E-3	94.1609E-12	527.695E-3	-26.4735E-3	95.3026E-12	538.979E-3	11.4460E-3
2.03852E-3	93.8483E-12	528.278E-3	-10.8592E-3	94.9002E-12	527.951E-3	-4.98560E-3
2.03352E-3	93.5981E-12	529.727E-3	3.49268E-3	94.3726E-12	514.255E-3	-16.6399E-3
2.02851E-3	92.5250E-12	518.689E-3	10.9055E-3	93.3831E-12	510.983E-3	-8.55995E-3
2.02351E-3	93.0841E-12	514.469E-3	3.45806E-3	92.1455E-12	525.330E-3	5.22669E-3
2.01851E-3	93.2845E-12	528.614E-3	-6.36985E-3	91.0107E-12	527.366E-3	-642.953E-6
2.01351E-3	93.4282E-12	531.640E-3	235.028E-6	90.7569E-12	519.507E-3	-33.5525E-3
2.00850E-3	92.9154E-12	535.164E-3	-1.77249E-3	90.0717E-12	511.517E-3	-63.9170E-3
2.00350E-3	93.1619E-12	552.579E-3	-8.93313E-3	89.3799E-12	512.787E-3	-48.5730E-3
1.99850E-3	93.0237E-12	542.562E-3	17.0832E-3	88.9111E-12	528.965E-3	-10.3770E-3
1.99350E-3	93.3669E-12	528.478E-3	29.9921E-3	88.9097E-12	541.692E-3	-2.10216E-3
1.98849E-3	93.2905E-12	550.699E-3	3.09245E-3	89.5332E-12	554.816E-3	-6.84505E-3
1.98349E-3	92.8786E-12	570.265E-3	-26.8564E-3	90.2198E-12	567.919E-3	-1.29214E-3
1.97849E-3	92.6058E-12	575.881E-3	-42.4146E-3	89.5112E-12	567.761E-3	-4.44296E-3
1.97349E-3	92.6127E-12	568.463E-3	-35.9613E-3	89.9636E-12	548.395E-3	-1.81830E-3
1.96848E-3	93.2643E-12	547.331E-3	-19.5075E-3	91.1094E-12	520.870E-3	21.5593E-3
1.96348E-3	92.6310E-12	546.530E-3	-9.16717E-3	92.4649E-12	513.669E-3	19.7571E-3
1.95848E-3	91.2796E-12	562.230E-3	-10.7360E-3	92.2425E-12	523.909E-3	-1.61773E-3
1.95348E-3	90.9587E-12	562.082E-3	-15.3918E-3	91.1842E-12	528.324E-3	-10.1343E-3
1.94847E-3	91.4362E-12	543.404E-3	-22.9113E-3	90.6882E-12	526.524E-3	-16.2254E-3
1.94347E-3	91.0022E-12	514.632E-3	-35.3877E-3	91.4648E-12	529.001E-3	-26.3737E-3
1.93847E-3	89.1852E-12	517.333E-3	-26.4247E-3	91.0836E-12	534.576E-3	-25.1453E-3
1.93347E-3	88.7499E-12	551.055E-3	-4.06161E-3	90.2314E-12	540.316E-3	-4.83119E-3
1.92846E-3	89.1059E-12	554.502E-3	-6.57658E-3	89.7597E-12	537.794E-3	1.35762E-3
1.92346E-3	89.2044E-12	530.065E-3	-29.4424E-3	89.3781E-12	534.771E-3	-11.7703E-3
1.91846E-3	87.7175E-12	508.379E-3	-36.0280E-3	89.3335E-12	545.058E-3	-23.6428E-3
1.91346E-3	86.8676E-12	519.933E-3	-29.8597E-3	88.7798E-12	550.959E-3	-26.1486E-3
1.90845E-3	87.8129E-12	544.664E-3	-43.7381E-3	88.4594E-12	545.335E-3	-10.3876E-3
1.90345E-3	87.9661E-12	537.734E-3	-50.7907E-3	88.6622E-12	543.216E-3	6.02262E-3
1.89845E-3	88.1579E-12	522.126E-3	-41.5182E-3	88.9146E-12	551.826E-3	5.42500E-3
1.89345E-3	88.2431E-12	510.938E-3	-36.1990E-3	89.0767E-12	552.531E-3	-275.774E-6
1.88844E-3	88.5491E-12	523.398E-3	-26.9980E-3	88.8629E-12	538.214E-3	-3.93418E-3
1.88344E-3	89.1542E-12	564.063E-3	-8.36631E-3	88.9881E-12	534.381E-3	-10.9099E-3
1.87844E-3	89.3430E-12	582.852E-3	-2.88310E-3	88.5380E-12	531.753E-3	-9.78897E-3
1.87344E-3	89.7546E-12	569.359E-3	-27.3874E-3	88.8447E-12	521.585E-3	-3.56956E-3
1.86843E-3	89.3465E-12	544.156E-3	-35.3875E-3	87.9708E-12	517.835E-3	-17.7602E-3
1.86343E-3	89.1571E-12	520.617E-3	-803.615E-6	87.8079E-12	513.829E-3	-25.0239E-3
1.85843E-3	89.1159E-12	528.640E-3	20.1957E-3	86.9374E-12	518.313E-3	-18.1968E-3
1.85343E-3	89.0228E-12	559.395E-3	9.46707E-3	86.7090E-12	528.670E-3	-25.0356E-3
1.84842E-3	88.1660E-12	548.029E-3	1.04758E-3	86.4533E-12	525.762E-3	-32.1228E-3
1.84342E-3	87.1049E-12	508.085E-3	-3.36119E-3	86.2079E-12	528.521E-3	-29.7088E-3
1.83842E-3	86.8235E-12	508.082E-3	-5.79266E-3	86.2503E-12	541.324E-3	-24.3505E-3
1.83342E-3	86.3978E-12	538.530E-3	421.536E-6	85.6623E-12	537.192E-3	-25.3856E-3
1.82841E-3	86.2338E-12	553.670E-3	1.33630E-3	85.8833E-12	536.497E-3	-13.6660E-3
1.82341E-3	84.8139E-12	543.665E-3	-9.81410E-3	86.3988E-12	552.834E-3	9.27057E-3
1.81841E-3	84.8081E-12	527.071E-3	-17.6776E-3	86.7935E-12	564.501E-3	7.50645E-3
1.81341E-3	84.2455E-12	523.605E-3	-13.5363E-3	86.2349E-12	565.793E-3	-14.4239E-3
1.80840E-3	84.3731E-12	535.296E-3	-17.6661E-3	85.8545E-12	557.859E-3	-37.0910E-3
1.80340E-3	84.2192E-12	543.575E-3	-32.3639E-3	87.2458E-12	551.429E-3	-44.3146E-3
1.79840E-3	84.1583E-12	538.924E-3	-43.8089E-3	87.5021E-12	540.019E-3	-22.5104E-3
1.79340E-3	84.2156E-12	528.692E-3	-39.6689E-3	85.8623E-12	525.940E-3	-9.26356E-3
1.78839E-3	84.6590E-12	527.608E-3	-16.0298E-3	84.0182E-12	516.297E-3	-29.9787E-3
1.78339E-3	85.4694E-12	541.724E-3	-14.6185E-3	83.8715E-12	513.799E-3	-43.9355E-3
1.77839E-3	85.2581E-12	550.032E-3	-36.1720E-3	84.4158E-12	520.842E-3	-45.1387E-3
1.77339E-3	85.6883E-12	556.364E-3	-40.8287E-3	82.8884E-12	511.501E-3	-42.5527E-3
1.76838E-3	85.9253E-12	563.030E-3	-31.0189E-3	80.7977E-12	499.486E-3	-31.7072E-3
1.76338E-3	86.1197E-12	547.702E-3	-32.3631E-3	80.9812E-12	517.033E-3	-25.6897E-3
1.75838E-3	85.5835E-12	536.954E-3	-36.0492E-3	82.1985E-12	528.556E-3	-17.5716E-3
1.75338E-3	85.2651E-12	548.520E-3	-29.4236E-3	81.6464E-12	514.952E-3	-6.07579E-3
1.74837E-3	85.4136E-12	552.232E-3	-30.3543E-3	80.8468E-12	510.292E-3	-7.31111E-3
1.74337E-3	84.9290E-12	537.881E-3	-42.6123E-3	81.0560E-12	519.942E-3	-16.2957E-3
1.73837E-3	84.1638E-12	528.507E-3	-47.2066E-3	82.6582E-12	542.502E-3	-22.6510E-3
1.73337E-3	82.7543E-12	534.800E-3	-35.8307E-3	83.3435E-12	569.128E-3	-20.0164E-3
1.72836E-3	82.8514E-12	540.828E-3	-23.0467E-3	83.7829E-12	574.444E-3	-15.8969E-3
1.72336E-3	82.5958E-12	537.226E-3	-27.3498E-3	84.4048E-12	559.175E-3	-13.1028E-3
1.71836E-3	82.3720E-12	541.721E-3	-38.4035E-3	84.6256E-12	547.066E-3	-5.72129E-3
1.71336E-3	81.5487E-12	546.028E-3	-26.8590E-3	85.3678E-12	541.216E-3	-17.0273E-3
1.70835E-3	81.2254E-12	529.138E-3	-1.20255E-3	84.9009E-12	532.443E-3	-33.8887E-3
1.70335E-3	81.2025E-12	513.822E-3	-2.84811E-3	84.1615E-12	535.821E-3	-25.4557E-3
1.69835E-3	81.4928E-12	511.318E-3	-22.0586E-3	82.4159E-12	535.268E-3	-23.6278E-3
1.69335E-3	80.8410E-12	509.995E-3	-21.7983E-3	81.6685E-12	500.241E-3	-29.2682E-3
1.68834E-3	81.2945E-12	513.128E-3	-14.3391E-3	80.9293E-12	467.923E-3	-20.8971E-3
1.68334E-3	81.2915E-12	513.444E-3	-7.89316E-3	79.7879E-12	467.464E-3	-20.1408E-3
1.67834E-3	82.1378E-12	506.153E-3	-3.38990E-3	78.5920E-12	481.219E-3	-35.1250E-3
1.67334E-3	82.6202E-12	507.686E-3	-13.6449E-3	77.0923E-12	501.913E-3	-49.3550E-3
1.66833E-3	82.5225E-12	516.177E-3	-26.2425E-3	77.4564E-12	506.208E-3	-43.4472E-3
1.66333E-3	81.6966E-12	519.119E-3	-24.4498E-3	77.1680E-12	491.240E-3	-23.4206E-3
1.65833E-3	81.5744E-12	517.103E-3	-8.57879E-3	77.6126E-12	493.624E-3	-14.3215E-3
1.65333E-3	81.9822E-12	525.632E-3	14.3169E-3	77.7446E-12	511.563E-3	-17.4501E-3
1.64832E-3	81.2148E-12	534.606E-3	30.6689E-3	78.5906E-12	517.104E-3	-24.2317E-3
1.64332E-3	80.7433E-12	532.769E-3	23.8867E-3	79.5451E-12	510.250E-3	-24.0232E-3
1.63832E-3	80.7043E-12	538.522E-3	1.58632E-3	80.4345E-12	512.101E-3	-10.2936E-3
1.63332E-3	80.6481E-12	534.638E-3	-6.04143E-3	81.5389E-12	517.631E-3	5.03613E-3
1.62831E-3	80.0284E-12	520.066E-3	-3.47755E-3	81.7975E-12	504.570E-3	4.35275E-3
1.62331E-3	78.6674E-12	525.950E-3	-12.9022E-3	81.6733E-12	496.508E-3	-8.12501E-3
1.61831E-3	78.6226E-12	534.013E-3	-19.5599E-3	82.1478E-12	504.692E-3	-15.0952E-3
1.61331E-3	78.9213E-12	526.713E-3	-10.4772E-3	81.8774E-12	510.579E-3	-8.15106E-3
1.60830E-3	78.8906E-12	518.420E-3	6.30337E-3	81.2701E-12	504.880E-3	154.488E-6
1.60330E-3	78.1349E-12	520.939E-3	23.2215E-3	79.8742E-12	488.082E-3	-11.3586E-3
1.59830E-3	77.8774E-12	525.565E-3	15.7603E-3	79.0291E-12	485.906E-3	-17.1493E-3
1.59330E-3	77.7750E-12	529.254E-3	-6.57860E-3	77.9549E-12	500.820E-3	-3.52161E-3
1.58829E-3	77.8572E-12	547.070E-3	-8.90378E-3	77.2528E-12	505.897E-3	4.28424E-3
1.58329E-3	77.9803E-12	545.813E-3	-4.56019E-3	75.9841E-12	491.889E-3	-4.80571E-3
1.57829E-3	77.6025E-12	512.890E-3	258.004E-6	75.1448E-12	474.614E-3	-11.5267E-3
1.57329E-3	77.7387E-12	501.625E-3	10.6975E-3	74.5962E-12	471.511E-3	-4.85330E-3
1.56828E-3	77.5495E-12	511.287E-3	18.5404E-3	74.5859E-12	475.320E-3	-8.25670E-3
1.56328E-3	77.9614E-12	518.178E-3	11.1527E-3	75.0520E-12	478.025E-3	-16.3765E-3
1.55828E-3	77.0737E-12	515.535E-3	-3.19982E-3	74.9732E-12	484.221E-3	-16.2001E-3
1.55328E-3	77.0163E-12	510.801E-3	-213.118E-6	75.4877E-12	493.989E-3	-12.2612E-3
1.54827E-3	76.7273E-12	517.880E-3	-658.953E-6	75.9272E-12	507.340E-3	-4.26199E-3
1.54327E-3	77.2286E-12	517.928E-3	-22.5667E-3	76.8817E-12	514.205E-3	-3.07351E-3
1.53827E-3	76.8972E-12	505.536E-3	-32.7816E-3	77.4636E-12	514.842E-3	-9.01634E-3
1.53327E-3	76.1757E-12	492.148E-3	-29.9690E-3	77.4567E-12	521.961E-3	-13.3540E-3
1.52826E-3	76.1112E-12	482.131E-3	-27.2212E-3	76.9165E-12	519.397E-3	-16.1904E-3
1.52326E-3	75.6266E-12	485.862E-3	-21.9499E-3	76.3723E-12	505.140E-3	-21.5410E-3
1.51826E-3	75.6990E-12	499.862E-3	-18.3846E-3	76.4796E-12	500.622E-3	-29.1514E-3
1.51326E-3	75.0895E-12	504.121E-3	-21.0052E-3	76.3855E-12	492.809E-3	-24.1240E-3
1.50825E-3	74.8146E-12	486.173E-3	-29.0466E-3	75.9651E-12	465.708E-3	-7.26594E-3
1.50325E-3	73.8985E-12	467.309E-3	-18.8188E-3	74.3061E-12	453.060E-3	-17.3691E-3
1.49825E-3	73.5720E-12	467.098E-3	3.57812E-3	73.6100E-12	458.968E-3	-36.4154E-3
1.49325E-3	74.3665E-12	472.621E-3	2.98702E-3	73.7353E-12	460.151E-3	-23.6450E-3
1.48824E-3	74.2776E-12	475.565E-3	-15.6752E-3	73.1427E-12	457.768E-3	-12.1294E-3
1.48324E-3	72.7482E-12	480.793E-3	-16.0077E-3	72.5388E-12	459.932E-3	-22.8538E-3
1.47824E-3	72.5676E-12	480.686E-3	-7.17916E-3	71.6816E-12	469.019E-3	-26.5587E-3
1.47324E-3	73.6308E-12	465.351E-3	-20.7252E-3	72.9349E-12	469.101E-3	-33.0700E-3
1.46823E-3	74.4718E-12	447.568E-3	-36.0570E-3	73.1082E-12	467.901E-3	-45.0548E-3
1.46323E-3	73.6556E-12	436.220E-3	-30.5851E-3	73.5979E-12	475.566E-3	-35.8382E-3
1.45823E-3	73.0955E-12	435.707E-3	-14.0296E-3	72.7287E-12	484.564E-3	-19.4348E-3
1.45323E-3	73.2645E-12	441.964E-3	-5.43320E-3	73.4020E-12	480.257E-3	-18.8765E-3
1.44822E-3	74.0296E-12	447.077E-3	-5.02640E-3	74.2321E-12	465.135E-3	-21.9738E-3
1.44322E-3	74.1921E-12	452.081E-3	742.658E-6	73.5839E-12	462.492E-3	-3.84378E-3
1.43822E-3	74.2591E-12	457.535E-3	-5.79332E-3	73.6033E-12	460.690E-3	14.8959E-3
1.43322E-3	73.9604E-12	457.625E-3	-18.0998E-3	73.0965E-12	448.548E-3	12.7437E-3
1.42821E-3	74.2827E-12	446.321E-3	-12.6437E-3	73.3057E-12	443.957E-3	-2.81697E-3
1.42321E-3	74.4845E-12	441.381E-3	-7.14581E-3	71.7473E-12	434.642E-3	-17.6073E-3
1.41821E-3	73.5930E-12	452.883E-3	-3.82393E-3	71.8172E-12	407.831E-3	-10.3431E-3
1.41321E-3	72.4343E-12	468.505E-3	-2.48513E-3	71.1288E-12	393.400E-3	6.27495E-3
1.40820E-3	72.0553E-12	465.996E-3	-10.5376E-3	70.7996E-12	396.890E-3	1.69574E-3
1.40320E-3	72.2722E-12	437.626E-3	-20.2800E-3	71.0490E-12	395.541E-3	-12.2885E-3
1.39820E-3	71.7483E-12	412.041E-3	-17.9283E-3	71.0341E-12	387.504E-3	-25.4225E-3
1.39320E-3	71.4103E-12	406.291E-3	-1.82666E-3	71.1877E-12	387.976E-3	-38.4580E-3
1.38819E-3	70.7898E-12	416.055E-3	6.67909E-3	71.2173E-12	392.122E-3	-26.1709E-3
1.38319E-3	71.0145E-12	415.418E-3	-9.04798E-3	71.7192E-12	400.508E-3	-3.95957E-3
1.37819E-3	70.7861E-12	394.702E-3	-32.7794E-3	70.8797E-12	408.107E-3	-1.13694E-3
1.37319E-3	70.5612E-12	382.158E-3	-24.8142E-3	70.1390E-12	387.562E-3	-15.5867E-3
1.36818E-3	70.4333E-12	390.680E-3	9.26487E-3	70.9424E-12	368.522E-3	-34.4850E-3
1.36318E-3	70.6876E-12	400.345E-3	20.4731E-3	71.3591E-12	369.053E-3	-37.0923E-3
1.35818E-3	71.0367E-12	396.402E-3	1.92742E-3	70.6880E-12	352.895E-3	-33.6296E-3
1.35318E-3	71.1534E-12	387.289E-3	-19.1640E-3	69.6245E-12	328.920E-3	-37.3280E-3
1.34817E-3	70.5363E-12	374.241E-3	-23.9966E-3	68.8261E-12	335.780E-3	-39.0603E-3
1.34317E-3	71.2399E-12	358.085E-3	-6.85052E-3	68.6847E-12	346.869E-3	-29.1265E-3
1.33817E-3	71.3186E-12	360.724E-3	-2.05606E-3	68.2757E-12	329.665E-3	-19.2690E-3
1.33317E-3	71.3969E-12	382.957E-3	-30.4911E-3	68.5926E-12	318.983E-3	-23.8760E-3
1.32816E-3	70.0349E-12	382.254E-3	-47.4635E-3	67.9819E-12	322.839E-3	-21.6281E-3
1.32316E-3	70.5657E-12	354.665E-3	-46.4851E-3	68.5805E-12	320.697E-3	-20.7571E-3
1.31816E-3	70.1118E-12	354.490E-3	-40.0085E-3	68.7012E-12	319.559E-3	-30.4397E-3
1.31316E-3	70.1316E-12	381.684E-3	-12.6873E-3	70.0058E-12	314.291E-3	-30.8505E-3
1.30815E-3	69.2129E-12	378.274E-3	4.91854E-3	70.2287E-12	322.440E-3	-29.2614E-3
1.30315E-3	69.4520E-12	339.844E-3	-2.78302E-3	69.9619E-12	349.523E-3	-10.5513E-3
1.29815E-3	69.2969E-12	309.688E-3	-11.7373E-3	70.4250E-12	334.406E-3	9.95126E-3
1.29315E-3	69.3207E-12	295.187E-3	-6.29842E-3	71.6811E-12	294.196E-3	-3.57136E-3
1.28814E-3	69.2838E-12	282.613E-3	6.71689E-3	72.0036E-12	293.259E-3	-22.6955E-3
1.28314E-3	68.7913E-12	288.004E-3	7.75214E-3	71.2408E-12	307.029E-3	-31.3211E-3
1.27814E-3	68.7265E-12	293.214E-3	851.980E-6	70.5234E-12	292.626E-3	-20.5871E-3
1.27314E-3	68.9440E-12	273.170E-3	-8.31377E-3	70.1560E-12	264.348E-3	-5.89067E-3
1.26813E-3	69.0707E-12	274.719E-3	-22.5287E-3	69.8963E-12	257.058E-3	-6.68108E-3
1.26313E-3	69.0034E-12	300.042E-3	-37.8407E-3	69.2396E-12	259.928E-3	-4.59411E-3
1.25813E-3	68.9984E-12	294.715E-3	-39.0934E-3	67.6978E-12	251.564E-3	-8.64657E-3
1.25313E-3	69.8305E-12	274.318E-3	-31.5283E-3	66.7565E-12	242.201E-3	-18.3095E-3
1.24812E-3	69.5196E-12	265.983E-3	-22.3659E-3	66.3205E-12	234.526E-3	-14.7425E-3
1.24312E-3	69.2949E-12	260.563E-3	-3.26855E-3	66.7972E-12	225.582E-3	-11.9171E-3
1.23812E-3	68.3526E-12	263.815E-3	8.38620E-3	65.9439E-12	223.888E-3	-10.3749E-3
1.23312E-3	68.5757E-12	275.685E-3	4.68047E-3	66.0158E-12	229.532E-3	-6.55301E-3
1.22811E-3	68.0783E-12	278.361E-3	-1.15012E-3	66.0918E-12	225.309E-3	-7.54462E-3
1.22311E-3	67.5389E-12	257.029E-3	-9.03646E-3	67.4138E-12	218.305E-3	-4.81184E-3
1.21811E-3	66.9031E-12	234.600E-3	-15.6832E-3	68.3026E-12	214.635E-3	-12.0999E-3
1.21311E-3	66.6478E-12	230.800E-3	-18.2201E-3	67.9688E-12	208.201E-3	-28.9507E-3
1.20810E-3	66.9528E-12	241.825E-3	-19.6903E-3	68.9714E-12	215.938E-3	-35.8457E-3
1.20310E-3	66.7682E-12	252.766E-3	-24.4683E-3	69.5255E-12	217.847E-3	-34.1982E-3
1.19810E-3	67.3006E-12	233.717E-3	-28.1747E-3	70.9888E-12	206.177E-3	-29.7028E-3
1.19310E-3	66.4729E-12	211.605E-3	-23.9115E-3	70.5382E-12	204.479E-3	-25.1327E-3
1.18809E-3	66.3862E-12	197.687E-3	-27.1409E-3	70.1890E-12	205.934E-3	-25.7843E-3
1.18309E-3	66.5531E-12	190.840E-3	-25.3934E-3	69.9780E-12	200.961E-3	-27.7718E-3
1.17809E-3	66.9186E-12	213.375E-3	-21.8131E-3	69.3462E-12	192.972E-3	-19.8372E-3
1.17309E-3	67.3122E-12	231.922E-3	-35.0748E-3	68.4259E-12	182.757E-3	-13.6789E-3
1.16808E-3	66.8777E-12	214.750E-3	-31.2932E-3	67.1178E-12	172.463E-3	-14.1258E-3
1.16308E-3	67.0381E-12	193.735E-3	-11.2725E-3	66.2332E-12	163.085E-3	-10.8956E-3
1.15808E-3	67.3674E-12	199.562E-3	-4.40601E-3	64.7879E-12	161.062E-3	-8.27255E-3
1.15308E-3	67.5752E-12	205.758E-3	-9.82864E-3	64.9185E-12	166.453E-3	-7.02577E-3
1.14807E-3	67.4378E-12	194.719E-3	-11.9832E-3	64.9313E-12	164.733E-3	-4.94465E-3
1.14307E-3	67.4189E-12	188.435E-3	-2.90467E-3	64.4824E-12	163.214E-3	-14.1891E-3
1.13807E-3	67.3831E-12	191.523E-3	10.0464E-3	63.9548E-12	169.426E-3	-31.3622E-3
1.13307E-3	66.9012E-12	186.018E-3	8.39360E-3	64.5049E-12	166.794E-3	-28.8543E-3
1.12806E-3	67.1849E-12	169.361E-3	-12.1016E-3	65.7217E-12	154.979E-3	-7.29374E-3
1.12306E-3	67.2966E-12	153.195E-3	-30.1384E-3	66.4887E-12	147.952E-3	1.13114E-3
1.11806E-3	67.3895E-12	151.695E-3	-25.6973E-3	66.9182E-12	153.164E-3	-8.91896E-3
1.11306E-3	67.0031E-12	156.824E-3	123.457E-6	66.9386E-12	159.668E-3	-22.2973E-3
1.10805E-3	66.6490E-12	158.686E-3	22.6222E-3	68.0900E-12	157.351E-3	-23.5633E-3
1.10305E-3	66.8791E-12	170.923E-3	22.1993E-3	69.1572E-12	161.138E-3	-13.7424E-3
1.09805E-3	66.4346E-12	173.100E-3	2.58356E-3	68.8397E-12	163.344E-3	-22.6918E-3
1.09305E-3	66.8128E-12	157.522E-3	-13.5986E-3	67.7997E-12	162.604E-3	-27.6940E-3
1.08804E-3	66.3852E-12	141.531E-3	-14.3360E-3	67.1550E-12	170.254E-3	-8.30659E-3
1.08304E-3	66.5216E-12	138.507E-3	-13.7714E-3	67.4576E-12	170.647E-3	812.003E-6
1.07804E-3	65.9390E-12	153.358E-3	-10.7352E-3	66.9325E-12	152.753E-3	-5.88013E-3
1.07304E-3	65.5445E-12	153.265E-3	-3.33261E-3	65.1130E-12	135.798E-3	-5.04347E-3
1.06803E-3	65.7192E-12	126.231E-3	-7.65542E-3	63.1063E-12	134.949E-3	1.01249E-3
1.06303E-3	65.6273E-12	114.116E-3	-18.2508E-3	63.2161E-12	131.618E-3	2.95837E-3
1.05803E-3	65.2107E-12	125.573E-3	-23.2267E-3	63.7116E-12	123.694E-3	7.23980E-3
1.05303E-3	64.6508E-12	147.440E-3	-24.4806E-3	63.6372E-12	133.417E-3	9.16462E-3
1.04802E-3	65.1386E-12	165.316E-3	-33.7126E-3	62.8265E-12	154.629E-3	1.88826E-3
1.04302E-3	66.0595E-12	151.992E-3	-52.8335E-3	63.2118E-12	156.911E-3	-9.42915E-3
1.03802E-3	66.1957E-12	135.868E-3	-56.8805E-3	64.6396E-12	144.177E-3	-16.7279E-3
1.03302E-3	65.4117E-12	133.961E-3	-42.9497E-3	65.5794E-12	142.316E-3	-14.6720E-3
1.02801E-3	65.0758E-12	132.740E-3	-34.0857E-3	65.6400E-12	152.741E-3	-8.48966E-3
1.02301E-3	65.3198E-12	138.804E-3	-34.3536E-3	65.5900E-12	162.623E-3	-11.6369E-3
1.01801E-3	65.9128E-12	139.980E-3	-35.7384E-3	66.8779E-12	168.940E-3	-20.1071E-3
1.01301E-3	66.2724E-12	138.800E-3	-31.8565E-3	67.9210E-12	166.744E-3	-16.3435E-3
1.00800E-3	65.9306E-12	147.901E-3	-18.2793E-3	67.1185E-12	153.519E-3	-10.2622E-3
1.00300E-3	65.4392E-12	160.997E-3	3.26603E-3	66.5441E-12	142.949E-3	-7.04610E-3
997.999E-6	65.5825E-12	172.327E-3	12.0285E-3	66.2638E-12	143.425E-3	579.119E-6
992.997E-6	65.5340E-12	160.253E-3	-6.67365E-3	66.5371E-12	159.276E-3	-1.72901E-3
987.994E-6	65.4861E-12	141.369E-3	-22.1741E-3	65.5256E-12	181.944E-3	-16.1619E-3
982.991E-6	64.4344E-12	146.313E-3	-15.1604E-3	64.5299E-12	189.756E-3	-16.6529E-3
977.989E-6	64.0829E-12	160.072E-3	-7.32698E-3	63.8643E-12	184.644E-3	870.980E-6
972.986E-6	64.3990E-12	169.991E-3	-2.20737E-3	64.1090E-12	188.707E-3	4.33946E-3
967.984E-6	64.4192E-12	176.555E-3	-4.96981E-3	63.4615E-12	205.193E-3	129.884E-6
962.981E-6	64.0685E-12	177.201E-3	-29.9508E-3	63.2757E-12	211.541E-3	3.88002E-6
957.979E-6	64.0923E-12	178.752E-3	-50.2334E-3	63.2330E-12	196.377E-3	-23.1768E-3
952.976E-6	64.3396E-12	182.513E-3	-43.0562E-3	63.3774E-12	182.532E-3	-47.7157E-3
947.974E-6	64.4829E-12	191.576E-3	-30.0179E-3	63.8317E-12	193.400E-3	-43.4784E-3
942.971E-6	64.8404E-12	203.457E-3	-20.4682E-3	63.3069E-12	223.539E-3	-35.1741E-3
937.969E-6	64.6308E-12	198.842E-3	-15.5311E-3	64.4438E-12	241.292E-3	-28.1537E-3
932.966E-6	65.1176E-12	197.668E-3	-21.4462E-3	64.2349E-12	239.295E-3	-21.7463E-3
927.964E-6	65.1286E-12	219.846E-3	-16.1082E-3	64.6386E-12	239.051E-3	-20.7181E-3
922.961E-6	65.0986E-12	242.259E-3	-7.66195E-3	63.7233E-12	244.149E-3	-10.7661E-3
917.959E-6	65.3079E-12	238.813E-3	-21.6656E-3	64.4357E-12	251.707E-3	-15.6023E-3
912.956E-6	65.1378E-12	230.809E-3	-33.5050E-3	63.8065E-12	254.510E-3	-22.7217E-3
907.954E-6	64.8985E-12	236.412E-3	-33.8003E-3	63.3294E-12	258.621E-3	-10.0597E-3
902.951E-6	64.3331E-12	239.004E-3	-30.4551E-3	63.5760E-12	275.986E-3	-15.0652E-3
897.949E-6	64.5071E-12	246.369E-3	-15.7180E-3	63.3482E-12	297.595E-3	-22.5587E-3
892.946E-6	63.9688E-12	271.453E-3	-14.4947E-3	63.5942E-12	307.133E-3	-18.1698E-3
887.944E-6	63.2259E-12	293.231E-3	-36.9070E-3	63.3911E-12	308.661E-3	-21.3493E-3
882.941E-6	62.6203E-12	289.351E-3	-43.6620E-3	63.7882E-12	328.331E-3	-21.3862E-3
877.939E-6	62.3163E-12	283.304E-3	-27.8338E-3	63.4513E-12	354.735E-3	-9.57205E-3
872.936E-6	62.7564E-12	288.171E-3	-19.3684E-3	63.3314E-12	361.875E-3	-714.076E-6
867.934E-6	62.3826E-12	296.246E-3	-19.9268E-3	63.7081E-12	373.792E-3	-12.1539E-3
862.931E-6	62.5692E-12	308.243E-3	-17.7656E-3	64.3138E-12	392.682E-3	-27.9950E-3
857.929E-6	62.2536E-12	322.339E-3	-18.8774E-3	65.2530E-12	391.394E-3	-23.3476E-3
852.926E-6	62.4287E-12	338.516E-3	-19.6347E-3	64.0300E-12	383.194E-3	-11.9114E-3
847.924E-6	62.9687E-12	357.847E-3	-13.5426E-3	63.8976E-12	385.986E-3	-16.4996E-3
842.921E-6	62.8517E-12	377.134E-3	-8.36702E-3	63.2389E-12	407.138E-3	-25.3429E-3
837.919E-6	62.4189E-12	376.276E-3	-6.97105E-3	63.6581E-12	439.610E-3	-19.5564E-3
832.916E-6	62.5316E-12	360.378E-3	-13.8900E-3	62.6582E-12	461.778E-3	-5.87458E-3
827.914E-6	63.0640E-12	373.060E-3	-30.6940E-3	60.9752E-12	472.288E-3	-1.28063E-3
822.911E-6	62.8346E-12	416.490E-3	-23.3185E-3	60.9187E-12	487.891E-3	-14.8787E-3
817.909E-6	62.2856E-12	450.373E-3	-4.76706E-3	60.6035E-12	507.275E-3	-31.7032E-3
812.906E-6	61.9060E-12	461.401E-3	-11.5257E-3	60.8299E-12	528.992E-3	-19.7932E-3
807.904E-6	61.8723E-12	469.993E-3	-23.4102E-3	59.0060E-12	558.565E-3	1.53315E-3
802.901E-6	61.3706E-12	485.831E-3	-17.4389E-3	59.7317E-12	584.098E-3	-2.09995E-3
797.899E-6	60.3128E-12	494.088E-3	-9.39996E-3	60.0345E-12	592.465E-3	-1.23090E-3
792.896E-6	60.0074E-12	500.327E-3	-21.0721E-3	61.1030E-12	611.871E-3	7.13894E-3
787.894E-6	60.1573E-12	511.800E-3	-35.3757E-3	60.8027E-12	655.277E-3	3.92941E-3
782.891E-6	60.3560E-12	531.227E-3	-37.1349E-3	61.2127E-12	676.843E-3	2.85095E-3
777.889E-6	59.1494E-12	562.950E-3	-29.1655E-3	61.9784E-12	675.378E-3	-2.56185E-3
772.886E-6	58.2844E-12	586.447E-3	-25.1802E-3	62.7075E-12	684.490E-3	-21.1974E-3
767.884E-6	58.2998E-12	601.016E-3	-30.4611E-3	62.3977E-12	709.624E-3	-39.5469E-3
762.881E-6	58.6090E-12	634.047E-3	-28.2134E-3	61.7597E-12	747.608E-3	-40.1662E-3
757.879E-6	58.6743E-12	670.577E-3	-21.2127E-3	61.3426E-12	774.928E-3	-26.4721E-3
752.876E-6	58.2367E-12	693.605E-3	-16.5441E-3	61.1856E-12	779.373E-3	-6.95486E-3
747.874E-6	57.8461E-12	715.276E-3	-20.8676E-3	60.2189E-12	783.871E-3	5.34498E-3
742.871E-6	58.2161E-12	724.128E-3	-38.8828E-3	58.5691E-12	794.277E-3	-4.23919E-3
737.869E-6	58.8174E-12	723.283E-3	-40.2395E-3	56.9986E-12	813.696E-3	-20.5746E-3
732.866E-6	58.5405E-12	742.052E-3	-14.8147E-3	56.8022E-12	847.758E-3	-21.6184E-3
727.864E-6	57.8542E-12	776.070E-3	-4.92417E-3	56.5055E-12	873.787E-3	-19.6673E-3
722.861E-6	57.5624E-12	800.757E-3	-20.5230E-3	55.6509E-12	896.061E-3	-16.0665E-3
717.859E-6	57.9577E-12	823.151E-3	-27.9812E-3	54.8349E-12	933.083E-3	-6.92928E-3
712.856E-6	57.8380E-12	850.700E-3	-34.4835E-3	54.7257E-12	970.005E-3	-21.0965E-3
707.854E-6	57.3686E-12	882.414E-3	-34.0524E-3	55.1706E-12	998.884E-3	-45.2656E-3
702.851E-6	56.7246E-12	924.022E-3	-13.6744E-3	55.3664E-12	1.03527E+0	-47.2784E-3
697.849E-6	56.3931E-12	957.412E-3	-7.95640E-3	55.2123E-12	1.08247E+0	-35.6649E-3
692.846E-6	56.0417E-12	975.685E-3	-12.9542E-3	55.2527E-12	1.12326E+0	-35.4415E-3
687.844E-6	55.5730E-12	1.00030E+0	-20.5389E-3	56.7457E-12	1.15429E+0	-39.2694E-3
682.841E-6	55.2336E-12	1.03406E+0	-41.9076E-3	57.2683E-12	1.19528E+0	-24.9316E-3
677.839E-6	55.0815E-12	1.06545E+0	-48.6917E-3	56.5641E-12	1.23163E+0	-5.64007E-3
672.836E-6	54.4033E-12	1.10453E+0	-39.9286E-3	56.1715E-12	1.23993E+0	17.8827E-6
667.834E-6	53.9209E-12	1.14320E+0	-34.8643E-3	55.9378E-12	1.24601E+0	-8.79468E-3
662.831E-6	53.2202E-12	1.16154E+0	-26.8721E-3	55.7142E-12	1.25589E+0	-26.5919E-3
657.829E-6	52.5429E-12	1.18026E+0	-18.9070E-3	54.2252E-12	1.26242E+0	-38.8770E-3
652.826E-6	52.1123E-12	1.19855E+0	-16.6854E-3	52.9448E-12	1.27096E+0	-33.6709E-3
647.824E-6	51.7994E-12	1.20042E+0	-18.7380E-3	51.9533E-12	1.27756E+0	-17.8066E-3
642.821E-6	51.7472E-12	1.21556E+0	-20.3865E-3	51.2716E-12	1.28931E+0	-17.4572E-3
637.819E-6	51.1108E-12	1.26425E+0	-14.3806E-3	49.8930E-12	1.31674E+0	-38.0663E-3
632.816E-6	50.5654E-12	1.31133E+0	-10.0135E-3	49.2797E-12	1.36050E+0	-43.6104E-3
627.814E-6	50.2154E-12	1.33572E+0	-13.7592E-3	48.5806E-12	1.40847E+0	-25.7774E-3
622.811E-6	50.1607E-12	1.35107E+0	-13.1677E-3	47.7840E-12	1.44890E+0	-8.57384E-3
617.809E-6	49.6880E-12	1.36267E+0	-10.1622E-3	47.5330E-12	1.48655E+0	-163.627E-6
612.806E-6	49.4448E-12	1.38291E+0	-17.4469E-3	47.6894E-12	1.53276E+0	-4.60209E-3
607.804E-6	49.0714E-12	1.42782E+0	-18.8888E-3	47.8225E-12	1.57923E+0	-17.8109E-3
602.801E-6	48.6657E-12	1.47352E+0	-11.2511E-3	47.4142E-12	1.61720E+0	-20.8551E-3
597.799E-6	48.2207E-12	1.50690E+0	-10.4420E-3	47.8764E-12	1.64434E+0	-11.0579E-3
592.796E-6	47.6948E-12	1.54140E+0	-7.47317E-3	47.8406E-12	1.66405E+0	-4.05679E-3
587.794E-6	46.9843E-12	1.57027E+0	1.06897E-3	48.0974E-12	1.68971E+0	-15.0945E-3
582.791E-6	45.9404E-12	1.58950E+0	-5.34928E-3	47.5708E-12	1.71291E+0	-28.0089E-3
577.789E-6	45.3295E-12	1.61139E+0	-22.7060E-3	47.1323E-12	1.72551E+0	-29.2455E-3
572.786E-6	44.8296E-12	1.63575E+0	-10.9192E-3	46.9141E-12	1.73468E+0	-26.2697E-3
567.784E-6	43.6991E-12	1.64907E+0	15.8134E-3	46.1154E-12	1.72925E+0	-20.0389E-3
562.781E-6	42.7205E-12	1.66145E+0	13.9789E-3	44.9189E-12	1.72131E+0	-21.9654E-3
557.779E-6	42.2736E-12	1.67136E+0	-651.681E-6	43.1555E-12	1.73804E+0	-25.4424E-3
552.776E-6	41.6176E-12	1.66916E+0	-12.9382E-3	42.1165E-12	1.75255E+0	-24.6208E-3
547.774E-6	41.2280E-12	1.67981E+0	-22.4542E-3	41.5218E-12	1.74354E+0	-25.8104E-3
542.771E-6	40.6130E-12	1.69769E+0	-22.2720E-3	40.9291E-12	1.74967E+0	-21.9630E-3
537.769E-6	40.2832E-12	1.71124E+0	-24.9097E-3	39.8734E-12	1.78061E+0	-11.2977E-3
532.766E-6	39.6599E-12	1.72369E+0	-26.8102E-3	39.1145E-12	1.80345E+0	-13.9128E-3
527.764E-6	39.3031E-12	1.73192E+0	-12.4324E-3	38.8959E-12	1.82100E+0	-24.6012E-3
522.761E-6	38.8997E-12	1.74860E+0	-6.32642E-3	38.6393E-12	1.83538E+0	-13.3357E-3
517.759E-6	38.6684E-12	1.77978E+0	-8.97382E-3	38.2294E-12	1.84859E+0	5.05770E-3
512.756E-6	37.7913E-12	1.80419E+0	-359.863E-6	37.5758E-12	1.87259E+0	-1.99163E-3
507.754E-6	37.0858E-12	1.81288E+0	-3.07318E-3	37.2776E-12	1.89609E+0	-25.1735E-3
502.751E-6	37.0118E-12	1.82270E+0	-17.4445E-3	36.9842E-12	1.90026E+0	-26.1392E-3
497.749E-6	36.5539E-12	1.84685E+0	-21.3981E-3	36.5014E-12	1.89802E+0	-8.52939E-3
492.746E-6	35.4775E-12	1.88014E+0	-25.2411E-3	35.9695E-12	1.90783E+0	-6.65623E-3
487.744E-6	34.9341E-12	1.89710E+0	-25.3072E-3	35.1851E-12	1.91003E+0	-31.4568E-3
482.741E-6	34.6813E-12	1.89386E+0	-13.9867E-3	34.7012E-12	1.89065E+0	-46.0462E-3
477.739E-6	33.8458E-12	1.89556E+0	-8.21346E-3	34.1654E-12	1.85884E+0	-29.1777E-3
472.736E-6	32.5279E-12	1.90853E+0	-14.3874E-3	33.4551E-12	1.84243E+0	-18.7047E-3
467.734E-6	31.6150E-12	1.90142E+0	-19.8633E-3	32.4288E-12	1.85795E+0	-22.2439E-3
462.731E-6	31.3946E-12	1.86545E+0	-20.5305E-3	31.1788E-12	1.87094E+0	-18.5970E-3
457.729E-6	30.6915E-12	1.84474E+0	-18.7298E-3	30.9335E-12	1.85596E+0	-13.8774E-3
452.726E-6	29.8230E-12	1.85539E+0	-4.82858E-3	30.6910E-12	1.85012E+0	-10.7244E-3
447.724E-6	29.1471E-12	1.85999E+0	-522.426E-6	29.9161E-12	1.86739E+0	-142.038E-6
442.721E-6	28.7278E-12	1.84171E+0	-19.0719E-3	28.9250E-12	1.87755E+0	6.27194E-3
437.719E-6	28.2362E-12	1.82295E+0	-31.3170E-3	28.6484E-12	1.87362E+0	-1.49043E-3
432.716E-6	27.5768E-12	1.80830E+0	-28.3316E-3	28.7402E-12	1.85757E+0	-10.2927E-3
427.714E-6	27.0214E-12	1.79768E+0	-24.5236E-3	27.9864E-12	1.84351E+0	-17.2249E-3
422.711E-6	26.5290E-12	1.80853E+0	-27.7997E-3	26.9146E-12	1.83447E+0	-23.1374E-3
417.709E-6	25.9402E-12	1.82445E+0	-35.1805E-3	26.0927E-12	1.81098E+0	-20.9922E-3
412.706E-6	25.4713E-12	1.82435E+0	-32.6910E-3	25.8853E-12	1.78324E+0	-16.4086E-3
407.704E-6	25.0918E-12	1.82199E+0	-25.1704E-3	25.1891E-12	1.76353E+0	-17.5223E-3
402.701E-6	24.4303E-12	1.82073E+0	-27.4942E-3	24.2711E-12	1.75158E+0	-22.0863E-3
397.699E-6	24.0858E-12	1.81879E+0	-36.7299E-3	23.5024E-12	1.73428E+0	-19.9043E-3
392.696E-6	23.7266E-12	1.81678E+0	-31.9717E-3	23.0186E-12	1.70308E+0	-13.3085E-3
387.694E-6	22.7878E-12	1.81073E+0	-17.2342E-3	22.5206E-12	1.67025E+0	-19.4042E-3
382.691E-6	22.1403E-12	1.79782E+0	-17.5391E-3	21.6511E-12	1.66331E+0	-19.5618E-3
377.689E-6	21.3869E-12	1.78201E+0	-18.9441E-3	20.9538E-12	1.68541E+0	-6.52890E-3
372.686E-6	20.9187E-12	1.76034E+0	-12.2639E-3	20.6402E-12	1.69320E+0	-6.86587E-3
367.684E-6	20.1977E-12	1.73203E+0	-14.4920E-3	20.2594E-12	1.67608E+0	-15.6433E-3
362.681E-6	19.5780E-12	1.70311E+0	-20.4486E-3	19.8220E-12	1.65138E+0	-17.8736E-3
357.679E-6	19.0147E-12	1.67700E+0	-22.2535E-3	19.6264E-12	1.62278E+0	-22.9702E-3
352.676E-6	18.5542E-12	1.64754E+0	-26.0129E-3	19.1202E-12	1.59774E+0	-24.3352E-3
347.674E-6	17.8179E-12	1.61018E+0	-19.2024E-3	18.5906E-12	1.58667E+0	-15.0218E-3
342.671E-6	17.1972E-12	1.58375E+0	-7.82016E-3	18.0757E-12	1.56816E+0	-3.85817E-3
337.669E-6	16.8982E-12	1.57076E+0	-14.1460E-3	17.7606E-12	1.52658E+0	4.01324E-3
332.666E-6	16.5291E-12	1.55160E+0	-22.9374E-3	17.2566E-12	1.47796E+0	-1.67093E-3
327.664E-6	15.9938E-12	1.52632E+0	-15.7463E-3	16.4673E-12	1.44018E+0	-16.2985E-3
322.661E-6	15.4027E-12	1.51601E+0	-11.9319E-3	15.8224E-12	1.41351E+0	-15.8773E-3
317.659E-6	15.0788E-12	1.50690E+0	-17.9040E-3	15.3340E-12	1.38232E+0	3.29568E-3
312.656E-6	14.8465E-12	1.47379E+0	-23.7486E-3	14.8231E-12	1.33108E+0	6.49233E-3
307.654E-6	14.3673E-12	1.43170E+0	-33.8432E-3	13.9805E-12	1.27625E+0	-2.86444E-3
302.651E-6	13.8745E-12	1.40667E+0	-21.5509E-3	13.3956E-12	1.24670E+0	-254.133E-6
297.649E-6	13.4017E-12	1.39786E+0	8.78054E-3	12.9947E-12	1.23150E+0	-1.63654E-3
292.646E-6	13.0753E-12	1.37371E+0	9.05760E-3	12.4775E-12	1.21308E+0	-14.2500E-3
287.644E-6	12.7075E-12	1.34075E+0	-18.1755E-3	12.0758E-12	1.19360E+0	-22.3813E-3
282.641E-6	12.2121E-12	1.31503E+0	-34.3612E-3	11.6384E-12	1.16808E+0	-25.7402E-3
277.639E-6	11.6516E-12	1.29191E+0	-27.3366E-3	11.5186E-12	1.15515E+0	-25.8631E-3
272.636E-6	11.2709E-12	1.27152E+0	-18.7032E-3	11.1963E-12	1.15755E+0	-18.7039E-3
267.634E-6	10.9387E-12	1.23863E+0	-17.4081E-3	10.9049E-12	1.14592E+0	-17.7278E-3
262.631E-6	10.5407E-12	1.19952E+0	-23.2276E-3	10.6533E-12	1.12690E+0	-15.5089E-3
257.629E-6	10.0501E-12	1.17219E+0	-28.6506E-3	10.4847E-12	1.10051E+0	-7.17725E-3
252.626E-6	9.49401E-12	1.13930E+0	-26.3014E-3	10.2033E-12	1.07043E+0	-8.66980E-3
247.624E-6	9.25764E-12	1.09522E+0	-16.3781E-3	9.83803E-12	1.04536E+0	-15.0316E-3
242.621E-6	9.06289E-12	1.06355E+0	-7.46110E-3	9.68726E-12	1.00797E+0	-20.8756E-3
237.619E-6	8.78864E-12	1.03555E+0	-7.51288E-3	9.35991E-12	962.648E-3	-19.4328E-3
232.616E-6	8.34035E-12	1.01052E+0	-19.1399E-3	8.77318E-12	917.945E-3	-9.38355E-3
227.614E-6	7.91800E-12	995.598E-3	-27.6210E-3	8.15633E-12	868.268E-3	-11.9724E-3
222.611E-6	7.65940E-12	965.258E-3	-13.8442E-3	7.77588E-12	827.938E-3	-30.9703E-3
217.609E-6	7.45063E-12	920.271E-3	-6.66905E-3	7.40650E-12	797.849E-3	-34.9270E-3
212.606E-6	7.04204E-12	887.350E-3	-23.6771E-3	6.92600E-12	766.533E-3	-14.7613E-3
207.604E-6	6.75141E-12	864.783E-3	-35.3343E-3	6.57701E-12	740.002E-3	80.2785E-6
202.601E-6	6.61596E-12	842.759E-3	-24.6085E-3	6.32164E-12	716.351E-3	-1.13184E-3
197.599E-6	6.44763E-12	819.797E-3	-14.9024E-3	6.05877E-12	697.068E-3	-3.40671E-3
192.596E-6	6.12786E-12	793.865E-3	-14.1952E-3	5.77069E-12	683.362E-3	-379.638E-6
187.594E-6	5.83191E-12	778.367E-3	-18.0182E-3	5.62956E-12	668.314E-3	2.63088E-3
182.591E-6	5.71672E-12	779.121E-3	-20.9307E-3	5.50758E-12	651.798E-3	-1.40709E-3
177.589E-6	5.53188E-12	766.548E-3	-14.5563E-3	5.36432E-12	636.084E-3	-4.95646E-3
172.586E-6	5.17107E-12	724.025E-3	-9.50943E-3	5.18838E-12	627.818E-3	-3.84683E-3
167.584E-6	4.81722E-12	687.664E-3	-9.57764E-3	5.01079E-12	622.057E-3	-10.4897E-3
162.581E-6	4.66461E-12	672.767E-3	-12.2804E-3	4.90888E-12	602.012E-3	-19.9953E-3
157.579E-6	4.49649E-12	653.913E-3	-15.4648E-3	4.74793E-12	564.383E-3	-25.6787E-3
152.576E-6	4.31997E-12	625.576E-3	-21.2830E-3	4.46659E-12	531.361E-3	-26.7435E-3
147.574E-6	4.08278E-12	604.004E-3	-21.8548E-3	4.23682E-12	528.626E-3	-26.7601E-3
142.571E-6	3.84634E-12	589.622E-3	-10.5439E-3	4.08324E-12	537.341E-3	-15.4065E-3
137.569E-6	3.72945E-12	577.928E-3	-3.00372E-3	3.86974E-12	515.480E-3	5.39744E-3
132.566E-6	3.49995E-12	565.693E-3	-1.93721E-3	3.59497E-12	478.692E-3	172.546E-6
127.564E-6	3.35679E-12	537.205E-3	-6.57776E-3	3.38078E-12	459.414E-3	-19.9873E-3
122.561E-6	3.20405E-12	500.821E-3	-17.8881E-3	3.22533E-12	447.431E-3	-20.1215E-3
117.559E-6	3.00571E-12	480.227E-3	-20.0556E-3	2.97707E-12	435.638E-3	-20.4111E-3
112.556E-6	2.80935E-12	474.012E-3	-18.4384E-3	2.81687E-12	426.047E-3	-28.4974E-3
107.554E-6	2.73349E-12	469.486E-3	-16.1443E-3	2.67180E-12	414.789E-3	-22.7518E-3
102.551E-6	2.64920E-12	458.799E-3	-2.53240E-3	2.52506E-12	402.199E-3	-15.1593E-3
97.5488E-6	2.48779E-12	438.442E-3	3.99551E-3	2.31354E-12	395.934E-3	-14.1151E-3
92.5463E-6	2.27916E-12	427.491E-3	1.36387E-3	2.25434E-12	394.955E-3	-13.1814E-3
87.5438E-6	2.15334E-12	429.302E-3	3.45552E-3	2.14010E-12	387.920E-3	-10.7658E-3
82.5413E-6	2.09881E-12	419.000E-3	-6.99138E-3	2.03551E-12	376.908E-3	-4.28700E-3
77.5388E-6	1.90559E-12	400.747E-3	-25.3235E-3	1.81505E-12	369.841E-3	-4.65008E-3
72.5363E-6	1.68243E-12	396.746E-3	-23.5606E-3	1.75025E-12	363.979E-3	-22.9771E-3
67.5338E-6	1.64887E-12	398.691E-3	-11.6952E-3	1.69250E-12	358.660E-3	-27.4351E-3
62.5313E-6	1.55230E-12	392.740E-3	-5.61833E-3	1.55969E-12	361.959E-3	-7.80616E-3
57.5288E-6	1.36543E-12	388.533E-3	-3.24354E-3	1.31796E-12	372.184E-3	985.491E-6
52.5263E-6	1.16256E-12	378.806E-3	-5.23634E-3	1.22425E-12	369.698E-3	-6.98031E-3
47.5238E-6	1.08212E-12	358.889E-3	-14.7394E-3	1.15098E-12	351.925E-3	-20.9715E-3
42.5213E-6	1.03591E-12	350.522E-3	-17.3924E-3	1.05859E-12	340.408E-3	-32.6394E-3
37.5188E-6	886.595E-15	355.231E-3	-11.1230E-3	864.648E-15	343.604E-3	-37.7595E-3
32.5163E-6	745.385E-15	354.208E-3	-15.1636E-3	730.179E-15	343.841E-3	-29.1575E-3
27.5138E-6	569.098E-15	343.599E-3	-19.7144E-3	649.220E-15	336.039E-3	-18.1347E-3
22.5113E-6	526.801E-15	339.168E-3	-16.3124E-3	460.656E-15	332.921E-3	-20.9958E-3
17.5088E-6	345.361E-15	346.728E-3	-15.4023E-3	323.231E-15	336.269E-3	-32.4516E-3
12.5063E-6	203.018E-15	354.142E-3	-12.9668E-3	186.295E-15	343.422E-3	-35.7816E-3
7.50375E-6	152.481E-15	350.311E-3	-8.96246E-3	103.583E-15	349.650E-3	-24.7911E-3
2.50125E-6	-36.9819E-18	349.610E-3	-5.67906E-3	-2.78356E-15	356.783E-3	-14.1994E-3
-2.50125E-6	-200.119E-15	357.129E-3	-5.77380E-3	-133.582E-15	364.774E-3	-8.61075E-3
-7.50375E-6	-209.510E-15	361.517E-3	-16.2683E-3	-241.754E-15	373.496E-3	-3.67247E-3
-12.5063E-6	-353.073E-15	362.590E-3	-31.7439E-3	-390.505E-15	388.376E-3	-5.16445E-3
-17.5088E-6	-496.052E-15	367.478E-3	-36.8563E-3	-467.767E-15	399.758E-3	-13.6921E-3
-22.5113E-6	-680.788E-15	376.889E-3	-28.5432E-3	-615.367E-15	402.423E-3	-18.2240E-3
-27.5138E-6	-734.063E-15	376.205E-3	-17.4404E-3	-733.863E-15	397.033E-3	-17.0704E-3
-32.5163E-6	-810.758E-15	376.965E-3	-17.3789E-3	-859.630E-15	403.375E-3	-16.3128E-3
-37.5188E-6	-1.01503E-12	383.079E-3	-26.3219E-3	-1.07011E-12	423.538E-3	-23.1181E-3
-42.5213E-6	-1.23274E-12	378.273E-3	-27.7761E-3	-1.20151E-12	435.933E-3	-25.9468E-3
-47.5238E-6	-1.33187E-12	383.373E-3	-24.9510E-3	-1.31172E-12	453.466E-3	-19.9843E-3
-52.5263E-6	-1.35190E-12	398.779E-3	-24.7702E-3	-1.40280E-12	474.709E-3	-23.2458E-3
-57.5288E-6	-1.56670E-12	403.437E-3	-32.3434E-3	-1.66607E-12	490.581E-3	-24.0631E-3
-62.5313E-6	-1.79463E-12	417.840E-3	-38.2133E-3	-1.81895E-12	514.010E-3	-14.8351E-3
-67.5338E-6	-1.91644E-12	438.076E-3	-26.8460E-3	-1.88284E-12	521.296E-3	-10.7415E-3
-72.5363E-6	-1.96992E-12	446.503E-3	-8.74213E-3	-2.09584E-12	510.374E-3	-6.49370E-3
-77.5388E-6	-2.21852E-12	460.686E-3	-2.89845E-3	-2.35591E-12	527.347E-3	2.32220E-3
-82.5413E-6	-2.52502E-12	477.607E-3	-15.3377E-3	-2.51191E-12	569.766E-3	-4.59443E-3
-87.5438E-6	-2.67291E-12	487.749E-3	-27.9264E-3	-2.61657E-12	599.143E-3	-19.6968E-3
-92.5463E-6	-2.77627E-12	508.578E-3	-27.7489E-3	-2.85320E-12	615.645E-3	-18.0843E-3
-97.5488E-6	-3.01945E-12	541.444E-3	-26.1144E-3	-3.12185E-12	639.590E-3	-10.1203E-3
-102.551E-6	-3.26882E-12	556.737E-3	-30.7052E-3	-3.39311E-12	666.272E-3	-10.4060E-3
-107.554E-6	-3.52754E-12	561.491E-3	-32.0396E-3	-3.43559E-12	685.739E-3	-11.0817E-3
-112.556E-6	-3.64581E-12	590.720E-3	-26.4684E-3	-3.55344E-12	700.294E-3	-12.2329E-3
-117.559E-6	-3.92348E-12	632.227E-3	-21.7569E-3	-3.90611E-12	711.377E-3	-21.0196E-3
-122.561E-6	-4.20123E-12	659.974E-3	-19.2753E-3	-4.12410E-12	736.522E-3	-17.7912E-3
-127.564E-6	-4.39684E-12	682.877E-3	-14.9405E-3	-4.27313E-12	778.770E-3	-11.6917E-3
-132.566E-6	-4.69250E-12	712.919E-3	-5.86482E-3	-4.44451E-12	807.967E-3	-27.4346E-3
-137.569E-6	-5.03620E-12	744.726E-3	-688.102E-6	-4.81914E-12	835.849E-3	-40.3265E-3
-142.571E-6	-5.12602E-12	770.534E-3	-3.87108E-3	-5.12054E-12	875.320E-3	-33.8016E-3
-147.574E-6	-5.38214E-12	795.319E-3	-3.81906E-3	-5.45559E-12	917.315E-3	-17.4999E-3
-152.576E-6	-5.67700E-12	824.675E-3	-9.35168E-3	-5.59824E-12	971.617E-3	2.88327E-3
-157.579E-6	-6.08804E-12	851.498E-3	-17.7529E-3	-5.95893E-12	1.02934E+0	3.18025E-3
-162.581E-6	-6.30582E-12	878.611E-3	-20.3375E-3	-6.42663E-12	1.07571E+0	-14.7574E-3
-167.584E-6	-6.45949E-12	906.420E-3	-35.4998E-3	-6.89989E-12	1.13577E+0	-15.1833E-3
-172.586E-6	-7.05033E-12	929.890E-3	-43.5667E-3	-7.24777E-12	1.20775E+0	-4.88286E-3
-177.589E-6	-7.55853E-12	968.469E-3	-24.2776E-3	-7.63257E-12	1.24474E+0	-10.7434E-3
-182.591E-6	-7.80591E-12	1.02531E+0	-11.7505E-3	-8.19259E-12	1.25029E+0	-21.8927E-3
-187.594E-6	-7.96924E-12	1.07205E+0	-14.6670E-3	-8.58918E-12	1.26889E+0	-28.9411E-3
-192.596E-6	-8.55908E-12	1.09921E+0	-20.9464E-3	-8.88976E-12	1.30693E+0	-29.2440E-3
-197.599E-6	-9.07841E-12	1.13280E+0	-28.3018E-3	-9.16590E-12	1.34512E+0	-14.5233E-3
-202.601E-6	-9.50379E-12	1.18406E+0	-30.3672E-3	-9.52669E-12	1.37507E+0	-747.942E-6
-207.604E-6	-9.73959E-12	1.23146E+0	-28.9001E-3	-9.91898E-12	1.39435E+0	-7.20946E-3
-212.606E-6	-10.2830E-12	1.27406E+0	-28.4787E-3	-10.2691E-12	1.41968E+0	-14.4781E-3
-217.609E-6	-10.9322E-12	1.31978E+0	-23.9195E-3	-10.6269E-12	1.47672E+0	-7.06708E-3
-222.611E-6	-11.4199E-12	1.36058E+0	-11.4884E-3	-10.8400E-12	1.54549E+0	-11.9517E-3
-227.614E-6	-11.6709E-12	1.40906E+0	-10.4954E-3	-11.3743E-12	1.60434E+0	-26.2171E-3
-232.616E-6	-12.2746E-12	1.47241E+0	-23.8996E-3	-12.0670E-12	1.66639E+0	-19.1834E-3
-237.619E-6	-12.8684E-12	1.52775E+0	-37.6182E-3	-12.6497E-12	1.74664E+0	-5.62083E-3
-242.621E-6	-13.5272E-12	1.57340E+0	-42.7338E-3	-13.1236E-12	1.83183E+0	-11.9161E-3
-247.624E-6	-14.0430E-12	1.62811E+0	-33.4094E-3	-13.7594E-12	1.90738E+0	-27.8990E-3
-252.626E-6	-14.7016E-12	1.69411E+0	-22.4596E-3	-14.6623E-12	1.98290E+0	-31.4059E-3
-257.629E-6	-15.1819E-12	1.75670E+0	-17.1075E-3	-15.6112E-12	2.05159E+0	-17.5700E-3
-262.631E-6	-15.8235E-12	1.80847E+0	-8.27859E-3	-16.3122E-12	2.11430E+0	575.213E-6
-267.634E-6	-16.6545E-12	1.85842E+0	-940.874E-6	-17.0218E-12	2.18239E+0	-1.97418E-3
-272.636E-6	-17.3615E-12	1.90963E+0	-5.05683E-3	-17.8468E-12	2.24179E+0	-19.9853E-3
-277.639E-6	-17.8534E-12	1.96652E+0	-8.26234E-3	-18.6241E-12	2.27954E+0	-22.6727E-3
-282.641E-6	-18.5807E-12	2.01852E+0	-3.08938E-3	-19.4275E-12	2.30486E+0	-17.0506E-3
-287.644E-6	-19.3836E-12	2.06091E+0	2.35941E-3	-19.8874E-12	2.33005E+0	-17.7317E-3
-292.646E-6	-20.1804E-12	2.12052E+0	1.97846E-3	-20.4368E-12	2.35825E+0	-16.8950E-3
-297.649E-6	-20.6685E-12	2.19465E+0	930.246E-6	-21.2128E-12	2.38798E+0	-21.8946E-3
-302.651E-6	-21.3787E-12	2.24924E+0	6.59237E-3	-21.7352E-12	2.42158E+0	-27.2461E-3
-307.654E-6	-22.2820E-12	2.28482E+0	1.23460E-3	-22.1808E-12	2.47274E+0	-12.6750E-3
-312.656E-6	-23.3594E-12	2.33129E+0	-16.5682E-3	-22.6661E-12	2.52980E+0	-2.59732E-3
-317.659E-6	-23.7569E-12	2.38654E+0	-21.8085E-3	-23.4482E-12	2.57246E+0	-8.26166E-3
-322.661E-6	-24.3184E-12	2.44048E+0	-12.4483E-3	-24.1124E-12	2.63050E+0	-20.0401E-3
-327.664E-6	-25.4575E-12	2.48994E+0	-7.72307E-3	-24.8835E-12	2.71282E+0	-32.0243E-3
-332.666E-6	-26.5163E-12	2.53636E+0	-11.6168E-3	-26.0172E-12	2.78301E+0	-29.8116E-3
-337.669E-6	-27.2343E-12	2.59258E+0	-10.6758E-3	-27.2041E-12	2.83754E+0	-16.0619E-3
-342.671E-6	-27.8922E-12	2.65590E+0	-6.89290E-3	-28.3076E-12	2.89321E+0	-17.4361E-3
-347.674E-6	-29.2674E-12	2.71422E+0	-3.53613E-3	-28.9327E-12	2.96297E+0	-26.2351E-3
-352.676E-6	-30.0212E-12	2.76650E+0	9.17759E-3	-30.2953E-12	3.04526E+0	-8.16014E-3
-357.679E-6	-30.5651E-12	2.81895E+0	14.0548E-3	-31.3600E-12	3.10303E+0	4.75996E-3
-362.681E-6	-31.4544E-12	2.85333E+0	-3.06682E-3	-32.5833E-12	3.13148E+0	-18.4326E-3
-367.684E-6	-32.8770E-12	2.87399E+0	-17.6246E-3	-33.7937E-12	3.16125E+0	-39.8176E-3
-372.686E-6	-33.9934E-12	2.91137E+0	-22.4245E-3	-34.8771E-12	3.19194E+0	-43.2669E-3
-377.689E-6	-34.5176E-12	2.96045E+0	-29.3962E-3	-35.9959E-12	3.21053E+0	-39.4211E-3
-382.691E-6	-35.3933E-12	3.00907E+0	-33.8126E-3	-36.6079E-12	3.22878E+0	-15.3317E-3
-387.694E-6	-37.0324E-12	3.05434E+0	-31.2456E-3	-37.6274E-12	3.25105E+0	7.49391E-3
-392.696E-6	-38.1727E-12	3.08929E+0	-30.6834E-3	-38.4064E-12	3.26439E+0	4.11758E-3
-397.699E-6	-38.7185E-12	3.12323E+0	-33.8377E-3	-39.5449E-12	3.27995E+0	-4.71919E-3
-402.701E-6	-39.5438E-12	3.16637E+0	-23.7012E-3	-40.1923E-12	3.30802E+0	-15.2146E-3
-407.704E-6	-41.2287E-12	3.20460E+0	-5.93872E-3	-41.0407E-12	3.32639E+0	-20.3663E-3
-412.706E-6	-42.5519E-12	3.23765E+0	-604.152E-6	-42.0568E-12	3.33298E+0	-7.52938E-3
-417.709E-6	-43.2798E-12	3.27141E+0	-1.33908E-3	-42.9298E-12	3.35828E+0	-3.38484E-3
-422.711E-6	-44.4052E-12	3.30697E+0	-476.764E-6	-44.1052E-12	3.38959E+0	-13.9033E-3
-427.714E-6	-46.2079E-12	3.33608E+0	754.699E-6	-45.1654E-12	3.41007E+0	-16.1619E-3
-432.716E-6	-47.5797E-12	3.36550E+0	1.53086E-3	-46.9995E-12	3.44804E+0	-21.3074E-3
-437.719E-6	-48.1592E-12	3.40552E+0	1.28950E-3	-47.8782E-12	3.48826E+0	-32.1580E-3
-442.721E-6	-49.0644E-12	3.43566E+0	-1.63215E-3	-49.1998E-12	3.48618E+0	-38.8420E-3
-447.724E-6	-50.7825E-12	3.43760E+0	-13.9418E-3	-50.7123E-12	3.46517E+0	-45.1300E-3
-452.726E-6	-52.0198E-12	3.43821E+0	-22.3397E-3	-52.1477E-12	3.46415E+0	-44.1008E-3
-457.729E-6	-52.2730E-12	3.47487E+0	-18.7251E-3	-52.4974E-12	3.47673E+0	-34.4376E-3
-462.731E-6	-52.6474E-12	3.50976E+0	-8.01128E-3	-53.8000E-12	3.49313E+0	-21.0672E-3
-467.734E-6	-54.4796E-12	3.50103E+0	-421.047E-6	-55.4348E-12	3.49886E+0	-15.0776E-3
-472.736E-6	-55.8338E-12	3.47119E+0	-14.3185E-3	-56.7963E-12	3.49210E+0	-13.2079E-3
-477.739E-6	-56.4359E-12	3.45507E+0	-29.0171E-3	-57.4792E-12	3.51046E+0	-15.1875E-3
-482.741E-6	-57.4159E-12	3.44333E+0	-21.6300E-3	-58.2828E-12	3.52358E+0	-31.7576E-3
-487.744E-6	-58.9073E-12	3.42938E+0	-12.6431E-3	-59.7217E-12	3.48849E+0	-26.2945E-3
-492.746E-6	-59.9409E-12	3.42299E+0	-11.2828E-3	-61.0957E-12	3.45517E+0	1.44732E-3
-497.749E-6	-61.1225E-12	3.42212E+0	-191.058E-6	-62.5530E-12	3.44242E+0	-7.70570E-3
-502.751E-6	-62.6209E-12	3.42420E+0	2.43603E-3	-63.2553E-12	3.43054E+0	-39.8522E-3
-507.754E-6	-64.0376E-12	3.43218E+0	-1.15820E-3	-64.5456E-12	3.42835E+0	-48.8055E-3
-512.756E-6	-65.3789E-12	3.44485E+0	8.34404E-3	-66.0676E-12	3.42815E+0	-44.9698E-3
-517.759E-6	-66.7487E-12	3.44859E+0	2.14995E-3	-67.2395E-12	3.40353E+0	-35.2074E-3
-522.761E-6	-67.8820E-12	3.45777E+0	-20.1609E-3	-68.0829E-12	3.38270E+0	-18.1414E-3
-527.764E-6	-68.5104E-12	3.46848E+0	-17.4809E-3	-69.0348E-12	3.37809E+0	-9.12343E-3
-532.766E-6	-70.1187E-12	3.44599E+0	5.03471E-3	-70.1156E-12	3.33682E+0	-3.74367E-3
-537.769E-6	-71.1280E-12	3.40368E+0	9.90251E-3	-71.1888E-12	3.26546E+0	248.213E-6
-542.771E-6	-72.1862E-12	3.36473E+0	5.52254E-3	-72.2886E-12	3.20831E+0	-2.33771E-3
-547.774E-6	-72.5550E-12	3.33630E+0	3.60077E-3	-72.5909E-12	3.15226E+0	-12.9764E-3
-552.776E-6	-73.1468E-12	3.31405E+0	-11.9703E-3	-73.1217E-12	3.11224E+0	-24.3432E-3
-557.779E-6	-74.1521E-12	3.28119E+0	-35.2000E-3	-73.9602E-12	3.11673E+0	-23.4460E-3
-562.781E-6	-75.4166E-12	3.23873E+0	-49.8771E-3	-75.5077E-12	3.11251E+0	-11.0032E-3
-567.784E-6	-76.3374E-12	3.19527E+0	-39.4182E-3	-76.9789E-12	3.07821E+0	2.75791E-3
-572.786E-6	-77.0254E-12	3.16094E+0	-8.28279E-3	-78.6137E-12	3.03247E+0	-10.4193E-3
-577.789E-6	-78.7604E-12	3.11704E+0	6.10903E-3	-79.9297E-12	2.98428E+0	-38.6615E-3
-582.791E-6	-79.9121E-12	3.05000E+0	-3.12779E-3	-81.3946E-12	2.97223E+0	-35.1359E-3
-587.794E-6	-80.5715E-12	3.00409E+0	-10.1237E-3	-82.8780E-12	2.97881E+0	-16.3505E-3
-592.796E-6	-81.5843E-12	2.98956E+0	-13.3132E-3	-84.1403E-12	2.93880E+0	-6.32047E-3
-597.799E-6	-83.1115E-12	2.97753E+0	-15.2061E-3	-85.6068E-12	2.86586E+0	-1.47093E-3
-602.801E-6	-84.1520E-12	2.95359E+0	-25.8213E-3	-86.9151E-12	2.81094E+0	-19.9113E-3
-607.804E-6	-84.2082E-12	2.91650E+0	-40.0769E-3	-88.0298E-12	2.78181E+0	-38.0916E-3
-612.806E-6	-85.3844E-12	2.86573E+0	-24.9591E-3	-89.0785E-12	2.75167E+0	-30.0264E-3
-617.809E-6	-86.9496E-12	2.81551E+0	-8.67726E-3	-89.6499E-12	2.69995E+0	-29.2445E-3
-622.811E-6	-88.1656E-12	2.78088E+0	-10.7668E-3	-90.4618E-12	2.61821E+0	-27.2672E-3
-627.814E-6	-88.5465E-12	2.74255E+0	-6.00915E-3	-91.2066E-12	2.52208E+0	-7.32123E-3
-632.816E-6	-87.8894E-12	2.69333E+0	-14.2231E-3	-91.4926E-12	2.44499E+0	-12.6076E-3
-637.819E-6	-89.4338E-12	2.63921E+0	-42.2927E-3	-91.3350E-12	2.38373E+0	-36.0333E-3
-642.821E-6	-90.4957E-12	2.57027E+0	-39.7647E-3	-90.8048E-12	2.33156E+0	-41.0979E-3
-647.824E-6	-91.6298E-12	2.49643E+0	-11.9067E-3	-91.3838E-12	2.29090E+0	-34.9111E-3
-652.826E-6	-91.4724E-12	2.45094E+0	2.58106E-3	-91.5749E-12	2.24752E+0	-24.2693E-3
-657.829E-6	-92.5365E-12	2.43845E+0	3.23746E-3	-91.9345E-12	2.20382E+0	-4.05718E-3
-662.831E-6	-93.0432E-12	2.39632E+0	-6.14846E-3	-93.0450E-12	2.18320E+0	3.02555E-3
-667.834E-6	-94.7451E-12	2.32414E+0	-11.0581E-3	-93.8371E-12	2.15210E+0	-5.33526E-3
-672.836E-6	-95.4995E-12	2.28338E+0	-3.64608E-3	-94.4513E-12	2.07818E+0	1.85555E-3
-677.839E-6	-95.9066E-12	2.25806E+0	-9.61026E-3	-95.7542E-12	2.00891E+0	1.97208E-3
-682.841E-6	-96.6174E-12	2.21911E+0	-29.2699E-3	-97.7572E-12	1.97567E+0	-21.3918E-3
-687.844E-6	-97.9921E-12	2.15559E+0	-19.9715E-3	-99.6058E-12	1.96284E+0	-26.0647E-3
-692.846E-6	-99.8354E-12	2.08604E+0	1.56929E-3	-100.612E-12	1.94847E+0	-13.4340E-3
-697.849E-6	-100.036E-12	2.06074E+0	-7.96650E-3	-102.265E-12	1.90375E+0	-18.9741E-3
-702.851E-6	-99.9921E-12	2.06210E+0	-17.9500E-3	-103.193E-12	1.81681E+0	-18.2083E-3
-707.854E-6	-101.084E-12	2.02977E+0	-10.9599E-3	-104.132E-12	1.73290E+0	-9.08761E-3
-712.856E-6	-101.774E-12	1.95387E+0	-13.1753E-3	-103.940E-12	1.68450E+0	-15.0938E-3
-717.859E-6	-102.288E-12	1.87662E+0	-13.4703E-3	-104.581E-12	1.64650E+0	-7.71264E-3
-722.861E-6	-101.871E-12	1.81242E+0	3.19896E-3	-104.465E-12	1.59024E+0	9.20417E-3
-727.864E-6	-102.202E-12	1.75123E+0	263.628E-6	-104.364E-12	1.51707E+0	4.12491E-3
-732.866E-6	-102.882E-12	1.70566E+0	-16.9647E-3	-103.516E-12	1.44731E+0	-11.1480E-3
-737.869E-6	-103.706E-12	1.66091E+0	-19.1869E-3	-103.045E-12	1.40323E+0	-19.8934E-3
-742.871E-6	-103.987E-12	1.61167E+0	-20.2038E-3	-103.841E-12	1.37529E+0	-25.8729E-3
-747.874E-6	-104.616E-12	1.56861E+0	-15.2823E-3	-103.505E-12	1.33790E+0	-33.2728E-3
-752.876E-6	-105.378E-12	1.51705E+0	-5.14003E-3	-103.092E-12	1.28652E+0	-18.4821E-3
-757.879E-6	-106.568E-12	1.46823E+0	-14.7046E-3	-103.385E-12	1.24916E+0	-6.64118E-3
-762.881E-6	-106.645E-12	1.43245E+0	-23.6836E-3	-104.584E-12	1.22502E+0	-15.6018E-3
-767.884E-6	-106.499E-12	1.39198E+0	-12.0331E-3	-105.500E-12	1.20949E+0	-981.262E-6
-772.886E-6	-107.483E-12	1.34632E+0	-24.5606E-3	-106.602E-12	1.21946E+0	8.35812E-3
-777.889E-6	-109.291E-12	1.31254E+0	-48.1992E-3	-107.665E-12	1.18326E+0	-10.3847E-3
-782.891E-6	-108.951E-12	1.27989E+0	-31.1967E-3	-108.648E-12	1.10495E+0	-22.7928E-3
-787.894E-6	-108.401E-12	1.24384E+0	-12.9765E-3	-110.609E-12	1.06318E+0	-35.3669E-3
-792.896E-6	-109.131E-12	1.18684E+0	-5.78467E-3	-111.009E-12	1.02599E+0	-43.9051E-3
-797.899E-6	-110.361E-12	1.10984E+0	6.82329E-3	-112.405E-12	974.830E-3	-17.2412E-3
-802.901E-6	-109.883E-12	1.08061E+0	-5.08190E-3	-112.328E-12	914.557E-3	-4.25837E-3
-807.904E-6	-108.496E-12	1.07979E+0	-24.3619E-3	-112.295E-12	844.778E-3	-28.3897E-3
-812.906E-6	-108.438E-12	1.04506E+0	-18.9652E-3	-111.447E-12	815.822E-3	-39.1246E-3
-817.909E-6	-109.429E-12	983.012E-3	-15.3998E-3	-111.486E-12	830.180E-3	-19.6068E-3
-822.911E-6	-108.966E-12	937.117E-3	-14.0070E-3	-111.818E-12	819.961E-3	5.21740E-3
-827.914E-6	-109.402E-12	924.696E-3	-13.9836E-3	-111.120E-12	792.636E-3	15.0210E-3
-832.916E-6	-109.863E-12	917.069E-3	-26.0554E-3	-110.821E-12	772.307E-3	9.54009E-3
-837.919E-6	-110.674E-12	886.964E-3	-27.8679E-3	-111.036E-12	741.543E-3	-10.7767E-3
-842.921E-6	-111.691E-12	829.562E-3	-12.9624E-3	-111.540E-12	726.882E-3	-33.1837E-3
-847.924E-6	-111.916E-12	788.404E-3	-3.27961E-3	-111.080E-12	716.304E-3	-40.0808E-3
-852.926E-6	-111.961E-12	785.024E-3	3.02903E-3	-111.119E-12	667.743E-3	-16.5293E-3
-857.929E-6	-112.657E-12	773.776E-3	18.9281E-3	-111.406E-12	617.945E-3	7.26423E-3
-862.931E-6	-114.554E-12	740.806E-3	6.38530E-3	-112.358E-12	605.408E-3	-10.5838E-3
-867.934E-6	-115.405E-12	708.439E-3	-24.2647E-3	-113.601E-12	605.642E-3	-34.2686E-3
-872.936E-6	-115.305E-12	680.120E-3	-17.0820E-3	-113.441E-12	603.876E-3	-19.0172E-3
-877.939E-6	-114.612E-12	644.312E-3	2.75330E-3	-114.571E-12	580.922E-3	18.3146E-3
-882.941E-6	-115.162E-12	602.666E-3	3.31725E-3	-115.646E-12	523.275E-3	28.3819E-3
-887.944E-6	-115.974E-12	573.234E-3	-8.42376E-3	-116.178E-12	483.000E-3	8.83510E-3
-892.946E-6	-115.016E-12	550.237E-3	-26.7033E-3	-115.551E-12	487.316E-3	4.80948E-3
-897.949E-6	-114.266E-12	533.269E-3	-16.6620E-3	-115.196E-12	495.463E-3	5.12965E-3
-902.951E-6	-114.831E-12	518.743E-3	11.4756E-3	-116.392E-12	472.940E-3	-3.37342E-3
-907.954E-6	-115.623E-12	486.197E-3	3.79945E-3	-117.125E-12	442.720E-3	-12.1488E-3
-912.956E-6	-114.419E-12	461.398E-3	-21.1904E-3	-116.581E-12	424.715E-3	-36.5384E-3
-917.959E-6	-113.352E-12	453.323E-3	-16.9457E-3	-115.611E-12	407.459E-3	-43.1991E-3
-922.961E-6	-114.473E-12	431.298E-3	4.59588E-3	-116.033E-12	412.834E-3	-28.0374E-3
-927.964E-6	-116.155E-12	418.646E-3	13.2363E-3	-116.500E-12	427.235E-3	-27.7226E-3
-932.966E-6	-115.508E-12	429.809E-3	8.94176E-3	-115.665E-12	406.440E-3	-21.1520E-3
-937.969E-6	-114.980E-12	415.714E-3	7.10549E-3	-115.637E-12	364.907E-3	-5.65795E-3
-942.971E-6	-115.521E-12	389.316E-3	6.07697E-3	-115.907E-12	332.593E-3	-3.47570E-3
-947.974E-6	-116.405E-12	369.570E-3	-11.5868E-3	-116.217E-12	325.260E-3	-5.79843E-3
-952.976E-6	-116.282E-12	333.788E-3	-23.7200E-3	-116.098E-12	331.190E-3	-4.11316E-3
-957.979E-6	-116.262E-12	307.018E-3	-29.0881E-3	-115.532E-12	314.408E-3	3.81405E-3
-962.981E-6	-116.118E-12	313.862E-3	-44.1771E-3	-116.730E-12	287.611E-3	25.5946E-3
-967.984E-6	-116.331E-12	324.582E-3	-46.7462E-3	-116.337E-12	288.222E-3	27.5336E-3
-972.986E-6	-116.631E-12	316.098E-3	-29.4576E-3	-116.944E-12	288.298E-3	-9.02986E-3
-977.989E-6	-117.003E-12	321.455E-3	-13.4685E-3	-116.554E-12	294.903E-3	-24.0762E-3
-982.991E-6	-116.359E-12	325.492E-3	-12.1375E-3	-117.776E-12	305.368E-3	-1.52846E-3
-987.994E-6	-116.099E-12	316.699E-3	-17.0789E-3	-117.032E-12	270.985E-3	-8.94445E-3
-992.997E-6	-116.671E-12	312.438E-3	-20.9679E-3	-117.367E-12	241.670E-3	-33.8789E-3
-997.999E-6	-116.520E-12	289.743E-3	-20.2886E-3	-117.066E-12	253.609E-3	-18.9489E-3
-1.00300E-3	-116.432E-12	257.682E-3	-30.5437E-3	-117.425E-12	259.786E-3	14.0530E-3
-1.00800E-3	-116.227E-12	243.473E-3	-29.0915E-3	-117.159E-12	233.786E-3	48.0222E-3
-1.01301E-3	-117.056E-12	234.443E-3	-5.93112E-3	-117.711E-12	210.677E-3	56.5568E-3
-1.01801E-3	-117.759E-12	217.307E-3	-4.77172E-3	-117.496E-12	211.124E-3	7.49877E-3
-1.02301E-3	-118.553E-12	218.123E-3	-7.78954E-3	-117.418E-12	220.092E-3	-37.1788E-3
-1.02801E-3	-117.263E-12	235.389E-3	9.08514E-3	-118.986E-12	218.297E-3	-22.6698E-3
-1.03302E-3	-116.918E-12	227.111E-3	13.5229E-3	-118.772E-12	190.358E-3	4.63477E-3
-1.03802E-3	-117.948E-12	216.269E-3	7.82762E-3	-118.710E-12	164.739E-3	6.72172E-3
-1.04302E-3	-118.325E-12	219.692E-3	13.2250E-3	-118.041E-12	165.066E-3	-5.34092E-3
-1.04802E-3	-117.681E-12	199.528E-3	15.5972E-3	-119.577E-12	192.597E-3	-34.3316E-3
-1.05303E-3	-117.120E-12	193.919E-3	7.30155E-3	-119.204E-12	222.400E-3	-59.5492E-3
-1.05803E-3	-117.708E-12	228.502E-3	-2.05228E-3	-118.999E-12	238.132E-3	-50.0574E-3
-1.06303E-3	-117.587E-12	247.024E-3	-22.2670E-3	-118.221E-12	242.341E-3	-31.3089E-3
-1.06803E-3	-117.628E-12	239.065E-3	-39.2752E-3	-118.231E-12	216.352E-3	-29.4907E-3
-1.07304E-3	-117.206E-12	221.623E-3	-21.7517E-3	-118.092E-12	195.971E-3	-26.2742E-3
-1.07804E-3	-117.795E-12	181.714E-3	-6.93786E-3	-116.875E-12	217.263E-3	-12.9904E-3
-1.08304E-3	-117.757E-12	151.166E-3	-16.4194E-3	-116.158E-12	238.798E-3	2.92108E-3
-1.08804E-3	-118.323E-12	168.158E-3	-10.6523E-3	-117.309E-12	222.020E-3	10.5992E-3
-1.09305E-3	-118.389E-12	183.366E-3	-5.66498E-3	-117.089E-12	195.600E-3	2.88767E-3
-1.09805E-3	-118.733E-12	178.250E-3	-22.9427E-3	-117.454E-12	186.163E-3	-8.16427E-3
-1.10305E-3	-119.016E-12	172.710E-3	-25.1349E-3	-117.352E-12	189.168E-3	-5.23816E-3
-1.10805E-3	-119.461E-12	181.944E-3	-18.6481E-3	-118.665E-12	206.589E-3	13.9632E-3
-1.11306E-3	-120.148E-12	215.387E-3	-33.6257E-3	-119.659E-12	200.308E-3	15.1903E-3
-1.11806E-3	-120.564E-12	243.584E-3	-32.9377E-3	-119.909E-12	177.433E-3	3.95846E-3
-1.12306E-3	-120.803E-12	241.152E-3	-19.5220E-3	-119.628E-12	194.998E-3	-11.0030E-3
-1.12806E-3	-120.355E-12	217.876E-3	-21.3045E-3	-119.705E-12	226.210E-3	-48.1047E-3
-1.13307E-3	-120.159E-12	195.358E-3	-13.9504E-3	-121.162E-12	225.875E-3	-46.9325E-3
-1.13807E-3	-119.946E-12	191.607E-3	-15.9312E-3	-121.462E-12	219.228E-3	6.73376E-3
-1.14307E-3	-119.322E-12	206.877E-3	-32.0691E-3	-120.817E-12	221.200E-3	17.0349E-3
-1.14807E-3	-119.710E-12	223.330E-3	-19.5065E-3	-120.855E-12	217.138E-3	-17.6558E-3
-1.15308E-3	-119.500E-12	249.718E-3	11.6451E-3	-121.321E-12	220.486E-3	-28.6910E-3
-1.15808E-3	-119.585E-12	255.611E-3	-1.68920E-3	-120.876E-12	238.488E-3	-23.7905E-3
-1.16308E-3	-119.120E-12	240.049E-3	-31.8670E-3	-119.296E-12	238.921E-3	-18.1467E-3
-1.16808E-3	-119.113E-12	239.046E-3	-33.3002E-3	-118.112E-12	234.981E-3	-9.54563E-3
-1.17309E-3	-119.582E-12	235.396E-3	-30.3301E-3	-117.527E-12	247.037E-3	-17.7643E-3
-1.17809E-3	-120.120E-12	230.853E-3	-20.2918E-3	-117.520E-12	256.317E-3	-34.2207E-3
-1.18309E-3	-120.442E-12	232.248E-3	-8.92698E-3	-117.932E-12	274.063E-3	-29.0225E-3
-1.18809E-3	-120.183E-12	233.361E-3	-23.6508E-3	-117.336E-12	274.849E-3	-7.10870E-3
-1.19310E-3	-120.279E-12	236.648E-3	-33.8745E-3	-118.064E-12	244.314E-3	-6.37054E-3
-1.19810E-3	-121.341E-12	244.272E-3	-14.7905E-3	-118.285E-12	249.857E-3	-41.8894E-3
-1.20310E-3	-122.001E-12	251.723E-3	-8.20848E-3	-118.980E-12	296.273E-3	-58.2253E-3
-1.20810E-3	-121.532E-12	256.386E-3	-2.97287E-3	-120.013E-12	334.697E-3	-37.4970E-3
-1.21311E-3	-121.409E-12	245.521E-3	9.20763E-3	-121.729E-12	351.412E-3	-22.6682E-3
-1.21811E-3	-121.734E-12	243.433E-3	-2.63191E-3	-122.511E-12	327.401E-3	-12.3941E-3
-1.22311E-3	-121.991E-12	277.444E-3	-1.07402E-3	-122.863E-12	288.061E-3	-11.7809E-3
-1.22811E-3	-121.260E-12	299.727E-3	12.6942E-3	-123.578E-12	298.559E-3	-7.48818E-3
-1.23312E-3	-121.287E-12	298.934E-3	-12.6133E-3	-124.756E-12	351.250E-3	13.1355E-3
-1.23812E-3	-121.246E-12	308.676E-3	-30.9972E-3	-124.401E-12	382.357E-3	15.5294E-3
-1.24312E-3	-121.452E-12	310.792E-3	-17.6759E-3	-122.899E-12	370.928E-3	-894.680E-6
-1.24812E-3	-120.326E-12	286.998E-3	-16.4626E-3	-121.276E-12	346.249E-3	-14.9580E-3
-1.25313E-3	-120.582E-12	293.131E-3	-22.8721E-3	-122.669E-12	328.232E-3	-23.6131E-3
-1.25813E-3	-121.494E-12	315.054E-3	-16.7206E-3	-121.802E-12	342.804E-3	-31.0037E-3
-1.26313E-3	-121.794E-12	310.956E-3	-14.4529E-3	-120.014E-12	377.530E-3	-32.2091E-3
-1.26813E-3	-121.652E-12	324.817E-3	-11.5299E-3	-119.422E-12	371.359E-3	-4.58833E-3
-1.27314E-3	-121.403E-12	334.571E-3	10.1855E-3	-119.572E-12	340.566E-3	22.8797E-3
-1.27814E-3	-122.251E-12	321.232E-3	24.1691E-3	-119.110E-12	337.794E-3	-6.94495E-3
-1.28314E-3	-122.558E-12	340.488E-3	12.5329E-3	-119.057E-12	358.563E-3	-42.8677E-3
-1.28814E-3	-122.455E-12	376.684E-3	-5.39193E-3	-119.766E-12	390.863E-3	-31.2329E-3
-1.29315E-3	-122.585E-12	383.504E-3	-17.9293E-3	-119.678E-12	413.444E-3	-22.1703E-3
-1.29815E-3	-122.487E-12	364.489E-3	-25.8679E-3	-120.202E-12	410.989E-3	-26.5386E-3
-1.30315E-3	-123.115E-12	360.440E-3	-14.8879E-3	-120.994E-12	423.608E-3	-11.8901E-3
-1.30815E-3	-123.559E-12	379.478E-3	-6.12600E-3	-122.221E-12	444.777E-3	2.32445E-3
-1.31316E-3	-123.400E-12	387.143E-3	-15.5992E-3	-122.410E-12	444.152E-3	1.15648E-3
-1.31816E-3	-123.156E-12	399.584E-3	-27.1779E-3	-123.625E-12	433.364E-3	-188.746E-6
-1.32316E-3	-122.811E-12	421.373E-3	-29.3279E-3	-123.889E-12	436.137E-3	-15.1068E-3
-1.32816E-3	-123.719E-12	428.437E-3	-2.41819E-3	-124.644E-12	456.507E-3	-38.6374E-3
-1.33317E-3	-122.830E-12	423.638E-3	31.1082E-3	-124.153E-12	474.030E-3	-33.1495E-3
-1.33817E-3	-123.368E-12	398.779E-3	27.2903E-3	-124.801E-12	477.686E-3	-12.1424E-3
-1.34317E-3	-123.268E-12	392.037E-3	3.94085E-3	-124.688E-12	458.063E-3	-4.61570E-3
-1.34817E-3	-124.207E-12	424.002E-3	-12.1838E-3	-124.092E-12	432.242E-3	-8.05379E-3
-1.35318E-3	-123.764E-12	428.853E-3	-37.1930E-3	-123.380E-12	434.334E-3	-19.4164E-3
-1.35818E-3	-123.592E-12	432.599E-3	-63.4127E-3	-122.682E-12	444.783E-3	-33.1327E-3
-1.36318E-3	-124.557E-12	460.278E-3	-52.6647E-3	-122.606E-12	449.662E-3	-27.7985E-3
-1.36818E-3	-124.370E-12	450.738E-3	-12.3056E-3	-122.826E-12	479.592E-3	-13.7357E-3
-1.37319E-3	-124.548E-12	431.335E-3	8.45655E-3	-122.438E-12	506.399E-3	-11.2722E-3
-1.37819E-3	-124.084E-12	457.157E-3	11.2121E-3	-122.662E-12	501.196E-3	-19.3197E-3
-1.38319E-3	-125.655E-12	494.285E-3	18.2076E-3	-122.334E-12	495.191E-3	-24.1203E-3
-1.38819E-3	-125.903E-12	519.160E-3	4.68847E-3	-123.729E-12	503.058E-3	-20.7689E-3
-1.39320E-3	-125.298E-12	525.588E-3	-35.9319E-3	-123.490E-12	506.141E-3	-20.1831E-3
-1.39820E-3	-125.404E-12	503.869E-3	-48.5722E-3	-124.421E-12	511.795E-3	-25.3362E-3
-1.40320E-3	-125.055E-12	496.362E-3	-29.3922E-3	-124.537E-12	524.323E-3	-27.1202E-3
-1.40820E-3	-125.879E-12	511.243E-3	-22.0406E-3	-125.044E-12	542.519E-3	-23.0671E-3
-1.41321E-3	-126.056E-12	492.011E-3	-17.9945E-3	-126.511E-12	555.989E-3	-25.0153E-3
-1.41821E-3	-126.119E-12	469.664E-3	5.57159E-3	-126.983E-12	541.503E-3	-33.2969E-3
-1.42321E-3	-124.902E-12	487.314E-3	32.9634E-3	-127.412E-12	521.542E-3	-27.3667E-3
-1.42821E-3	-125.858E-12	491.335E-3	33.6167E-3	-126.966E-12	526.624E-3	-11.9189E-3
-1.43322E-3	-126.908E-12	484.935E-3	20.7373E-3	-127.834E-12	543.185E-3	-10.9004E-3
-1.43822E-3	-127.456E-12	514.716E-3	22.3698E-3	-128.677E-12	540.396E-3	-17.8738E-3
-1.44322E-3	-127.079E-12	548.822E-3	32.9614E-3	-129.037E-12	547.738E-3	-15.5925E-3
-1.44822E-3	-126.592E-12	553.429E-3	15.3801E-3	-128.914E-12	573.781E-3	-4.56853E-3
-1.45323E-3	-127.265E-12	546.490E-3	-28.5340E-3	-128.620E-12	566.160E-3	7.66095E-3
-1.45823E-3	-128.196E-12	527.964E-3	-37.2662E-3	-128.647E-12	538.239E-3	8.98876E-3
-1.46323E-3	-127.999E-12	500.974E-3	-17.6183E-3	-129.376E-12	534.033E-3	-10.2954E-3
-1.46823E-3	-126.735E-12	511.944E-3	-5.78479E-3	-129.778E-12	550.291E-3	-26.6181E-3
-1.47324E-3	-127.328E-12	531.418E-3	5.80756E-3	-129.239E-12	572.505E-3	-32.7571E-3
-1.47824E-3	-128.116E-12	514.317E-3	3.45389E-3	-128.988E-12	578.972E-3	-33.7848E-3
-1.48324E-3	-128.133E-12	513.244E-3	-6.14612E-3	-129.293E-12	573.081E-3	-23.3214E-3
-1.48824E-3	-127.679E-12	529.086E-3	-3.33235E-3	-129.623E-12	594.516E-3	-11.9021E-3
-1.49325E-3	-127.634E-12	536.362E-3	-9.39502E-3	-128.869E-12	608.162E-3	-7.39644E-3
-1.49825E-3	-128.205E-12	557.380E-3	-14.1240E-3	-128.496E-12	577.459E-3	9.61359E-3
-1.50325E-3	-128.519E-12	587.494E-3	673.270E-6	-128.862E-12	555.764E-3	27.6681E-3
-1.50825E-3	-129.115E-12	587.487E-3	-4.13101E-3	-129.367E-12	568.317E-3	5.74360E-3
-1.51326E-3	-129.064E-12	567.075E-3	-25.7723E-3	-128.388E-12	579.325E-3	-17.2791E-3
-1.51826E-3	-129.627E-12	572.217E-3	-6.91661E-3	-127.871E-12	582.331E-3	411.429E-6
-1.52326E-3	-129.605E-12	580.059E-3	14.3797E-3	-128.340E-12	578.450E-3	24.0651E-3
-1.52826E-3	-130.613E-12	579.207E-3	-16.9291E-3	-129.701E-12	560.191E-3	18.7787E-3
-1.53327E-3	-130.708E-12	579.761E-3	-39.1950E-3	-130.890E-12	554.437E-3	-8.10065E-3
-1.53827E-3	-131.180E-12	577.310E-3	-33.3337E-3	-130.263E-12	573.604E-3	-47.5113E-3
-1.54327E-3	-130.717E-12	600.631E-3	-38.5263E-3	-130.638E-12	592.867E-3	-66.0625E-3
-1.54827E-3	-132.293E-12	629.327E-3	-37.4002E-3	-132.302E-12	611.927E-3	-36.3951E-3
-1.55328E-3	-132.270E-12	608.169E-3	-30.6766E-3	-133.352E-12	630.251E-3	-8.04717E-3
-1.55828E-3	-132.222E-12	585.276E-3	-37.9026E-3	-133.629E-12	625.243E-3	-2.32879E-3
-1.56328E-3	-132.732E-12	602.852E-3	-24.6273E-3	-133.535E-12	610.062E-3	-742.867E-6
-1.56828E-3	-133.170E-12	614.034E-3	-1.70901E-3	-133.250E-12	607.755E-3	-5.19576E-3
-1.57329E-3	-132.662E-12	615.099E-3	-19.8325E-3	-133.915E-12	611.103E-3	-6.97791E-3
-1.57829E-3	-132.185E-12	601.131E-3	-40.1287E-3	-133.306E-12	600.209E-3	-6.86725E-3
-1.58329E-3	-132.526E-12	573.088E-3	-37.9371E-3	-132.443E-12	594.136E-3	-15.8636E-3
-1.58829E-3	-133.104E-12	585.252E-3	-48.2637E-3	-131.116E-12	605.561E-3	-28.4004E-3
-1.59330E-3	-132.720E-12	618.730E-3	-51.5259E-3	-131.318E-12	613.964E-3	-34.5076E-3
-1.59830E-3	-132.337E-12	616.214E-3	-26.7420E-3	-131.456E-12	618.100E-3	-31.4677E-3
-1.60330E-3	-131.530E-12	600.171E-3	-22.9891E-3	-131.072E-12	621.947E-3	-19.9640E-3
-1.60830E-3	-132.023E-12	594.952E-3	-43.7788E-3	-130.267E-12	611.160E-3	1.35173E-3
-1.61331E-3	-133.159E-12	595.411E-3	-49.4765E-3	-129.786E-12	590.399E-3	20.2004E-3
-1.61831E-3	-133.615E-12	613.378E-3	-45.9843E-3	-131.695E-12	585.622E-3	21.5553E-3
-1.62331E-3	-132.988E-12	632.315E-3	-34.8341E-3	-132.427E-12	609.493E-3	12.9789E-3
-1.62831E-3	-133.338E-12	608.841E-3	-11.6362E-3	-132.599E-12	637.963E-3	16.3296E-3
-1.63332E-3	-134.296E-12	575.705E-3	-15.4577E-3	-132.935E-12	625.805E-3	26.2191E-3
-1.63832E-3	-135.214E-12	588.322E-3	-31.9152E-3	-136.488E-12	604.321E-3	13.2155E-3
-1.64332E-3	-135.124E-12	599.768E-3	-13.9370E-3	-137.893E-12	623.254E-3	1.40819E-3
-1.64832E-3	-134.603E-12	596.268E-3	-9.55257E-3	-138.973E-12	646.184E-3	16.3232E-3
-1.65333E-3	-135.587E-12	615.848E-3	-22.4043E-3	-138.879E-12	655.439E-3	20.6426E-3
-1.65833E-3	-135.989E-12	623.154E-3	-5.63991E-3	-139.533E-12	653.637E-3	2.35567E-3
-1.66333E-3	-135.873E-12	625.668E-3	16.1526E-3	-140.405E-12	638.258E-3	-12.3771E-3
-1.66833E-3	-135.654E-12	654.838E-3	25.2317E-3	-140.131E-12	629.073E-3	-8.67617E-3
-1.67334E-3	-135.864E-12	659.665E-3	15.9590E-3	-138.516E-12	622.081E-3	-246.434E-6
-1.67834E-3	-135.409E-12	642.743E-3	-21.2013E-3	-137.273E-12	611.603E-3	16.0553E-3
-1.68334E-3	-135.777E-12	640.155E-3	-55.4117E-3	-136.494E-12	597.724E-3	34.4684E-3
-1.68834E-3	-135.381E-12	629.671E-3	-58.4077E-3	-135.635E-12	589.306E-3	12.2701E-3
-1.69335E-3	-134.979E-12	614.598E-3	-61.7373E-3	-135.292E-12	603.943E-3	-30.6656E-3
-1.69835E-3	-135.359E-12	614.675E-3	-68.2205E-3	-134.707E-12	617.779E-3	-39.3577E-3
-1.70335E-3	-136.065E-12	612.223E-3	-24.0450E-3	-134.284E-12	619.915E-3	-31.8209E-3
-1.70835E-3	-137.077E-12	613.348E-3	11.8673E-3	-134.351E-12	623.972E-3	-27.7879E-3
-1.71336E-3	-136.221E-12	635.748E-3	-3.48349E-3	-135.003E-12	614.967E-3	-13.8834E-3
-1.71836E-3	-135.413E-12	659.132E-3	-4.68148E-3	-135.174E-12	606.850E-3	-16.2240E-3
-1.72336E-3	-136.225E-12	662.040E-3	-19.0403E-3	-135.762E-12	624.695E-3	-21.5028E-3
-1.72836E-3	-138.242E-12	646.751E-3	-56.2341E-3	-137.688E-12	654.071E-3	-11.0058E-3
-1.73337E-3	-137.662E-12	613.884E-3	-65.7161E-3	-139.140E-12	666.708E-3	-2.84926E-3
-1.73837E-3	-136.409E-12	575.002E-3	-57.6343E-3	-139.661E-12	648.842E-3	8.39803E-3
-1.74337E-3	-137.591E-12	578.808E-3	-45.0768E-3	-141.056E-12	616.515E-3	8.15261E-3
-1.74837E-3	-139.558E-12	614.563E-3	-28.9267E-3	-142.002E-12	624.929E-3	-17.2742E-3
-1.75338E-3	-140.322E-12	630.908E-3	-20.5138E-3	-142.087E-12	637.512E-3	-52.1366E-3
-1.75838E-3	-139.094E-12	638.203E-3	-15.3306E-3	-141.449E-12	618.515E-3	-44.5496E-3
-1.76338E-3	-138.094E-12	640.031E-3	-162.885E-6	-141.802E-12	612.779E-3	-3.82715E-3
-1.76838E-3	-139.467E-12	625.641E-3	269.305E-6	-141.827E-12	608.171E-3	-7.22607E-3
-1.77339E-3	-139.794E-12	645.971E-3	-17.5142E-3	-140.900E-12	603.287E-3	-27.2177E-3
-1.77839E-3	-139.036E-12	677.685E-3	-22.8823E-3	-140.091E-12	617.724E-3	-16.6228E-3
-1.78339E-3	-138.654E-12	647.806E-3	-13.4215E-3	-139.273E-12	628.291E-3	-3.71899E-3
-1.78839E-3	-139.726E-12	610.042E-3	-11.2989E-3	-139.428E-12	622.037E-3	12.1697E-3
-1.79340E-3	-139.729E-12	616.956E-3	-11.4177E-3	-138.911E-12	617.555E-3	13.2147E-3
-1.79840E-3	-138.892E-12	630.080E-3	-482.850E-6	-138.460E-12	629.195E-3	-23.9329E-3
-1.80340E-3	-139.504E-12	633.795E-3	-3.75341E-3	-138.581E-12	635.826E-3	-36.9308E-3
-1.80840E-3	-140.103E-12	640.017E-3	-3.53072E-3	-139.034E-12	638.493E-3	-13.7490E-3
-1.81341E-3	-140.276E-12	633.727E-3	-3.28320E-3	-139.817E-12	635.171E-3	-7.63702E-3
-1.81841E-3	-139.797E-12	627.827E-3	-19.3173E-3	-139.651E-12	604.873E-3	-14.3632E-3
-1.82341E-3	-140.965E-12	639.911E-3	-13.6750E-3	-140.517E-12	614.192E-3	-16.9030E-3
-1.82841E-3	-141.784E-12	635.233E-3	-12.2584E-3	-141.962E-12	647.879E-3	-18.5921E-3
-1.83342E-3	-142.041E-12	624.540E-3	-47.9249E-3	-143.506E-12	642.674E-3	-23.9725E-3
-1.83842E-3	-141.995E-12	627.926E-3	-52.0958E-3	-143.723E-12	629.520E-3	-25.0251E-3
-1.84342E-3	-142.397E-12	633.547E-3	-9.41057E-3	-143.359E-12	636.666E-3	-17.0794E-3
-1.84842E-3	-143.383E-12	638.955E-3	313.015E-6	-143.946E-12	643.346E-3	-18.7538E-3
-1.85343E-3	-143.333E-12	635.731E-3	-26.6956E-3	-145.287E-12	626.972E-3	-18.0406E-3
-1.85843E-3	-143.653E-12	628.430E-3	-33.8886E-3	-145.456E-12	616.716E-3	-11.7059E-3
-1.86343E-3	-143.664E-12	639.523E-3	-10.5019E-3	-144.360E-12	630.526E-3	-13.3112E-3
-1.86843E-3	-144.076E-12	652.803E-3	6.09722E-3	-144.113E-12	638.820E-3	-451.661E-6
-1.87344E-3	-143.876E-12	642.981E-3	14.2974E-3	-144.558E-12	629.315E-3	4.50198E-3
-1.87844E-3	-143.580E-12	622.572E-3	13.8705E-3	-144.459E-12	616.358E-3	-26.1652E-3
-1.88344E-3	-142.927E-12	602.024E-3	-6.59716E-3	-143.406E-12	618.208E-3	-36.7587E-3
-1.88844E-3	-143.890E-12	589.157E-3	-14.0571E-3	-142.960E-12	636.131E-3	-10.4099E-3
-1.89345E-3	-144.627E-12	595.321E-3	-22.1113E-3	-143.979E-12	624.024E-3	2.77086E-3
-1.89845E-3	-144.507E-12	625.630E-3	-35.4735E-3	-143.955E-12	605.232E-3	-1.19035E-3
-1.90345E-3	-144.063E-12	654.289E-3	-22.7644E-3	-144.616E-12	622.872E-3	-4.20963E-3
-1.90845E-3	-144.627E-12	636.895E-3	-20.4636E-3	-143.846E-12	644.592E-3	-2.77368E-3
-1.91346E-3	-145.996E-12	598.454E-3	-41.6961E-3	-143.922E-12	643.968E-3	-5.13563E-3
-1.91846E-3	-147.576E-12	585.421E-3	-37.2273E-3	-144.910E-12	625.768E-3	-26.9724E-3
-1.92346E-3	-146.677E-12	607.685E-3	-10.3378E-3	-145.397E-12	611.650E-3	-54.1381E-3
-1.92846E-3	-146.265E-12	657.962E-3	1.40120E-3	-145.298E-12	616.112E-3	-48.6554E-3
-1.93347E-3	-147.051E-12	683.313E-3	-8.38483E-3	-143.951E-12	634.145E-3	-30.4914E-3
-1.93847E-3	-148.283E-12	660.838E-3	-19.3638E-3	-144.312E-12	641.862E-3	-33.7788E-3
-1.94347E-3	-148.015E-12	632.499E-3	-16.9114E-3	-145.256E-12	633.490E-3	-17.9021E-3
-1.94847E-3	-147.468E-12	638.895E-3	-15.0459E-3	-147.165E-12	615.809E-3	13.4950E-3
-1.95348E-3	-146.345E-12	654.950E-3	-27.7609E-3	-146.528E-12	593.929E-3	989.101E-6
-1.95848E-3	-146.638E-12	647.495E-3	-29.1845E-3	-146.617E-12	597.047E-3	-21.2799E-3
-1.96348E-3	-147.287E-12	640.584E-3	-12.6711E-3	-147.792E-12	622.221E-3	-7.29372E-3
-1.96848E-3	-147.138E-12	647.798E-3	7.62576E-3	-149.792E-12	632.327E-3	-9.45285E-3
-1.97349E-3	-146.421E-12	654.750E-3	13.7870E-3	-149.407E-12	624.796E-3	-31.3997E-3
-1.97849E-3	-146.215E-12	665.122E-3	-11.5339E-3	-148.781E-12	630.749E-3	-38.1457E-3
-1.98349E-3	-147.837E-12	653.126E-3	-26.1389E-3	-149.948E-12	650.336E-3	-42.7956E-3
-1.98849E-3	-148.507E-12	622.792E-3	-24.2736E-3	-151.169E-12	670.428E-3	-37.9785E-3
-1.99350E-3	-147.446E-12	617.581E-3	-20.9104E-3	-151.960E-12	683.343E-3	-16.3603E-3
-1.99850E-3	-147.323E-12	616.961E-3	-14.0615E-3	-150.959E-12	647.953E-3	3.97702E-3
-2.00350E-3	-148.403E-12	631.247E-3	-16.4068E-3	-151.279E-12	602.549E-3	8.81096E-3
-2.00850E-3	-149.950E-12	661.271E-3	-11.9868E-3	-150.382E-12	601.164E-3	-10.6210E-3
-2.01351E-3	-149.432E-12	664.001E-3	-21.1497E-3	-149.750E-12	607.690E-3	-41.1564E-3
-2.01851E-3	-148.724E-12	652.258E-3	-51.5998E-3	-149.974E-12	622.251E-3	-51.7854E-3
-2.02351E-3	-148.163E-12	632.975E-3	-52.4110E-3	-149.092E-12	633.210E-3	-35.2435E-3
-2.02851E-3	-149.991E-12	631.181E-3	-37.2122E-3	-148.629E-12	627.003E-3	-22.5252E-3
-2.03352E-3	-150.251E-12	669.653E-3	-40.3421E-3	-149.194E-12	639.033E-3	-22.4471E-3
-2.03852E-3	-150.533E-12	671.123E-3	-45.8021E-3	-150.345E-12	655.968E-3	-25.2550E-3
-2.04352E-3	-149.469E-12	646.123E-3	-21.0048E-3	-149.202E-12	659.474E-3	-28.0335E-3
-2.04852E-3	-149.020E-12	647.464E-3	17.3418E-3	-149.288E-12	653.387E-3	-9.56716E-3
-2.05353E-3	-149.472E-12	642.831E-3	23.1918E-3	-150.949E-12	629.445E-3	8.88205E-3
-2.05853E-3	-150.654E-12	651.101E-3	16.3318E-3	-153.454E-12	626.293E-3	-5.19661E-3
-2.06353E-3	-149.987E-12	676.659E-3	13.4420E-3	-153.501E-12	659.435E-3	-21.8532E-3
-2.06853E-3	-148.526E-12	663.680E-3	3.54015E-3	-152.813E-12	685.548E-3	-13.7203E-3
-2.07354E-3	-149.493E-12	616.474E-3	16.6988E-3	-154.921E-12	684.981E-3	-21.4720E-3
-2.07854E-3	-151.712E-12	596.480E-3	34.9624E-3	-156.151E-12	667.324E-3	-35.8742E-3
-2.08354E-3	-152.572E-12	634.153E-3	19.8790E-3	-155.587E-12	672.042E-3	-23.1246E-3
-2.08854E-3	-150.752E-12	680.388E-3	11.4465E-3	-153.966E-12	693.154E-3	-19.9286E-3
-2.09355E-3	-151.664E-12	687.138E-3	20.5522E-3	-154.564E-12	694.031E-3	-19.1212E-3
-2.09855E-3	-153.163E-12	659.959E-3	24.4171E-3	-156.636E-12	691.215E-3	-8.12470E-3
-2.10355E-3	-153.893E-12	625.334E-3	16.5215E-3	-154.915E-12	675.043E-3	-31.6882E-3
-2.10855E-3	-153.856E-12	623.669E-3	1.45082E-3	-153.927E-12	640.700E-3	-54.5611E-3
-2.11356E-3	-153.524E-12	639.685E-3	-9.52126E-3	-151.890E-12	628.466E-3	-52.7793E-3
-2.11856E-3	-153.729E-12	637.403E-3	-16.8125E-3	-152.819E-12	651.455E-3	-59.5654E-3
-2.12356E-3	-154.374E-12	634.404E-3	-17.0723E-3	-151.449E-12	677.148E-3	-61.0720E-3
-2.12856E-3	-154.766E-12	626.358E-3	-628.087E-6	-152.014E-12	672.943E-3	-28.8004E-3
-2.13357E-3	-154.615E-12	635.000E-3	5.35074E-3	-151.376E-12	654.379E-3	8.31094E-3
-2.13857E-3	-152.497E-12	662.677E-3	-33.2718E-3	-153.467E-12	638.927E-3	11.9338E-3
-2.14357E-3	-152.991E-12	657.882E-3	-54.6799E-3	-153.728E-12	645.928E-3	13.9269E-3
-2.14857E-3	-155.235E-12	627.612E-3	-34.7890E-3	-153.924E-12	673.702E-3	25.3491E-3
-2.15358E-3	-156.044E-12	608.099E-3	-7.72255E-3	-155.832E-12	687.779E-3	12.6371E-3
-2.15858E-3	-154.979E-12	627.105E-3	21.0262E-3	-157.198E-12	683.345E-3	-18.4150E-3
-2.16358E-3	-154.345E-12	647.380E-3	15.8468E-3	-159.855E-12	683.377E-3	-40.9001E-3
-2.16858E-3	-157.044E-12	652.440E-3	-32.7523E-3	-159.220E-12	687.967E-3	-37.5397E-3
-2.17359E-3	-158.984E-12	660.508E-3	-44.1694E-3	-159.623E-12	688.252E-3	-3.62452E-3
-2.17859E-3	-158.240E-12	659.964E-3	-7.63857E-3	-159.908E-12	683.186E-3	32.8455E-3
-2.18359E-3	-156.514E-12	672.706E-3	-1.81271E-3	-159.729E-12	664.282E-3	29.9591E-3
-2.18859E-3	-157.642E-12	714.057E-3	-8.81842E-3	-159.003E-12	651.618E-3	5.03563E-3
-2.19360E-3	-159.565E-12	716.371E-3	-5.28505E-3	-159.192E-12	664.065E-3	-3.59278E-3
-2.19860E-3	-160.107E-12	649.011E-3	-19.4924E-3	-159.011E-12	660.456E-3	-29.7355E-3
-2.20360E-3	-159.287E-12	613.738E-3	-43.7424E-3	-158.978E-12	640.294E-3	-48.1528E-3
-2.20860E-3	-158.562E-12	635.354E-3	-49.0891E-3	-157.678E-12	644.672E-3	-19.8473E-3
-2.21361E-3	-159.299E-12	660.968E-3	-29.0654E-3	-156.152E-12	657.141E-3	9.47716E-3
-2.21861E-3	-159.002E-12	660.825E-3	-35.0711E-3	-156.074E-12	662.774E-3	17.7168E-3
-2.22361E-3	-158.479E-12	636.171E-3	-62.1286E-3	-157.141E-12	691.880E-3	9.40055E-3
-2.22861E-3	-157.413E-12	622.503E-3	-39.3050E-3	-156.284E-12	722.825E-3	-1.80834E-3
-2.23362E-3	-157.391E-12	619.280E-3	4.18740E-3	-157.726E-12	704.300E-3	1.08267E-3
-2.23862E-3	-158.497E-12	620.895E-3	26.1327E-3	-158.559E-12	675.239E-3	-827.287E-6
-2.24362E-3	-159.056E-12	635.648E-3	29.0459E-3	-160.594E-12	672.996E-3	-17.1273E-3
-2.24862E-3	-158.537E-12	653.061E-3	-2.70996E-3	-160.146E-12	658.826E-3	-11.6830E-3
-2.25363E-3	-158.743E-12	653.332E-3	-43.8999E-3	-160.162E-12	637.183E-3	12.9498E-3
-2.25863E-3	-160.539E-12	642.047E-3	-52.0989E-3	-161.066E-12	637.184E-3	-1.62634E-3
-2.26363E-3	-161.533E-12	650.146E-3	-31.8516E-3	-162.530E-12	653.854E-3	-28.2153E-3
-2.26863E-3	-162.984E-12	656.280E-3	-21.8924E-3	-162.936E-12	665.297E-3	-25.2360E-3
-2.27364E-3	-162.090E-12	641.981E-3	-54.4371E-3	-163.041E-12	667.013E-3	-13.8474E-3
-2.27864E-3	-162.646E-12	648.301E-3	-83.7345E-3	-163.636E-12	687.747E-3	-12.9393E-3
-2.28364E-3	-162.313E-12	656.975E-3	-48.7480E-3	-163.132E-12	707.173E-3	-30.3959E-3
-2.28864E-3	-162.163E-12	655.844E-3	-9.61777E-3	-164.047E-12	683.064E-3	-41.8151E-3
-2.29365E-3	-162.272E-12	680.485E-3	-27.1762E-3	-162.958E-12	643.179E-3	-17.9484E-3
-2.29865E-3	-161.323E-12	700.676E-3	-32.7785E-3	-161.719E-12	645.695E-3	3.06153E-3
-2.30365E-3	-161.110E-12	690.776E-3	-17.8566E-3	-162.173E-12	680.331E-3	-14.5824E-3
-2.30865E-3	-161.516E-12	683.598E-3	-20.5677E-3	-162.511E-12	678.258E-3	-5.37666E-3
-2.31366E-3	-162.628E-12	686.211E-3	-24.2768E-3	-162.193E-12	649.541E-3	19.4371E-3
-2.31866E-3	-162.435E-12	679.740E-3	-24.8803E-3	-160.774E-12	652.746E-3	6.98532E-3
-2.32366E-3	-161.674E-12	674.215E-3	-15.9770E-3	-160.849E-12	672.053E-3	-7.09673E-3
-2.32866E-3	-161.704E-12	648.469E-3	-5.05067E-3	-162.045E-12	675.016E-3	-9.67982E-3
-2.33367E-3	-162.899E-12	602.305E-3	-1.70097E-3	-162.098E-12	666.592E-3	-14.5702E-3
-2.33867E-3	-163.972E-12	615.618E-3	-4.45986E-3	-162.011E-12	655.267E-3	-6.56975E-3
-2.34367E-3	-162.475E-12	663.540E-3	-17.9891E-3	-162.655E-12	657.339E-3	-3.16005E-3
-2.34867E-3	-164.241E-12	669.598E-3	-26.4777E-3	-164.382E-12	669.128E-3	-20.4991E-3
-2.35368E-3	-166.894E-12	660.449E-3	-16.8198E-3	-164.818E-12	685.238E-3	-5.93092E-3
-2.35868E-3	-167.736E-12	640.155E-3	-5.63006E-3	-165.201E-12	711.874E-3	17.8127E-3
-2.36368E-3	-166.540E-12	620.375E-3	-4.26222E-3	-165.281E-12	710.626E-3	-1.72739E-3
-2.36868E-3	-165.387E-12	649.066E-3	-29.7271E-3	-166.476E-12	693.921E-3	-29.3055E-3
-2.37369E-3	-166.964E-12	690.264E-3	-76.8889E-3	-167.299E-12	706.480E-3	-31.1182E-3
-2.37869E-3	-167.581E-12	688.003E-3	-88.5031E-3	-167.835E-12	715.497E-3	-12.5814E-3
-2.38369E-3	-166.671E-12	662.885E-3	-47.5241E-3	-167.861E-12	705.035E-3	-3.71878E-3
-2.38869E-3	-165.549E-12	652.266E-3	-32.5376E-3	-167.328E-12	684.979E-3	7.93115E-3
-2.39370E-3	-165.347E-12	665.181E-3	-64.7063E-3	-168.266E-12	667.026E-3	28.6024E-3
-2.39870E-3	-166.720E-12	708.528E-3	-73.5677E-3	-169.266E-12	661.768E-3	17.0853E-3
-2.40370E-3	-166.590E-12	714.980E-3	-48.8215E-3	-170.108E-12	651.192E-3	-5.24000E-3
-2.40870E-3	-166.744E-12	660.796E-3	-28.1329E-3	-169.136E-12	658.451E-3	-1.80415E-3
-2.41371E-3	-166.325E-12	646.351E-3	-27.9553E-3	-168.465E-12	683.733E-3	16.1541E-3
-2.41871E-3	-168.234E-12	669.649E-3	-28.5499E-3	-169.566E-12	697.748E-3	12.1207E-3
-2.42371E-3	-169.862E-12	674.075E-3	-14.1695E-3	-169.188E-12	703.257E-3	-16.0791E-3
-2.42871E-3	-169.897E-12	682.604E-3	-10.8774E-3	-168.474E-12	688.969E-3	-29.1074E-3
-2.43372E-3	-169.581E-12	687.210E-3	-13.4972E-3	-167.881E-12	664.365E-3	-23.6762E-3
-2.43872E-3	-170.918E-12	676.150E-3	424.525E-6	-168.450E-12	667.775E-3	-13.0533E-3
-2.44372E-3	-172.715E-12	682.949E-3	78.7971E-6	-167.832E-12	680.772E-3	1.33486E-3
-2.44872E-3	-172.045E-12	698.897E-3	-8.68168E-3	-167.651E-12	679.446E-3	-2.38214E-3
-2.45373E-3	-169.141E-12	696.458E-3	-6.94378E-3	-167.525E-12	687.029E-3	-11.8088E-3
-2.45873E-3	-169.859E-12	668.243E-3	-33.7658E-3	-168.180E-12	677.422E-3	1.81573E-3
-2.46373E-3	-170.956E-12	646.668E-3	-58.1018E-3	-168.678E-12	654.856E-3	22.9210E-3
-2.46873E-3	-170.346E-12	651.679E-3	-34.5683E-3	-168.422E-12	659.047E-3	19.4775E-3
-2.47374E-3	-169.346E-12	655.805E-3	-282.070E-6	-170.023E-12	656.861E-3	-14.2177E-3
-2.47874E-3	-168.567E-12	666.979E-3	7.15591E-3	-170.541E-12	674.114E-3	-27.3993E-3
-2.48374E-3	-169.486E-12	678.172E-3	-20.3601E-3	-171.989E-12	720.850E-3	-10.7911E-3
-2.48874E-3	-170.435E-12	669.227E-3	-50.6718E-3	-172.559E-12	732.112E-3	-25.5999E-3
-2.49375E-3	-169.505E-12	655.854E-3	-37.2497E-3	-173.736E-12	713.560E-3	-68.2461E-3
-2.49875E-3	-168.659E-12	648.709E-3	-3.44592E-3	-173.053E-12	704.612E-3	-73.7220E-3
-2.50375E-3	-168.828E-12	661.860E-3	17.4584E-3	-172.768E-12	703.832E-3	-50.9181E-3
-2.50875E-3	-170.157E-12	681.958E-3	17.6636E-3	-173.458E-12	695.732E-3	-32.8533E-3
-2.51376E-3	-171.276E-12	673.728E-3	-3.89293E-3	-172.329E-12	672.477E-3	-7.57815E-3
-2.51876E-3	-171.267E-12	647.539E-3	-6.99544E-3	-172.532E-12	640.005E-3	17.9509E-3
-2.52376E-3	-172.027E-12	639.162E-3	10.5482E-3	-170.881E-12	618.503E-3	16.9003E-3
-2.52876E-3	-173.655E-12	663.242E-3	1.22948E-3	-171.536E-12	616.805E-3	-21.6351E-3
-2.53377E-3	-173.843E-12	689.356E-3	-30.7741E-3	-169.878E-12	628.259E-3	-48.9376E-3
-2.53877E-3	-173.330E-12	690.003E-3	-55.7167E-3	-169.143E-12	626.539E-3	-35.5130E-3
-2.54377E-3	-173.046E-12	674.653E-3	-33.9068E-3	-168.099E-12	617.997E-3	-21.6267E-3
-2.54877E-3	-173.308E-12	655.796E-3	15.9088E-3	-168.046E-12	634.199E-3	-30.5254E-3
-2.55378E-3	-172.380E-12	655.159E-3	9.39636E-3	-169.467E-12	646.440E-3	-44.1428E-3
-2.55878E-3	-171.522E-12	668.801E-3	-17.1050E-3	-168.437E-12	641.740E-3	-33.0156E-3
-2.56378E-3	-172.457E-12	641.111E-3	-10.1314E-3	-169.474E-12	647.771E-3	-10.3418E-3
-2.56878E-3	-173.331E-12	617.111E-3	-5.69266E-3	-170.307E-12	656.384E-3	-764.230E-6
-2.57379E-3	-172.787E-12	650.184E-3	334.098E-6	-173.484E-12	669.768E-3	589.137E-6
-2.57879E-3	-171.584E-12	672.875E-3	10.9564E-3	-173.261E-12	682.137E-3	-19.2570E-3
-2.58379E-3	-173.607E-12	667.657E-3	6.66885E-3	-173.873E-12	686.357E-3	-32.3692E-3
-2.58879E-3	-174.148E-12	647.873E-3	-2.55389E-3	-175.325E-12	691.327E-3	1.88572E-3
-2.59380E-3	-174.792E-12	630.292E-3	-12.7705E-3	-176.844E-12	685.670E-3	25.7536E-3
-2.59880E-3	-175.080E-12	652.121E-3	-13.9316E-3	-176.878E-12	678.078E-3	17.4811E-3
-2.60380E-3	-176.361E-12	677.876E-3	1.08636E-3	-176.699E-12	690.995E-3	8.37169E-3
-2.60880E-3	-177.358E-12	674.019E-3	3.30189E-3	-177.728E-12	680.983E-3	-28.5345E-3
-2.61381E-3	-177.602E-12	671.985E-3	-13.4736E-3	-175.482E-12	639.963E-3	-51.9170E-3
-2.61881E-3	-177.900E-12	663.356E-3	-23.7098E-3	-176.430E-12	637.875E-3	-23.9361E-3
-2.62381E-3	-178.574E-12	640.764E-3	-2.63501E-3	-176.140E-12	669.942E-3	585.127E-6
-2.62881E-3	-178.368E-12	662.940E-3	12.8597E-3	-175.502E-12	676.342E-3	138.628E-6
-2.63382E-3	-178.442E-12	684.305E-3	-18.1358E-3	-173.028E-12	660.401E-3	-8.78850E-3
-2.63882E-3	-178.312E-12	661.120E-3	-37.5939E-3	-172.940E-12	664.025E-3	-20.2337E-3
-2.64382E-3	-178.646E-12	647.763E-3	-38.0758E-3	-174.878E-12	655.486E-3	-35.4902E-3
-2.64882E-3	-176.794E-12	654.605E-3	-51.9488E-3	-174.587E-12	642.720E-3	-52.2128E-3
-2.65383E-3	-176.775E-12	655.680E-3	-48.2249E-3	-174.546E-12	666.294E-3	-64.9768E-3
-2.65883E-3	-177.935E-12	644.797E-3	-36.1016E-3	-174.399E-12	685.913E-3	-75.0956E-3
-2.66383E-3	-178.521E-12	642.803E-3	-40.2919E-3	-176.690E-12	697.849E-3	-72.2652E-3
-2.66883E-3	-177.564E-12	642.562E-3	-53.6666E-3	-176.881E-12	690.250E-3	-27.3356E-3
-2.67384E-3	-178.003E-12	658.201E-3	-65.8755E-3	-178.082E-12	659.206E-3	15.5517E-3
-2.67884E-3	-179.702E-12	699.542E-3	-53.6630E-3	-177.396E-12	645.425E-3	14.0664E-3
-2.68384E-3	-180.211E-12	728.154E-3	-30.1969E-3	-179.846E-12	652.504E-3	-7.24724E-3
-2.68884E-3	-181.599E-12	731.960E-3	-14.3209E-3	-181.208E-12	671.365E-3	-19.5759E-3
-2.69385E-3	-181.805E-12	705.583E-3	5.93314E-3	-180.948E-12	671.361E-3	-11.5867E-3
-2.69885E-3	-182.057E-12	650.414E-3	13.1318E-3	-181.719E-12	657.695E-3	-828.569E-6
-2.70385E-3	-182.095E-12	636.417E-3	-3.36215E-3	-181.246E-12	668.177E-3	3.81158E-3
-2.70885E-3	-182.657E-12	675.038E-3	-9.70919E-3	-181.902E-12	692.736E-3	-4.56084E-3
-2.71386E-3	-183.681E-12	707.503E-3	2.38375E-3	-182.874E-12	712.385E-3	-16.9436E-3
-2.71886E-3	-182.640E-12	721.901E-3	11.4860E-3	-182.059E-12	724.091E-3	-13.1469E-3
-2.72386E-3	-181.735E-12	719.895E-3	24.9455E-3	-181.658E-12	714.978E-3	-17.0631E-3
-2.72886E-3	-181.673E-12	689.548E-3	43.2061E-3	-182.041E-12	682.332E-3	-36.2086E-3
-2.73387E-3	-182.364E-12	660.653E-3	39.5869E-3	-182.370E-12	649.890E-3	-42.3966E-3
-2.73887E-3	-181.768E-12	662.279E-3	6.89571E-3	-182.145E-12	656.125E-3	-21.8761E-3
-2.74387E-3	-181.555E-12	654.416E-3	-32.5932E-3	-181.713E-12	690.072E-3	-9.92086E-3
-2.74887E-3	-181.404E-12	644.220E-3	-42.5973E-3	-181.271E-12	694.851E-3	-18.3030E-3
-2.75388E-3	-182.635E-12	660.977E-3	-16.8587E-3	-183.322E-12	688.590E-3	-27.0807E-3
-2.75888E-3	-182.480E-12	666.487E-3	8.19100E-3	-182.596E-12	705.510E-3	-29.0806E-3
-2.76388E-3	-181.992E-12	685.527E-3	455.714E-6	-183.145E-12	710.253E-3	-32.9060E-3
-2.76888E-3	-183.572E-12	710.275E-3	-11.7202E-3	-184.125E-12	692.936E-3	-31.5538E-3
-2.77389E-3	-186.627E-12	691.897E-3	-24.8720E-3	-184.375E-12	687.392E-3	-4.77471E-3
-2.77889E-3	-187.201E-12	703.204E-3	-66.6725E-3	-184.781E-12	697.759E-3	-8.14402E-3
-2.78389E-3	-187.272E-12	765.396E-3	-71.9496E-3	-185.965E-12	724.510E-3	-26.7218E-3
-2.78889E-3	-187.486E-12	770.983E-3	-37.1446E-3	-187.607E-12	739.980E-3	-15.9068E-3
-2.79390E-3	-187.781E-12	724.351E-3	-49.1599E-3	-186.800E-12	721.814E-3	-32.2946E-3
-2.79890E-3	-188.579E-12	711.433E-3	-53.1778E-3	-186.511E-12	683.690E-3	-46.5097E-3
-2.80390E-3	-187.590E-12	710.448E-3	-33.3366E-3	-187.358E-12	640.512E-3	-34.7911E-3
-2.80890E-3	-185.766E-12	680.911E-3	-47.6857E-3	-189.138E-12	631.123E-3	-38.8237E-3
-2.81391E-3	-185.187E-12	665.667E-3	-54.6155E-3	-188.288E-12	656.574E-3	-31.0359E-3
-2.81891E-3	-186.492E-12	670.848E-3	-55.6230E-3	-187.256E-12	689.513E-3	-5.63914E-3
-2.82391E-3	-187.031E-12	665.345E-3	-55.7460E-3	-187.357E-12	710.514E-3	5.66906E-3
-2.82891E-3	-185.816E-12	665.458E-3	-25.9094E-3	-187.961E-12	699.872E-3	4.53596E-3
-2.83392E-3	-185.105E-12	646.952E-3	-14.1936E-3	-187.862E-12	684.233E-3	19.9665E-3
-2.83892E-3	-185.581E-12	621.124E-3	-24.7263E-3	-186.654E-12	684.202E-3	50.5557E-3
-2.84392E-3	-186.766E-12	639.365E-3	-12.0109E-3	-186.968E-12	672.111E-3	44.0851E-3
-2.84892E-3	-187.689E-12	674.029E-3	-4.73983E-3	-187.464E-12	673.725E-3	11.0223E-3
-2.85393E-3	-187.716E-12	686.215E-3	-9.77013E-3	-188.576E-12	695.785E-3	3.88506E-3
-2.85893E-3	-188.476E-12	687.483E-3	-12.9872E-3	-187.882E-12	702.238E-3	-5.28560E-3
-2.86393E-3	-189.621E-12	695.881E-3	-15.0506E-3	-186.133E-12	708.653E-3	-41.0992E-3
-2.86893E-3	-190.649E-12	693.192E-3	-3.27201E-3	-186.340E-12	717.308E-3	-43.4474E-3
-2.87394E-3	-191.645E-12	669.366E-3	5.15717E-3	-187.455E-12	700.632E-3	-14.4754E-3
-2.87894E-3	-191.883E-12	667.251E-3	4.85246E-3	-189.364E-12	701.275E-3	-21.6353E-3
-2.88394E-3	-191.633E-12	690.711E-3	8.80820E-3	-187.864E-12	715.948E-3	-38.3011E-3
-2.88894E-3	-192.236E-12	683.936E-3	18.6902E-3	-187.681E-12	700.931E-3	-10.3606E-3
-2.89395E-3	-192.358E-12	657.945E-3	23.1654E-3	-188.956E-12	698.495E-3	-2.84456E-3
-2.89895E-3	-190.838E-12	677.767E-3	-9.09462E-3	-189.894E-12	707.513E-3	-53.5005E-3
-2.90395E-3	-188.276E-12	734.439E-3	-57.5936E-3	-190.792E-12	709.825E-3	-58.7932E-3
-2.90895E-3	-188.083E-12	753.893E-3	-57.9684E-3	-191.317E-12	707.696E-3	-7.60772E-3
-2.91396E-3	-189.600E-12	727.622E-3	-15.0989E-3	-191.973E-12	689.554E-3	-2.01177E-3
-2.91896E-3	-189.240E-12	698.691E-3	5.67046E-3	-192.622E-12	690.148E-3	-31.3812E-3
-2.92396E-3	-188.120E-12	676.654E-3	-16.1381E-3	-192.313E-12	700.226E-3	-30.2273E-3
-2.92896E-3	-186.683E-12	652.519E-3	-43.0843E-3	-192.567E-12	675.043E-3	-11.8549E-3
-2.93397E-3	-188.420E-12	640.046E-3	-33.9773E-3	-193.419E-12	650.447E-3	-9.24491E-3
-2.93897E-3	-190.389E-12	645.476E-3	-14.7572E-3	-192.514E-12	670.222E-3	-6.71797E-3
-2.94397E-3	-190.476E-12	651.750E-3	-51.7577E-3	-191.281E-12	700.972E-3	11.9616E-3
-2.94897E-3	-189.849E-12	654.178E-3	-95.2188E-3	-190.522E-12	711.808E-3	17.1970E-3
-2.95398E-3	-191.524E-12	663.002E-3	-75.2455E-3	-191.255E-12	731.543E-3	4.10164E-3
-2.95898E-3	-193.521E-12	667.647E-3	-42.7997E-3	-190.137E-12	734.768E-3	-15.3476E-3
-2.96398E-3	-193.441E-12	680.256E-3	-40.3331E-3	-188.571E-12	695.160E-3	-40.8817E-3
-2.96898E-3	-193.634E-12	695.563E-3	-41.3836E-3	-188.455E-12	678.301E-3	-44.8878E-3
-2.97399E-3	-192.538E-12	674.606E-3	-26.3617E-3	-189.656E-12	696.179E-3	-22.0857E-3
-2.97899E-3	-193.253E-12	662.383E-3	-5.37508E-3	-190.565E-12	696.742E-3	-3.04860E-3
-2.98399E-3	-192.848E-12	663.336E-3	8.08149E-3	-189.796E-12	700.198E-3	-7.80879E-3
-2.98899E-3	-192.457E-12	655.142E-3	8.22006E-3	-190.539E-12	695.586E-3	-29.8002E-3
-2.99400E-3	-192.712E-12	665.934E-3	-12.0136E-3	-191.737E-12	672.270E-3	-21.5808E-3
-2.99900E-3	-191.440E-12	678.352E-3	-40.4321E-3	-194.088E-12	691.164E-3	-929.146E-6
-3.00400E-3	-191.463E-12	663.892E-3	-40.8613E-3	-194.006E-12	709.976E-3	-5.31883E-3
-3.00900E-3	-190.356E-12	654.025E-3	-33.1187E-3	-193.376E-12	705.689E-3	11.9700E-3
-3.01401E-3	-192.419E-12	681.088E-3	-18.5166E-3	-195.700E-12	704.650E-3	23.0599E-3
-3.01901E-3	-191.851E-12	684.763E-3	24.2176E-3	-197.435E-12	671.021E-3	2.12717E-3
-3.02401E-3	-194.433E-12	685.321E-3	32.8913E-3	-199.191E-12	641.888E-3	-3.02794E-3
-3.02901E-3	-195.395E-12	710.402E-3	-8.51122E-3	-196.349E-12	670.632E-3	-15.7843E-3
-3.03402E-3	-194.727E-12	699.590E-3	-14.5397E-3	-196.205E-12	701.096E-3	-37.5855E-3
-3.03902E-3	-194.405E-12	667.460E-3	18.7083E-3	-197.008E-12	678.749E-3	-25.5190E-3
-3.04402E-3	-195.658E-12	648.095E-3	14.1745E-3	-198.219E-12	684.232E-3	4.15783E-3
-3.04902E-3	-197.499E-12	638.218E-3	-14.9507E-3	-196.434E-12	718.836E-3	7.83567E-3
-3.05403E-3	-195.662E-12	646.794E-3	-26.5769E-3	-195.545E-12	688.317E-3	-771.858E-6
-3.05903E-3	-194.840E-12	664.074E-3	-16.6232E-3	-196.566E-12	656.870E-3	-13.4859E-3
-3.06403E-3	-194.958E-12	674.590E-3	-2.52928E-3	-196.648E-12	668.386E-3	-42.5832E-3
-3.06903E-3	-193.062E-12	693.333E-3	4.89256E-3	-197.274E-12	653.794E-3	-30.0122E-3
-3.07404E-3	-192.310E-12	684.347E-3	9.61854E-3	-195.937E-12	637.881E-3	20.9295E-3
-3.07904E-3	-192.854E-12	650.907E-3	-5.39079E-3	-197.594E-12	685.550E-3	18.2042E-3
-3.08404E-3	-193.919E-12	663.602E-3	-27.0655E-3	-198.512E-12	725.464E-3	-33.3313E-3
-3.08904E-3	-191.668E-12	698.907E-3	-29.7160E-3	-198.701E-12	703.008E-3	-50.9284E-3
-3.09405E-3	-192.281E-12	703.082E-3	-17.9209E-3	-198.675E-12	675.670E-3	-35.9347E-3
-3.09905E-3	-194.628E-12	687.788E-3	-5.16020E-3	-200.087E-12	661.236E-3	-7.26067E-3
-3.10405E-3	-197.248E-12	670.149E-3	-6.09488E-3	-201.534E-12	659.869E-3	25.5295E-3
-3.10905E-3	-197.724E-12	653.770E-3	-6.41143E-3	-200.339E-12	688.478E-3	17.9738E-3
-3.11406E-3	-197.775E-12	655.714E-3	-5.72151E-3	-201.398E-12	702.563E-3	-9.12655E-3
-3.11906E-3	-199.129E-12	674.122E-3	8.46877E-3	-201.322E-12	690.687E-3	-35.2869E-3
-3.12406E-3	-200.283E-12	680.542E-3	63.8436E-3	-201.223E-12	699.015E-3	-71.5635E-3
-3.12906E-3	-202.309E-12	655.198E-3	84.1056E-3	-199.815E-12	697.506E-3	-82.7232E-3
-3.13407E-3	-201.687E-12	646.498E-3	27.8208E-3	-200.156E-12	662.059E-3	-69.4154E-3
-3.13907E-3	-202.297E-12	648.792E-3	-22.0645E-3	-200.613E-12	657.124E-3	-61.9769E-3
-3.14407E-3	-201.947E-12	630.868E-3	-25.8687E-3	-200.711E-12	675.576E-3	-41.4350E-3
-3.14907E-3	-203.364E-12	664.548E-3	-18.8245E-3	-200.223E-12	686.986E-3	-6.06987E-3
-3.15408E-3	-203.048E-12	706.520E-3	-30.8949E-3	-200.159E-12	691.952E-3	53.1626E-6
-3.15908E-3	-199.243E-12	700.128E-3	-54.9139E-3	-200.812E-12	681.944E-3	-21.6928E-3
-3.16408E-3	-198.791E-12	680.555E-3	-40.2611E-3	-201.211E-12	673.138E-3	-32.0553E-3
-3.16908E-3	-200.092E-12	651.020E-3	-3.71936E-3	-201.245E-12	660.155E-3	-26.2992E-3
-3.17409E-3	-202.295E-12	663.827E-3	10.2872E-3	-200.090E-12	640.575E-3	-34.8978E-3
-3.17909E-3	-199.041E-12	734.415E-3	26.4521E-3	-200.994E-12	644.200E-3	-49.2839E-3
-3.18409E-3	-197.506E-12	772.637E-3	33.3527E-3	-202.076E-12	676.289E-3	-35.3215E-3
-3.18909E-3	-199.735E-12	741.884E-3	13.2139E-3	-202.448E-12	699.151E-3	-22.0009E-3
-3.19410E-3	-202.772E-12	689.187E-3	-4.21010E-3	-202.031E-12	698.131E-3	-35.7392E-3
-3.19910E-3	-202.870E-12	658.571E-3	-29.8519E-3	-200.628E-12	686.302E-3	-59.2096E-3
-3.20410E-3	-200.858E-12	650.243E-3	-46.3623E-3	-202.154E-12	664.859E-3	-65.4856E-3
-3.20910E-3	-203.485E-12	644.674E-3	-27.1671E-3	-204.098E-12	645.347E-3	-62.2568E-3
-3.21411E-3	-205.812E-12	635.172E-3	-1.45212E-3	-203.344E-12	644.544E-3	-67.4083E-3
-3.21911E-3	-206.831E-12	640.099E-3	10.3604E-3	-203.066E-12	664.159E-3	-47.6055E-3
-3.22411E-3	-203.643E-12	689.587E-3	-13.7200E-3	-202.910E-12	675.843E-3	-5.10936E-3
-3.22911E-3	-203.438E-12	734.845E-3	-36.9863E-3	-204.616E-12	656.319E-3	10.4531E-3
-3.23412E-3	-206.138E-12	719.913E-3	-35.4924E-3	-204.516E-12	618.895E-3	-4.40346E-3
-3.23912E-3	-206.455E-12	708.101E-3	-29.0733E-3	-204.624E-12	592.342E-3	-4.49837E-3
-3.24412E-3	-205.445E-12	712.743E-3	1.09292E-3	-203.386E-12	619.474E-3	-5.22178E-3
-3.24912E-3	-201.918E-12	690.980E-3	15.0939E-3	-205.192E-12	679.053E-3	-31.4777E-3
-3.25413E-3	-203.403E-12	693.678E-3	-17.5025E-3	-207.005E-12	718.446E-3	-36.1229E-3
-3.25913E-3	-204.157E-12	703.362E-3	-49.3979E-3	-207.785E-12	726.367E-3	-15.6132E-3
-3.26413E-3	-205.105E-12	675.593E-3	-63.5487E-3	-205.829E-12	717.271E-3	-5.95157E-3
-3.26913E-3	-203.928E-12	670.124E-3	-50.3793E-3	-205.522E-12	708.606E-3	3.20297E-3
-3.27414E-3	-203.259E-12	687.018E-3	-911.003E-6	-206.199E-12	682.555E-3	23.3939E-3
-3.27914E-3	-204.765E-12	683.665E-3	36.5462E-3	-207.102E-12	647.575E-3	3.35521E-3
-3.28414E-3	-205.556E-12	670.406E-3	37.7489E-3	-206.464E-12	630.399E-3	-39.6916E-3
-3.28914E-3	-206.614E-12	657.567E-3	718.131E-6	-205.556E-12	642.973E-3	-58.9175E-3
-3.29415E-3	-206.479E-12	652.676E-3	-38.6968E-3	-206.573E-12	660.982E-3	-56.7489E-3
-3.29915E-3	-209.642E-12	678.912E-3	-23.4990E-3	-207.341E-12	660.331E-3	-42.9929E-3
-3.30415E-3	-209.567E-12	702.168E-3	9.72616E-3	-207.624E-12	680.201E-3	-35.2193E-3
-3.30915E-3	-210.736E-12	696.596E-3	25.2613E-3	-207.071E-12	689.621E-3	-29.7327E-3
-3.31416E-3	-211.412E-12	696.169E-3	7.14294E-3	-207.941E-12	665.629E-3	-13.4851E-3
-3.31916E-3	-209.555E-12	691.669E-3	-46.8913E-3	-209.880E-12	673.625E-3	2.89331E-3
-3.32416E-3	-209.618E-12	676.729E-3	-79.0322E-3	-210.133E-12	685.087E-3	11.1585E-3
-3.32916E-3	-208.831E-12	679.364E-3	-70.4529E-3	-210.253E-12	664.882E-3	14.2607E-3
-3.33417E-3	-210.081E-12	681.903E-3	-32.6309E-3	-210.132E-12	670.016E-3	-903.843E-6
-3.33917E-3	-208.539E-12	678.048E-3	2.14405E-3	-209.779E-12	718.260E-3	-26.7885E-3
-3.34417E-3	-208.254E-12	684.329E-3	-16.4049E-3	-210.106E-12	734.481E-3	-48.3882E-3
-3.34917E-3	-208.371E-12	669.413E-3	-51.2831E-3	-210.074E-12	689.895E-3	-52.6100E-3
-3.35418E-3	-207.739E-12	630.325E-3	-61.7642E-3	-211.284E-12	631.519E-3	-58.1509E-3
-3.35918E-3	-208.964E-12	603.253E-3	-44.0908E-3	-211.034E-12	619.387E-3	-55.6691E-3
-3.36418E-3	-207.511E-12	603.638E-3	-9.48703E-3	-210.803E-12	654.147E-3	-17.2829E-3
-3.36918E-3	-209.720E-12	628.503E-3	-2.45196E-3	-211.093E-12	665.478E-3	-11.7273E-3
-3.37419E-3	-211.031E-12	650.273E-3	-7.46835E-3	-211.742E-12	647.810E-3	-25.9960E-3
-3.37919E-3	-212.230E-12	671.910E-3	20.1613E-3	-210.746E-12	645.877E-3	-5.92847E-3
-3.38419E-3	-212.316E-12	696.007E-3	47.6445E-3	-210.193E-12	675.036E-3	-1.63458E-3
-3.38919E-3	-213.232E-12	700.641E-3	16.1042E-3	-210.736E-12	704.261E-3	-31.6753E-3
-3.39420E-3	-215.044E-12	704.783E-3	-44.2780E-3	-212.581E-12	697.786E-3	-58.9665E-3
-3.39920E-3	-213.838E-12	695.477E-3	-64.8627E-3	-212.131E-12	673.598E-3	-41.4153E-3
-3.40420E-3	-212.577E-12	666.609E-3	-45.1608E-3	-210.322E-12	655.678E-3	-1.83310E-3
-3.40920E-3	-213.771E-12	654.237E-3	-34.3931E-3	-210.339E-12	644.843E-3	7.87614E-3
-3.41421E-3	-215.692E-12	654.952E-3	-50.3933E-3	-213.028E-12	654.868E-3	15.9045E-3
-3.41921E-3	-214.204E-12	672.567E-3	-63.6197E-3	-214.376E-12	681.305E-3	53.8647E-3
-3.42421E-3	-212.948E-12	710.115E-3	-55.4217E-3	-212.556E-12	705.590E-3	74.6165E-3
-3.42921E-3	-212.376E-12	722.123E-3	-41.6337E-3	-212.409E-12	719.380E-3	57.9963E-3
-3.43422E-3	-212.535E-12	686.532E-3	-958.671E-6	-213.491E-12	694.655E-3	36.7155E-3
-3.43922E-3	-213.325E-12	657.198E-3	42.4478E-3	-214.386E-12	652.712E-3	21.2550E-3
-3.44422E-3	-211.581E-12	685.908E-3	34.0344E-3	-215.349E-12	659.234E-3	-866.499E-6
-3.44922E-3	-210.902E-12	700.145E-3	-11.0011E-3	-215.822E-12	668.488E-3	-40.8300E-3
-3.45423E-3	-213.075E-12	646.222E-3	-50.2677E-3	-215.717E-12	650.341E-3	-32.0369E-3
-3.45923E-3	-215.354E-12	597.910E-3	-32.9973E-3	-214.846E-12	647.917E-3	16.0221E-3
-3.46423E-3	-214.884E-12	597.900E-3	-7.37040E-3	-215.644E-12	648.470E-3	5.68641E-3
-3.46923E-3	-213.589E-12	620.431E-3	-2.70296E-3	-214.932E-12	664.806E-3	-35.1544E-3
-3.47424E-3	-214.367E-12	639.500E-3	23.4194E-3	-214.786E-12	685.603E-3	-50.2675E-3
-3.47924E-3	-215.430E-12	656.078E-3	751.664E-6	-215.580E-12	665.682E-3	-34.1791E-3
-3.48424E-3	-215.064E-12	683.065E-3	-46.3912E-3	-215.598E-12	640.358E-3	-10.4617E-3
-3.48924E-3	-214.717E-12	691.879E-3	-16.2378E-3	-215.984E-12	638.963E-3	-19.4805E-3
-3.49425E-3	-216.239E-12	667.196E-3	-3.56599E-3	-214.919E-12	633.464E-3	-39.7244E-3
-3.49925E-3	-216.886E-12	662.933E-3	-32.5183E-3	-215.413E-12	633.787E-3	-32.7923E-3
-3.50425E-3	-215.962E-12	684.209E-3	-21.8150E-3	-216.914E-12	656.628E-3	-22.7990E-3
-3.50925E-3	-215.093E-12	694.934E-3	-15.4927E-3	-218.038E-12	691.408E-3	-27.1403E-3
-3.51426E-3	-215.406E-12	676.255E-3	-37.8920E-3	-217.936E-12	692.434E-3	-21.2387E-3
-3.51926E-3	-215.840E-12	631.635E-3	-43.5070E-3	-216.713E-12	648.886E-3	-35.7865E-3
-3.52426E-3	-214.924E-12	609.207E-3	-14.2116E-3	-217.260E-12	634.705E-3	-69.3504E-3
-3.52926E-3	-215.275E-12	627.692E-3	20.4973E-3	-217.956E-12	638.388E-3	-53.1620E-3
-3.53427E-3	-216.437E-12	665.393E-3	29.4974E-3	-219.338E-12	648.268E-3	-10.8512E-3
-3.53927E-3	-217.354E-12	678.372E-3	28.7968E-3	-218.366E-12	671.846E-3	-2.11287E-3
-3.54427E-3	-218.171E-12	658.154E-3	46.4760E-3	-218.665E-12	662.788E-3	-15.8730E-3
-3.54927E-3	-217.739E-12	630.560E-3	52.2512E-3	-220.079E-12	655.103E-3	-12.6351E-3
-3.55428E-3	-220.029E-12	601.094E-3	11.5776E-3	-220.744E-12	670.269E-3	-1.57118E-3
-3.55928E-3	-220.540E-12	602.772E-3	-36.7117E-3	-220.771E-12	654.669E-3	12.5675E-3
-3.56428E-3	-221.734E-12	635.719E-3	-45.7426E-3	-217.995E-12	643.127E-3	6.22745E-3
-3.56928E-3	-222.219E-12	664.083E-3	-26.3824E-3	-217.725E-12	664.530E-3	-42.0387E-3
-3.57429E-3	-222.459E-12	668.931E-3	381.644E-6	-217.883E-12	645.844E-3	-54.9816E-3
-3.57929E-3	-221.808E-12	668.967E-3	32.8307E-3	-219.893E-12	614.536E-3	-7.77993E-3
-3.58429E-3	-221.040E-12	684.268E-3	12.3386E-3	-219.535E-12	643.425E-3	9.36938E-3
-3.58929E-3	-222.809E-12	684.501E-3	-39.2880E-3	-219.442E-12	673.989E-3	-37.4957E-3
-3.59430E-3	-221.051E-12	661.073E-3	-39.7437E-3	-219.176E-12	664.504E-3	-72.8671E-3
-3.59930E-3	-221.614E-12	658.880E-3	-15.7055E-3	-221.168E-12	645.913E-3	-73.0210E-3
-3.60430E-3	-222.035E-12	665.026E-3	-13.5222E-3	-221.212E-12	647.020E-3	-50.7792E-3
-3.60930E-3	-222.712E-12	641.029E-3	-18.6107E-3	-220.803E-12	672.030E-3	166.905E-6
-3.61431E-3	-222.199E-12	624.451E-3	-8.33202E-3	-221.270E-12	684.368E-3	20.3632E-3
-3.61931E-3	-222.685E-12	659.648E-3	-13.7097E-3	-222.430E-12	660.374E-3	-21.3206E-3
-3.62431E-3	-223.166E-12	701.759E-3	-29.2012E-3	-222.164E-12	646.446E-3	-38.3893E-3
-3.62931E-3	-223.967E-12	708.516E-3	-28.4380E-3	-222.745E-12	686.105E-3	-9.51667E-3
-3.63432E-3	-226.589E-12	708.327E-3	-12.9756E-3	-223.562E-12	702.014E-3	-8.79405E-3
-3.63932E-3	-225.950E-12	704.190E-3	22.0711E-3	-224.855E-12	634.888E-3	-17.6551E-3
-3.64432E-3	-226.455E-12	694.120E-3	36.5120E-3	-225.151E-12	596.344E-3	-3.01342E-3
-3.64932E-3	-226.575E-12	704.462E-3	3.14021E-3	-225.056E-12	621.228E-3	15.0482E-3
-3.65433E-3	-225.807E-12	712.075E-3	-29.8923E-3	-224.440E-12	652.637E-3	22.1326E-3
-3.65933E-3	-225.594E-12	667.923E-3	-32.9759E-3	-223.977E-12	704.752E-3	25.4130E-3
-3.66433E-3	-224.150E-12	636.487E-3	-24.8681E-3	-224.820E-12	704.069E-3	21.9769E-3
-3.66933E-3	-224.420E-12	660.496E-3	-23.9657E-3	-224.085E-12	643.303E-3	6.94588E-3
-3.67434E-3	-223.649E-12	663.732E-3	-34.9959E-3	-224.855E-12	635.229E-3	-7.78359E-3
-3.67934E-3	-223.601E-12	666.397E-3	-42.5384E-3	-224.568E-12	666.005E-3	-44.4922E-3
-3.68434E-3	-221.583E-12	696.470E-3	-22.5680E-3	-225.747E-12	691.384E-3	-72.4409E-3
-3.68934E-3	-220.278E-12	686.072E-3	-11.8979E-3	-225.060E-12	711.524E-3	-59.0662E-3
-3.69435E-3	-221.291E-12	646.457E-3	-31.2880E-3	-224.953E-12	709.710E-3	-48.3001E-3
-3.69935E-3	-223.851E-12	630.751E-3	-29.1051E-3	-224.997E-12	693.318E-3	-32.1465E-3
-3.70435E-3	-224.203E-12	628.491E-3	-11.9009E-3	-226.929E-12	707.296E-3	6.69415E-3
-3.70935E-3	-222.614E-12	666.186E-3	-11.8717E-3	-227.343E-12	705.277E-3	31.6986E-3
-3.71436E-3	-224.431E-12	738.151E-3	-9.62046E-3	-226.033E-12	630.633E-3	35.1049E-3
-3.71936E-3	-227.704E-12	728.926E-3	6.76809E-3	-227.497E-12	588.980E-3	21.3197E-3
-3.72436E-3	-229.287E-12	665.729E-3	12.3987E-3	-228.092E-12	637.438E-3	1.62504E-3
-3.72936E-3	-227.766E-12	668.072E-3	363.604E-6	-229.530E-12	680.458E-3	-4.44181E-3
-3.73437E-3	-228.391E-12	687.504E-3	2.82146E-3	-229.367E-12	710.836E-3	-8.50152E-3
-3.73937E-3	-231.083E-12	674.552E-3	2.22894E-3	-229.979E-12	738.772E-3	-11.9516E-3
-3.74437E-3	-231.936E-12	683.897E-3	-26.1111E-3	-230.852E-12	722.938E-3	-15.1377E-3
-3.74937E-3	-230.298E-12	708.166E-3	-32.4504E-3	-231.101E-12	704.075E-3	-14.9580E-3
-3.75438E-3	-228.970E-12	697.760E-3	-23.8094E-3	-231.108E-12	725.210E-3	-5.51487E-3
-3.75938E-3	-228.784E-12	677.374E-3	-46.1625E-3	-231.786E-12	729.602E-3	3.24865E-3
-3.76438E-3	-228.752E-12	666.259E-3	-54.0836E-3	-231.885E-12	688.876E-3	-8.08878E-3
-3.76938E-3	-226.700E-12	636.920E-3	-27.6695E-3	-231.962E-12	657.427E-3	-41.0752E-3
-3.77439E-3	-226.353E-12	627.843E-3	-15.2433E-3	-232.110E-12	652.500E-3	-62.0612E-3
-3.77939E-3	-226.001E-12	655.172E-3	-17.0067E-3	-232.535E-12	658.258E-3	-42.6355E-3
-3.78439E-3	-226.105E-12	644.852E-3	915.954E-6	-232.614E-12	670.445E-3	1.74108E-3
-3.78939E-3	-225.324E-12	610.692E-3	19.4154E-3	-231.487E-12	690.454E-3	20.8893E-3
-3.79440E-3	-224.809E-12	598.090E-3	22.7476E-3	-230.730E-12	694.494E-3	6.90643E-3
-3.79940E-3	-227.302E-12	593.955E-3	20.7908E-3	-230.651E-12	676.778E-3	-21.3949E-3
-3.80440E-3	-228.780E-12	613.905E-3	5.09134E-3	-230.049E-12	684.435E-3	-41.6109E-3
-3.80940E-3	-230.036E-12	636.175E-3	-2.34797E-3	-228.171E-12	709.935E-3	-23.2828E-3
-3.81441E-3	-230.539E-12	644.001E-3	10.4259E-3	-228.752E-12	720.057E-3	1.36359E-3
-3.81941E-3	-231.214E-12	662.270E-3	19.0098E-3	-228.392E-12	727.494E-3	-20.2262E-3
-3.82441E-3	-232.862E-12	667.703E-3	33.4119E-3	-228.904E-12	722.956E-3	-60.9329E-3
-3.82941E-3	-234.633E-12	648.768E-3	19.8474E-3	-228.182E-12	692.943E-3	-68.7964E-3
-3.83442E-3	-235.057E-12	654.858E-3	-4.00925E-3	-229.184E-12	654.508E-3	-66.2713E-3
-3.83942E-3	-232.804E-12	690.665E-3	17.0353E-3	-229.942E-12	631.576E-3	-58.8604E-3
-3.84442E-3	-234.167E-12	698.705E-3	16.3350E-3	-231.435E-12	618.023E-3	-25.0313E-3
-3.84942E-3	-234.084E-12	692.702E-3	-28.3308E-3	-231.825E-12	617.967E-3	-6.70286E-3
-3.85443E-3	-233.504E-12	695.220E-3	-58.1096E-3	-231.210E-12	636.027E-3	-10.7482E-3
-3.85943E-3	-230.411E-12	688.116E-3	-68.3417E-3	-233.747E-12	629.475E-3	-1.80271E-3
-3.86443E-3	-230.153E-12	697.940E-3	-68.7129E-3	-234.296E-12	617.473E-3	12.3135E-3
-3.86943E-3	-231.868E-12	705.750E-3	-44.3055E-3	-235.096E-12	629.205E-3	-1.93410E-3
-3.87444E-3	-231.158E-12	665.763E-3	-2.98067E-3	-232.303E-12	651.653E-3	-34.3500E-3
-3.87944E-3	-230.149E-12	640.771E-3	26.2348E-3	-234.442E-12	662.352E-3	-58.2743E-3
-3.88444E-3	-230.308E-12	668.787E-3	28.6495E-3	-235.543E-12	655.636E-3	-47.6241E-3
-3.88944E-3	-234.039E-12	683.866E-3	22.5521E-3	-235.546E-12	670.834E-3	-11.1613E-3
-3.89445E-3	-233.896E-12	647.450E-3	18.6249E-3	-232.202E-12	690.525E-3	-1.96191E-3
-3.89945E-3	-233.596E-12	617.348E-3	12.7434E-3	-231.418E-12	670.657E-3	-16.7520E-3
-3.90445E-3	-233.530E-12	617.984E-3	-7.40905E-3	-233.412E-12	639.754E-3	-40.5424E-3
-3.90945E-3	-235.125E-12	620.019E-3	-17.8485E-3	-232.606E-12	625.539E-3	-68.3682E-3
-3.91446E-3	-236.728E-12	663.810E-3	3.81850E-3	-231.139E-12	638.167E-3	-81.4827E-3
-3.91946E-3	-236.987E-12	705.156E-3	2.95238E-3	-229.108E-12	661.000E-3	-73.8257E-3
-3.92446E-3	-236.755E-12	683.506E-3	-31.4446E-3	-231.920E-12	641.099E-3	-39.7160E-3
-3.92946E-3	-235.642E-12	678.814E-3	-57.1761E-3	-233.964E-12	606.128E-3	-22.7424E-3
-3.93447E-3	-236.334E-12	701.240E-3	-64.2235E-3	-233.976E-12	623.150E-3	-21.7765E-3
-3.93947E-3	-235.755E-12	707.926E-3	-74.4186E-3	-232.040E-12	669.894E-3	1.42257E-3
-3.94447E-3	-235.288E-12	712.476E-3	-90.4266E-3	-233.264E-12	710.778E-3	13.6509E-3
-3.94947E-3	-233.155E-12	718.754E-3	-65.4128E-3	-235.634E-12	725.165E-3	-8.59719E-3
-3.95448E-3	-233.913E-12	699.758E-3	-14.5229E-3	-236.103E-12	724.244E-3	-13.4837E-3
-3.95948E-3	-233.965E-12	659.926E-3	4.07853E-3	-235.757E-12	704.086E-3	5.33399E-3
-3.96448E-3	-234.117E-12	627.807E-3	3.20641E-3	-235.866E-12	667.432E-3	16.1973E-3
-3.96948E-3	-233.205E-12	638.397E-3	17.4656E-6	-238.341E-12	656.430E-3	39.9085E-3
-3.97449E-3	-233.563E-12	674.996E-3	-19.6388E-3	-238.882E-12	655.401E-3	41.1678E-3
-3.97949E-3	-235.114E-12	663.579E-3	-37.4887E-3	-237.857E-12	650.428E-3	-2.89172E-3
-3.98449E-3	-235.375E-12	652.347E-3	-37.9220E-3	-237.639E-12	626.474E-3	-62.7116E-3
-3.98949E-3	-235.647E-12	698.141E-3	-32.8368E-3	-238.496E-12	605.866E-3	-86.5851E-3
-3.99450E-3	-236.652E-12	701.124E-3	-44.7939E-3	-238.311E-12	624.945E-3	-61.4413E-3
-3.99950E-3	-240.131E-12	632.239E-3	-55.8097E-3	-236.966E-12	646.322E-3	-30.3514E-3
-4.00450E-3	-241.839E-12	594.322E-3	-24.7619E-3	-236.419E-12	651.229E-3	11.0319E-3
-4.00950E-3	-240.376E-12	629.146E-3	11.0747E-3	-238.330E-12	668.088E-3	29.6655E-3
-4.01451E-3	-240.699E-12	658.366E-3	1.28753E-3	-238.653E-12	665.738E-3	1.37599E-3
-4.01951E-3	-242.066E-12	665.689E-3	-19.6970E-3	-238.291E-12	655.190E-3	-30.3302E-3
-4.02451E-3	-243.692E-12	684.652E-3	-173.670E-6	-238.156E-12	673.964E-3	-52.6408E-3
-4.02951E-3	-242.690E-12	706.885E-3	10.7564E-3	-240.134E-12	656.949E-3	-47.8052E-3
-4.03452E-3	-242.382E-12	738.106E-3	-1.91656E-3	-240.571E-12	643.891E-3	-29.4119E-3
-4.03952E-3	-242.480E-12	730.459E-3	26.2636E-3	-241.046E-12	699.974E-3	-38.4335E-3
-4.04452E-3	-242.930E-12	680.932E-3	44.3411E-3	-241.827E-12	729.425E-3	-51.7056E-3
-4.04952E-3	-242.403E-12	648.225E-3	27.3755E-3	-241.667E-12	696.164E-3	-29.1450E-3
-4.05453E-3	-242.306E-12	639.033E-3	46.4648E-3	-242.236E-12	661.123E-3	-333.862E-6
-4.05953E-3	-241.467E-12	638.317E-3	48.9763E-3	-243.207E-12	664.815E-3	-5.38184E-3
-4.06453E-3	-241.493E-12	642.436E-3	1.39975E-3	-243.994E-12	681.574E-3	-23.7322E-3
-4.06953E-3	-242.483E-12	647.538E-3	-8.74960E-3	-243.774E-12	668.581E-3	-22.6232E-3
-4.07454E-3	-242.891E-12	645.530E-3	8.48478E-3	-243.328E-12	653.335E-3	-24.9046E-3
-4.07954E-3	-243.278E-12	642.656E-3	35.3815E-3	-244.247E-12	632.950E-3	-27.8056E-3
-4.08454E-3	-243.672E-12	661.466E-3	71.3277E-3	-244.653E-12	631.273E-3	9.93165E-3
-4.08954E-3	-243.945E-12	683.809E-3	41.3925E-3	-243.838E-12	683.330E-3	15.2667E-3
-4.09455E-3	-243.688E-12	714.066E-3	-22.7219E-3	-242.081E-12	693.776E-3	-51.9015E-3
-4.09955E-3	-243.429E-12	743.445E-3	-31.1010E-3	-242.907E-12	655.985E-3	-90.2308E-3
-4.10455E-3	-244.826E-12	680.670E-3	-4.30870E-3	-244.555E-12	647.709E-3	-80.8448E-3
-4.10955E-3	-244.123E-12	600.447E-3	20.9178E-3	-245.161E-12	639.119E-3	-70.5696E-3
-4.11456E-3	-243.483E-12	608.131E-3	33.0399E-3	-243.848E-12	643.203E-3	-55.5212E-3
-4.11956E-3	-243.976E-12	631.598E-3	-4.40096E-3	-245.106E-12	704.825E-3	-40.9974E-3
-4.12456E-3	-244.406E-12	639.367E-3	-60.9825E-3	-245.725E-12	758.188E-3	-18.0887E-3
-4.12956E-3	-244.143E-12	648.618E-3	-59.4587E-3	-245.730E-12	727.804E-3	17.0827E-3
-4.13457E-3	-244.911E-12	634.312E-3	-23.9998E-3	-244.049E-12	662.736E-3	26.2745E-3
-4.13957E-3	-246.281E-12	633.782E-3	-6.91562E-3	-244.646E-12	616.634E-3	18.5612E-3
-4.14457E-3	-246.207E-12	668.555E-3	-10.4704E-3	-245.992E-12	607.269E-3	854.780E-6
-4.14957E-3	-246.398E-12	665.905E-3	-17.7782E-3	-246.451E-12	635.464E-3	-35.1077E-3
-4.15458E-3	-246.615E-12	644.725E-3	-5.89989E-3	-246.486E-12	645.344E-3	-44.8918E-3
-4.15958E-3	-247.660E-12	658.643E-3	4.16040E-3	-245.806E-12	644.014E-3	-23.1299E-3
-4.16458E-3	-248.435E-12	646.692E-3	29.0403E-3	-245.816E-12	665.974E-3	1.15798E-3
-4.16958E-3	-246.648E-12	631.893E-3	61.0925E-3	-247.131E-12	708.350E-3	10.9050E-3
-4.17459E-3	-246.959E-12	654.771E-3	39.2061E-3	-247.721E-12	749.008E-3	12.4083E-3
-4.17959E-3	-247.918E-12	643.257E-3	14.7141E-3	-248.882E-12	737.633E-3	5.41596E-3
-4.18459E-3	-247.484E-12	621.392E-3	-23.1975E-3	-247.341E-12	673.812E-3	-8.17536E-3
-4.18959E-3	-245.636E-12	637.755E-3	-58.0257E-3	-247.393E-12	646.776E-3	-20.1962E-3
-4.19460E-3	-245.394E-12	672.328E-3	-38.9562E-3	-250.564E-12	682.993E-3	-48.0692E-3
-4.19960E-3	-245.990E-12	693.083E-3	-33.6697E-3	-252.478E-12	697.642E-3	-68.5212E-3
-4.20460E-3	-246.320E-12	671.060E-3	-29.9803E-3	-249.877E-12	697.547E-3	-47.1145E-3
-4.20960E-3	-245.593E-12	613.145E-3	-21.6930E-3	-248.237E-12	713.796E-3	-4.82049E-3
-4.21461E-3	-246.199E-12	598.398E-3	-35.2007E-3	-249.328E-12	695.521E-3	1.91328E-3
-4.21961E-3	-246.517E-12	655.439E-3	-39.0195E-3	-249.614E-12	654.955E-3	-32.3793E-3
-4.22461E-3	-248.015E-12	677.437E-3	-28.5274E-3	-246.724E-12	647.458E-3	-66.9916E-3
-4.22961E-3	-249.444E-12	635.447E-3	-8.63488E-3	-244.008E-12	687.642E-3	-75.3258E-3
-4.23462E-3	-249.736E-12	619.953E-3	-9.22855E-3	-244.014E-12	724.930E-3	-57.0730E-3
-4.23962E-3	-249.816E-12	645.935E-3	-10.6793E-3	-246.257E-12	701.619E-3	-44.4127E-3
-4.24462E-3	-251.831E-12	675.162E-3	35.4226E-3	-247.771E-12	626.154E-3	-60.9079E-3
-4.24962E-3	-254.236E-12	684.361E-3	54.9822E-3	-246.002E-12	568.569E-3	-83.6880E-3
-4.25463E-3	-253.989E-12	670.799E-3	23.8069E-3	-245.958E-12	569.988E-3	-70.3068E-3
-4.25963E-3	-251.151E-12	670.347E-3	-15.1494E-3	-247.134E-12	585.962E-3	-33.2049E-3
-4.26463E-3	-249.796E-12	669.692E-3	-32.4615E-3	-250.489E-12	611.046E-3	-27.5992E-3
-4.26963E-3	-251.536E-12	669.374E-3	-11.6925E-3	-249.163E-12	657.907E-3	-45.7846E-3
-4.27464E-3	-249.876E-12	681.570E-3	13.5876E-3	-249.713E-12	657.627E-3	-33.8580E-3
-4.27964E-3	-247.059E-12	689.858E-3	20.4263E-3	-250.616E-12	628.761E-3	1.68950E-3
-4.28464E-3	-245.482E-12	684.177E-3	7.41106E-3	-254.573E-12	657.936E-3	1.88105E-3
-4.28964E-3	-247.640E-12	654.436E-3	2.11864E-3	-255.147E-12	681.236E-3	-28.3500E-3
-4.29465E-3	-247.828E-12	639.860E-3	-15.1521E-3	-253.845E-12	647.620E-3	-20.3448E-3
-4.29965E-3	-247.042E-12	669.914E-3	-47.9497E-3	-254.275E-12	646.746E-3	-26.5810E-3
-4.30465E-3	-245.790E-12	674.789E-3	-57.6763E-3	-257.157E-12	708.794E-3	-71.3278E-3
-4.30965E-3	-249.257E-12	635.764E-3	-63.9745E-3	-257.305E-12	751.689E-3	-76.5225E-3
-4.31466E-3	-251.043E-12	640.591E-3	-47.6744E-3	-255.986E-12	741.357E-3	-41.8921E-3
-4.31966E-3	-252.608E-12	676.323E-3	-41.0354E-3	-254.181E-12	704.435E-3	-12.4395E-3
-4.32466E-3	-254.840E-12	677.867E-3	-58.7931E-3	-255.500E-12	664.527E-3	-4.58496E-3
-4.32966E-3	-256.095E-12	661.774E-3	-53.2508E-3	-254.110E-12	663.218E-3	13.6574E-3
-4.33467E-3	-258.749E-12	645.359E-3	-65.9829E-3	-251.649E-12	670.723E-3	26.8782E-3
-4.33967E-3	-259.817E-12	637.911E-3	-79.4401E-3	-251.883E-12	653.880E-3	28.2589E-3
-4.34467E-3	-261.280E-12	665.885E-3	-60.2398E-3	-253.666E-12	644.372E-3	18.7134E-3
-4.34967E-3	-259.722E-12	693.842E-3	-27.8126E-3	-253.758E-12	637.832E-3	-9.54355E-3
-4.35468E-3	-258.192E-12	705.781E-3	7.03152E-3	-252.216E-12	643.524E-3	-4.78569E-3
-4.35968E-3	-257.754E-12	704.279E-3	4.65003E-3	-253.502E-12	671.903E-3	-12.3206E-3
-4.36468E-3	-257.259E-12	673.971E-3	-8.19176E-3	-254.972E-12	688.668E-3	-45.8514E-3
-4.36968E-3	-254.767E-12	631.456E-3	14.2862E-3	-254.961E-12	697.606E-3	-33.3192E-3
-4.37469E-3	-251.720E-12	640.576E-3	10.6708E-3	-255.065E-12	709.064E-3	-19.6025E-3
-4.37969E-3	-251.747E-12	691.346E-3	-14.0916E-3	-257.076E-12	698.802E-3	-19.3117E-3
-4.38469E-3	-250.821E-12	685.849E-3	-33.7603E-3	-258.498E-12	676.642E-3	-10.1362E-3
-4.38969E-3	-250.782E-12	643.212E-3	-66.4601E-3	-257.314E-12	670.302E-3	-6.83759E-3
-4.39470E-3	-250.582E-12	619.594E-3	-63.7109E-3	-257.588E-12	643.890E-3	-18.9741E-3
-4.39970E-3	-252.462E-12	632.131E-3	-43.2404E-3	-259.486E-12	622.583E-3	-35.7677E-3
-4.40470E-3	-254.358E-12	665.066E-3	-21.8607E-3	-261.246E-12	648.380E-3	-25.5655E-3
-4.40970E-3	-254.364E-12	660.859E-3	23.6903E-3	-258.378E-12	650.367E-3	-21.8816E-3
-4.41471E-3	-255.251E-12	622.999E-3	-13.7255E-3	-256.636E-12	614.349E-3	-17.8023E-3
-4.41971E-3	-258.335E-12	593.245E-3	-74.3171E-3	-257.182E-12	613.976E-3	13.4524E-3
-4.42471E-3	-260.988E-12	604.193E-3	-23.5685E-3	-256.331E-12	652.604E-3	11.8922E-3
-4.42971E-3	-261.292E-12	660.905E-3	-2.00677E-3	-253.229E-12	635.010E-3	-19.2752E-3
-4.43472E-3	-262.260E-12	686.582E-3	-51.5522E-3	-253.239E-12	593.124E-3	-38.9434E-3
-4.43972E-3	-263.647E-12	653.095E-3	-77.7336E-3	-254.526E-12	622.747E-3	-61.2808E-3
-4.44472E-3	-263.458E-12	644.382E-3	-70.0323E-3	-255.614E-12	656.656E-3	-61.0078E-3
-4.44972E-3	-262.796E-12	668.205E-3	-58.0259E-3	-255.602E-12	654.893E-3	-38.8653E-3
-4.45473E-3	-261.627E-12	668.095E-3	-71.9890E-3	-254.203E-12	647.823E-3	-37.9210E-3
-4.45973E-3	-260.381E-12	676.846E-3	-61.3388E-3	-256.531E-12	644.822E-3	-38.8451E-3
-4.46473E-3	-259.647E-12	703.798E-3	-20.0510E-3	-256.789E-12	665.027E-3	-26.5418E-3
-4.46973E-3	-258.152E-12	710.793E-3	-18.8054E-3	-257.942E-12	679.372E-3	-19.0994E-3
-4.47474E-3	-257.778E-12	718.435E-3	-55.1914E-3	-258.855E-12	664.662E-3	-16.4612E-3
-4.47974E-3	-255.920E-12	721.727E-3	-58.9011E-3	-260.883E-12	657.477E-3	-16.8584E-3
-4.48474E-3	-257.029E-12	708.490E-3	-32.1557E-3	-262.001E-12	665.997E-3	-20.5655E-3
-4.48974E-3	-258.380E-12	676.833E-3	-16.6596E-3	-261.483E-12	682.275E-3	-17.9870E-3
-4.49475E-3	-257.686E-12	644.546E-3	-27.6481E-3	-262.334E-12	680.016E-3	-19.0458E-3
-4.49975E-3	-256.585E-12	634.114E-3	-61.3293E-3	-263.053E-12	628.162E-3	-6.81518E-3
-4.50475E-3	-259.028E-12	606.479E-3	-82.1230E-3	-264.515E-12	589.974E-3	18.0985E-3
-4.50975E-3	-261.757E-12	583.293E-3	-74.8026E-3	-262.162E-12	629.084E-3	15.4223E-3
-4.51476E-3	-262.167E-12	613.940E-3	-33.4997E-3	-262.051E-12	699.315E-3	-4.54533E-3
-4.51976E-3	-261.213E-12	638.320E-3	5.07631E-3	-263.736E-12	718.587E-3	-3.84350E-3
-4.52476E-3	-262.926E-12	627.014E-3	3.06272E-3	-262.763E-12	716.916E-3	24.0278E-3
-4.52976E-3	-265.092E-12	613.367E-3	-9.71463E-3	-263.011E-12	738.462E-3	47.0616E-3
-4.53477E-3	-265.104E-12	621.557E-3	-22.5840E-3	-261.119E-12	733.676E-3	44.2600E-3
-4.53977E-3	-263.049E-12	637.213E-3	-41.2307E-3	-261.615E-12	681.337E-3	-4.11809E-3
-4.54477E-3	-262.611E-12	626.234E-3	-45.0337E-3	-262.954E-12	629.091E-3	-67.6856E-3
-4.54977E-3	-264.221E-12	604.342E-3	-35.8239E-3	-262.758E-12	623.910E-3	-70.8639E-3
-4.55478E-3	-264.279E-12	596.321E-3	-21.3093E-3	-262.628E-12	642.728E-3	-59.6041E-3
-4.55978E-3	-262.860E-12	597.551E-3	-624.530E-6	-262.564E-12	649.050E-3	-74.9862E-3
-4.56478E-3	-262.163E-12	617.772E-3	-15.2459E-3	-263.371E-12	652.076E-3	-79.3395E-3
-4.56978E-3	-262.348E-12	652.031E-3	-26.0623E-3	-264.224E-12	646.992E-3	-48.5889E-3
-4.57479E-3	-262.951E-12	676.862E-3	11.5040E-3	-264.360E-12	645.018E-3	-15.4393E-3
-4.57979E-3	-261.665E-12	668.221E-3	24.4046E-3	-264.292E-12	651.588E-3	-1.57054E-3
-4.58479E-3	-260.588E-12	652.516E-3	8.74415E-3	-263.735E-12	649.662E-3	-15.3461E-3
-4.58979E-3	-262.031E-12	638.180E-3	-10.8115E-3	-265.806E-12	648.410E-3	-45.2930E-3
-4.59480E-3	-263.387E-12	604.486E-3	-52.1554E-3	-266.702E-12	627.517E-3	-23.3721E-3
-4.59980E-3	-264.688E-12	593.046E-3	-75.3184E-3	-266.623E-12	618.454E-3	11.5761E-3
-4.60480E-3	-263.821E-12	629.986E-3	-58.7457E-3	-264.904E-12	638.654E-3	6.97663E-3
-4.60980E-3	-263.520E-12	666.930E-3	-59.0247E-3	-266.286E-12	617.268E-3	5.73654E-3
-4.61481E-3	-265.877E-12	693.811E-3	-45.4009E-3	-268.818E-12	591.013E-3	-8.34143E-3
-4.61981E-3	-266.783E-12	698.510E-3	21.6403E-3	-269.667E-12	626.480E-3	-34.4732E-3
-4.62481E-3	-265.071E-12	656.135E-3	18.7815E-3	-267.206E-12	720.543E-3	-28.0141E-3
-4.62981E-3	-266.488E-12	632.168E-3	-29.4989E-3	-265.514E-12	793.324E-3	-16.7243E-3
-4.63482E-3	-267.670E-12	642.388E-3	-35.1615E-3	-269.041E-12	765.854E-3	-22.8588E-3
-4.63982E-3	-269.607E-12	639.174E-3	-67.7464E-3	-270.475E-12	707.602E-3	-40.0739E-3
-4.64482E-3	-270.134E-12	602.035E-3	-128.715E-3	-270.209E-12	676.095E-3	-50.6438E-3
-4.64982E-3	-271.251E-12	578.553E-3	-129.110E-3	-267.782E-12	665.004E-3	-31.5083E-3
-4.65483E-3	-271.276E-12	617.896E-3	-76.2728E-3	-266.730E-12	648.951E-3	-13.9455E-3
-4.65983E-3	-272.523E-12	682.594E-3	-61.1468E-3	-268.268E-12	618.813E-3	-14.9697E-3
-4.66483E-3	-273.134E-12	721.594E-3	-55.0855E-3	-267.668E-12	610.539E-3	-10.6640E-3
-4.66983E-3	-272.032E-12	738.200E-3	-24.2047E-3	-266.966E-12	623.830E-3	-24.8093E-3
-4.67484E-3	-271.916E-12	726.645E-3	-26.5025E-3	-265.935E-12	607.505E-3	-47.2385E-3
-4.67984E-3	-268.471E-12	687.761E-3	-47.8940E-3	-267.108E-12	580.303E-3	-12.5986E-3
-4.68484E-3	-268.737E-12	634.530E-3	-51.8078E-3	-267.327E-12	573.121E-3	41.3583E-3
-4.68984E-3	-268.301E-12	588.426E-3	-55.4769E-3	-267.086E-12	543.772E-3	60.5995E-3
-4.69485E-3	-267.596E-12	608.808E-3	-58.5151E-3	-267.325E-12	554.764E-3	51.8930E-3
-4.69985E-3	-265.379E-12	645.930E-3	-55.7650E-3	-267.745E-12	609.539E-3	-1.85134E-3
-4.70485E-3	-264.025E-12	650.635E-3	-28.9505E-3	-269.731E-12	620.744E-3	-43.2175E-3
-4.70985E-3	-263.440E-12	661.067E-3	1.98493E-3	-272.487E-12	608.273E-3	-38.9920E-3
-4.71486E-3	-264.399E-12	663.487E-3	-9.22558E-3	-272.777E-12	616.263E-3	-51.5750E-3
-4.71986E-3	-266.540E-12	649.557E-3	-22.4555E-3	-272.851E-12	630.296E-3	-41.2936E-3
-4.72486E-3	-266.584E-12	619.133E-3	-23.3211E-3	-274.017E-12	619.233E-3	-12.9163E-3
-4.72986E-3	-267.478E-12	619.972E-3	-19.5948E-3	-275.210E-12	625.783E-3	-5.32655E-3
-4.73487E-3	-267.695E-12	658.363E-3	-4.35020E-3	-275.458E-12	622.065E-3	17.6030E-3
-4.73987E-3	-271.621E-12	662.299E-3	-8.28772E-3	-274.521E-12	594.497E-3	38.3958E-3
-4.74487E-3	-276.237E-12	667.182E-3	-13.7443E-3	-272.169E-12	615.646E-3	45.4652E-3
-4.74988E-3	-277.548E-12	694.498E-3	-1.40369E-3	-272.823E-12	639.946E-3	46.4203E-3
-4.75488E-3	-276.975E-12	696.611E-3	-4.10084E-3	-271.335E-12	630.714E-3	42.7945E-3
-4.75988E-3	-278.810E-12	698.969E-3	-25.3857E-3	-271.747E-12	630.576E-3	14.6169E-3
-4.76488E-3	-282.072E-12	710.917E-3	-36.5322E-3	-270.606E-12	633.310E-3	-5.56074E-3
-4.76988E-3	-280.833E-12	690.708E-3	-34.4717E-3	-269.191E-12	618.421E-3	14.7624E-3
-4.77489E-3	-276.455E-12	649.733E-3	-49.0418E-3	-270.477E-12	629.197E-3	8.97311E-3
-4.77989E-3	-275.746E-12	646.218E-3	-65.5926E-3	-269.966E-12	637.316E-3	-45.5520E-3
-4.78489E-3	-277.281E-12	672.653E-3	-69.5480E-3	-270.927E-12	616.329E-3	-84.0379E-3
-4.78989E-3	-273.944E-12	671.351E-3	-74.0624E-3	-271.117E-12	626.000E-3	-70.7367E-3
-4.79490E-3	-270.675E-12	658.241E-3	-78.0960E-3	-273.581E-12	623.274E-3	-64.8748E-3
-4.79990E-3	-267.305E-12	650.144E-3	-58.4014E-3	-276.200E-12	609.581E-3	-63.8265E-3
-4.80490E-3	-268.319E-12	630.525E-3	-18.6285E-3	-277.244E-12	651.505E-3	-36.9298E-3
-4.80990E-3	-268.813E-12	608.982E-3	-10.1941E-3	-277.562E-12	685.456E-3	-44.9262E-3
-4.81491E-3	-270.214E-12	594.080E-3	-22.9733E-3	-278.237E-12	674.356E-3	-49.3037E-3
-4.81991E-3	-269.530E-12	595.600E-3	-35.4528E-3	-281.439E-12	678.713E-3	-5.00705E-3
-4.82491E-3	-270.888E-12	611.859E-3	-47.2213E-3	-280.712E-12	700.144E-3	25.4600E-3
-4.82991E-3	-272.575E-12	595.245E-3	-49.8490E-3	-279.656E-12	683.600E-3	38.6216E-3
-4.83492E-3	-275.903E-12	550.141E-3	-32.0680E-3	-276.839E-12	649.070E-3	25.3736E-3
-4.83992E-3	-277.481E-12	556.180E-3	-25.3492E-3	-276.960E-12	629.268E-3	-30.2250E-3
-4.84492E-3	-279.042E-12	619.987E-3	-32.9472E-3	-277.651E-12	639.076E-3	-44.7912E-3
-4.84992E-3	-279.415E-12	659.110E-3	-16.1202E-3	-275.765E-12	688.635E-3	-22.3155E-3
-4.85493E-3	-281.869E-12	642.185E-3	1.19267E-3	-274.188E-12	726.789E-3	-25.0666E-3
-4.85993E-3	-281.981E-12	630.552E-3	-8.95643E-3	-273.110E-12	724.544E-3	-14.5229E-3
-4.86493E-3	-282.711E-12	664.697E-3	-3.52434E-3	-273.813E-12	689.267E-3	7.75036E-3
-4.86993E-3	-279.725E-12	698.048E-3	31.1806E-3	-274.441E-12	670.097E-3	-2.24347E-3
-4.87494E-3	-279.308E-12	707.185E-3	54.9499E-3	-274.333E-12	666.605E-3	-38.3101E-3
-4.87994E-3	-278.908E-12	710.994E-3	73.5854E-3	-273.589E-12	667.707E-3	-54.8104E-3
-4.88494E-3	-280.147E-12	695.943E-3	72.6248E-3	-275.993E-12	693.358E-3	-56.6540E-3
-4.88995E-3	-277.661E-12	666.490E-3	49.0957E-3	-278.514E-12	671.762E-3	-73.0888E-3
-4.89495E-3	-275.399E-12	660.001E-3	15.8138E-3	-279.193E-12	621.169E-3	-44.7088E-3
-4.89995E-3	-273.928E-12	664.843E-3	-9.38806E-3	-280.137E-12	614.109E-3	-6.37915E-3
-4.90495E-3	-276.571E-12	638.982E-3	5.40384E-3	-280.958E-12	617.307E-3	-11.6670E-3
-4.90995E-3	-276.090E-12	594.469E-3	3.36347E-3	-281.654E-12	622.799E-3	-2.74342E-3
-4.91496E-3	-276.402E-12	609.734E-3	-29.3834E-3	-281.735E-12	605.103E-3	40.6693E-3
-4.91996E-3	-274.301E-12	638.055E-3	-14.4295E-3	-281.949E-12	544.636E-3	51.6675E-3
-4.92496E-3	-278.455E-12	617.915E-3	1.60648E-3	-282.496E-12	549.215E-3	15.2471E-3
-4.92996E-3	-279.847E-12	627.375E-3	-25.2941E-3	-280.636E-12	620.175E-3	-13.9904E-3
-4.93497E-3	-279.131E-12	659.688E-3	-40.1487E-3	-279.671E-12	635.669E-3	-19.3566E-3
-4.93997E-3	-277.602E-12	625.707E-3	-52.4697E-3	-281.821E-12	621.752E-3	-178.545E-6
-4.94497E-3	-280.237E-12	570.367E-3	-66.5859E-3	-282.735E-12	635.146E-3	20.3762E-3
-4.94997E-3	-282.633E-12	563.543E-3	-46.3481E-3	-280.915E-12	632.517E-3	15.1543E-3
-4.95498E-3	-280.675E-12	576.810E-3	-17.0869E-3	-280.080E-12	622.998E-3	-40.1333E-3
-4.95998E-3	-279.393E-12	626.003E-3	-18.4189E-3	-281.240E-12	621.598E-3	-99.5097E-3
-4.96498E-3	-280.312E-12	679.493E-3	-9.25026E-3	-282.466E-12	632.704E-3	-90.3833E-3
-4.96998E-3	-281.357E-12	697.253E-3	33.4990E-3	-281.678E-12	662.458E-3	-63.4951E-3
-4.97499E-3	-280.711E-12	701.192E-3	36.0578E-3	-282.472E-12	665.265E-3	-48.0208E-3
-4.97999E-3	-280.339E-12	663.172E-3	-2.34901E-3	-283.318E-12	670.716E-3	-15.1144E-3
-4.98499E-3	-282.500E-12	638.974E-3	-20.5566E-3	-283.234E-12	659.722E-3	-3.07356E-3
-4.98999E-3	-281.757E-12	666.521E-3	-30.6861E-3	-283.274E-12	602.134E-3	-10.9015E-3
-4.99500E-3	-282.542E-12	677.361E-3	-52.4737E-3	-282.354E-12	597.861E-3	-40.0430E-3
-5.00000E-3	-282.276E-12	674.832E-3	-85.1736E-3	-283.447E-12	650.849E-3	-87.2321E-3
