Experiment	bias spectroscopy	
Date	19.01.2016 22:24:56	
User		
X (m)	49.7255E-9	
Y (m)	257.613E-9	
Z (m)	-132.59E-9	
Z offset (m)	0E+0	
Settling time (s)	200E-6	
Integration time (s)	5E-3	
Z-Ctrl hold	TRUE	
Final Z (m)	N/A	
Filter type	None	
Order		
Cutoff frq		
Comment01	MnPc/Pb(111)	
Comment02	dz =00pm	
Comment03	7 Sweeps	
Comment04	MagField =0.T	
Comment05	Divider 1:10	
Comment06	Setpoint:5mV,200 pA	
Comment07	Lockin: 50uVrms,5ms,5mV	
Comment08	Gain:9; 912Hz modulation	
Comment09	T=1.06K	
Bias>Bias (V)	5E-3	
Bias>Calibration (V/V)	81.475E-3	
Bias>Offset (V)	1.046E-3	
Bias Spectroscopy>Sweep Start (V)	5E-3	
Bias Spectroscopy>Sweep End (V)	-5E-3	
Bias Spectroscopy>Num Pixel	2000	
Bias Spectroscopy>Z Avg time (s)	500E-3	
Bias Spectroscopy>Z offset (m)	0E+0	
Bias Spectroscopy>1st Settling time (s)	500E-3	
Bias Spectroscopy>Settling time (s)	200E-6	
Bias Spectroscopy>Integration time (s)	5E-3	
Bias Spectroscopy>End Settling time (s)	500E-3	
Bias Spectroscopy>Z control time (s)	500E-3	
Bias Spectroscopy>Max Slew rate (V/s)	Inf	
Bias Spectroscopy>backward sweep	TRUE	
Bias Spectroscopy>Z-controller hold	TRUE	
Bias Spectroscopy>Number of sweeps	7	
Bias Spectroscopy>Channels	Current (A);X% LockIn (V);Y% LockIn (V)	
Bias Spectroscopy>Reset Bias	TRUE	
Bias Spectroscopy>Record final Z	FALSE	
Bias Spectroscopy>Lock-In run	FALSE	
Bias Spectroscopy>Sweep mode	Linear	
Bias Spectroscopy>MultiLine Settings : Segment Start (V), Segment End (V), Settling (s), Integration (s), Steps (xn)	100E-3,3.3E-3,100E-6,10E-3,2500;3.3E-3,-3.3E-3,100E-6,10E-3,10;-3.3E-3,-100E-3,100E-6,10E-3,2500	
Current>Current (A)	200.023E-12	
Current>Calibration (A/V)	999.99900E-12	
Current>Offset (A)	-455.429E-15	
Current>Gain	LN 10^9	
Z-Controller>Z (m)	-132.593E-9	
Z-Controller>Controller name	log Current	
Z-Controller>Controller status	ON	
Z-Controller>Setpoint	200E-12	
Z-Controller>Setpoint unit	A	
Z-Controller>P gain	2.96994E-12	
Z-Controller>I gain	67.0321E-9	
Z-Controller>Time const (s)	44.3062E-6	
Z-Controller>TipLift (m)	0E+0	
Z-Controller>Switch off delay (s)	50E-3	
Current (A)	200.176E-12	
Z (m)	-132.593E-9	

[DATA]
Bias calc (V)	Current (A)	X% LockIn (V)	Y% LockIn (V)	Current [bwd] (A)	X% LockIn [bwd] (V)	Y% LockIn [bwd] (V)
5.00000E-3	201.283E-12	618.228E-3	-20.1579E-3	198.469E-12	607.454E-3	-49.9419E-3
4.99500E-3	202.419E-12	650.809E-3	-7.59881E-3	197.016E-12	623.724E-3	-46.4659E-3
4.98999E-3	202.909E-12	665.569E-3	-22.4436E-3	197.242E-12	631.368E-3	-38.4131E-3
4.98499E-3	203.574E-12	680.270E-3	-24.9989E-3	196.902E-12	623.414E-3	-35.3658E-3
4.97999E-3	202.997E-12	686.925E-3	-12.3278E-3	197.373E-12	622.688E-3	-15.0857E-3
4.97499E-3	203.534E-12	684.032E-3	-8.02216E-3	197.413E-12	624.085E-3	3.45562E-3
4.96998E-3	202.511E-12	667.286E-3	13.3775E-3	198.243E-12	626.889E-3	-13.9148E-3
4.96498E-3	201.546E-12	647.569E-3	14.9441E-3	198.766E-12	633.070E-3	-30.6017E-3
4.95998E-3	201.054E-12	671.320E-3	-12.6397E-3	199.390E-12	633.875E-3	-22.1667E-3
4.95498E-3	199.477E-12	698.836E-3	-43.0303E-3	199.958E-12	642.093E-3	-10.5127E-3
4.94997E-3	198.954E-12	690.332E-3	-48.6073E-3	200.291E-12	666.569E-3	-17.1225E-3
4.94497E-3	197.861E-12	677.652E-3	-28.9418E-3	200.439E-12	684.411E-3	-27.2698E-3
4.93997E-3	197.173E-12	675.229E-3	-21.7548E-3	200.917E-12	673.671E-3	-5.64691E-3
4.93497E-3	196.035E-12	666.899E-3	-18.6076E-3	200.624E-12	664.092E-3	25.2882E-3
4.92996E-3	196.005E-12	649.725E-3	735.918E-6	200.596E-12	665.410E-3	1.97280E-3
4.92496E-3	196.000E-12	647.233E-3	4.79105E-3	199.499E-12	672.376E-3	-37.7538E-3
4.91996E-3	196.237E-12	658.207E-3	-710.972E-6	199.971E-12	686.883E-3	-42.4895E-3
4.91496E-3	196.787E-12	658.538E-3	-2.01875E-3	198.627E-12	696.949E-3	-42.3747E-3
4.90995E-3	197.282E-12	648.860E-3	7.03491E-3	197.812E-12	682.955E-3	-47.7714E-3
4.90495E-3	197.404E-12	658.683E-3	22.4269E-3	196.811E-12	637.368E-3	-34.3710E-3
4.89995E-3	197.678E-12	666.016E-3	11.2544E-3	196.703E-12	612.492E-3	-2.02327E-3
4.89495E-3	197.612E-12	662.346E-3	-9.76411E-3	195.723E-12	628.910E-3	7.85103E-3
4.88995E-3	197.257E-12	684.820E-3	-25.5342E-3	195.335E-12	648.156E-3	-6.03141E-3
4.88494E-3	196.203E-12	700.771E-3	-36.8711E-3	195.533E-12	654.660E-3	8.34457E-3
4.87994E-3	195.536E-12	682.151E-3	-28.2820E-3	195.423E-12	654.368E-3	16.1889E-3
4.87494E-3	195.225E-12	677.450E-3	-12.6152E-3	195.231E-12	634.246E-3	-25.2179E-3
4.86993E-3	193.946E-12	680.586E-3	-17.5141E-3	195.020E-12	606.120E-3	-51.9785E-3
4.86493E-3	192.547E-12	655.646E-3	-35.7723E-3	194.900E-12	607.522E-3	-47.9719E-3
4.85993E-3	191.731E-12	637.822E-3	-45.1247E-3	193.894E-12	626.106E-3	-34.3982E-3
4.85493E-3	190.770E-12	644.282E-3	-37.1353E-3	193.925E-12	644.322E-3	-5.85602E-3
4.84992E-3	189.584E-12	661.398E-3	-32.2277E-3	193.760E-12	651.154E-3	-3.92192E-3
4.84492E-3	188.875E-12	661.336E-3	-11.0992E-3	193.457E-12	654.733E-3	-24.7366E-3
4.83992E-3	188.760E-12	645.534E-3	25.6067E-3	193.198E-12	660.125E-3	-20.4336E-3
4.83492E-3	188.877E-12	651.464E-3	21.0992E-3	193.159E-12	648.019E-3	-9.38764E-3
4.82991E-3	188.894E-12	663.335E-3	8.41669E-3	192.787E-12	640.657E-3	-2.87613E-3
4.82491E-3	188.646E-12	636.665E-3	5.39059E-3	192.848E-12	643.224E-3	-6.80957E-3
4.81991E-3	189.236E-12	598.736E-3	-11.4207E-3	191.605E-12	643.918E-3	-28.3493E-3
4.81491E-3	189.806E-12	590.221E-3	-12.4098E-3	190.427E-12	662.997E-3	-22.7003E-3
4.80990E-3	189.968E-12	600.033E-3	-3.75775E-3	190.016E-12	680.085E-3	5.57523E-3
4.80490E-3	190.822E-12	615.510E-3	-23.7626E-3	189.562E-12	653.221E-3	9.28957E-3
4.79990E-3	190.694E-12	630.786E-3	-38.5587E-3	188.839E-12	633.144E-3	-1.20090E-3
4.79490E-3	190.828E-12	647.371E-3	-32.7979E-3	188.456E-12	651.254E-3	-19.2215E-3
4.78989E-3	190.712E-12	662.540E-3	-33.9814E-3	188.069E-12	653.464E-3	-40.1409E-3
4.78489E-3	190.438E-12	670.877E-3	-31.4642E-3	188.244E-12	637.533E-3	-27.0756E-3
4.77989E-3	189.772E-12	682.691E-3	-7.81716E-3	188.118E-12	643.168E-3	-5.43456E-3
4.77489E-3	189.924E-12	691.952E-3	7.24596E-3	187.643E-12	646.787E-3	-16.9389E-3
4.76988E-3	189.453E-12	677.837E-3	-11.1039E-3	187.379E-12	637.712E-3	-20.0699E-3
4.76488E-3	189.553E-12	658.621E-3	-32.9402E-3	187.789E-12	640.216E-3	-5.92702E-3
4.75988E-3	189.359E-12	657.561E-3	-50.7290E-3	188.510E-12	634.040E-3	2.06029E-3
4.75488E-3	189.377E-12	666.198E-3	-69.5042E-3	188.231E-12	640.773E-3	5.64688E-3
4.74988E-3	189.485E-12	671.517E-3	-63.6414E-3	188.865E-12	668.782E-3	-6.13925E-3
4.74487E-3	190.155E-12	662.858E-3	-26.1515E-3	188.387E-12	661.516E-3	-21.6778E-3
4.73987E-3	190.557E-12	656.901E-3	1.50548E-3	189.772E-12	624.638E-3	-21.4733E-3
4.73487E-3	190.042E-12	657.521E-3	13.3788E-3	189.436E-12	614.153E-3	-14.9496E-3
4.72986E-3	191.102E-12	652.747E-3	19.9619E-3	189.322E-12	635.530E-3	-21.9273E-3
4.72486E-3	190.273E-12	655.804E-3	-805.368E-6	188.850E-12	650.094E-3	-20.7738E-3
4.71986E-3	190.726E-12	674.090E-3	-24.3488E-3	189.221E-12	658.832E-3	-198.469E-6
4.71486E-3	190.425E-12	692.288E-3	-37.5773E-3	189.506E-12	662.998E-3	6.56670E-3
4.70985E-3	190.575E-12	709.624E-3	-51.0849E-3	188.873E-12	660.087E-3	2.17830E-3
4.70485E-3	189.322E-12	717.856E-3	-52.6260E-3	189.054E-12	665.288E-3	-5.29896E-3
4.69985E-3	189.056E-12	712.996E-3	-33.2285E-3	188.641E-12	666.295E-3	-22.1271E-3
4.69485E-3	188.886E-12	690.212E-3	-20.7206E-3	188.798E-12	644.909E-3	-33.8320E-3
4.68984E-3	188.287E-12	661.203E-3	-24.4344E-3	187.842E-12	642.472E-3	-30.6296E-3
4.68484E-3	187.138E-12	654.250E-3	-26.5702E-3	187.451E-12	661.228E-3	-14.0294E-3
4.67984E-3	186.863E-12	670.686E-3	-39.2214E-3	186.913E-12	652.905E-3	4.10059E-3
4.67484E-3	186.236E-12	672.253E-3	-48.0582E-3	186.641E-12	650.803E-3	9.14865E-3
4.66983E-3	186.073E-12	640.429E-3	-23.2522E-3	185.819E-12	667.720E-3	-298.897E-6
4.66483E-3	185.847E-12	642.084E-3	6.00201E-3	186.164E-12	654.666E-3	-23.0598E-3
4.65983E-3	185.843E-12	658.443E-3	6.76566E-3	185.122E-12	633.617E-3	-41.0027E-3
4.65483E-3	186.014E-12	654.150E-3	-6.90390E-3	186.297E-12	651.973E-3	-34.7355E-3
4.64982E-3	186.043E-12	669.806E-3	-11.3595E-3	185.527E-12	661.879E-3	-11.0707E-3
4.64482E-3	186.405E-12	695.127E-3	-6.58821E-3	185.406E-12	626.704E-3	15.1152E-3
4.63982E-3	185.009E-12	690.740E-3	-4.32593E-3	184.491E-12	607.219E-3	4.63320E-3
4.63482E-3	184.941E-12	657.680E-3	-18.0332E-3	185.092E-12	622.469E-3	-34.7844E-3
4.62981E-3	183.974E-12	645.107E-3	-34.2321E-3	184.248E-12	639.792E-3	-37.9930E-3
4.62481E-3	184.061E-12	659.168E-3	-25.8567E-3	184.986E-12	663.668E-3	-17.3076E-3
4.61981E-3	182.817E-12	656.174E-3	-14.7095E-3	184.914E-12	683.033E-3	-5.27982E-3
4.61481E-3	182.070E-12	638.441E-3	-8.88534E-3	185.089E-12	674.787E-3	383.065E-6
4.60980E-3	180.876E-12	629.021E-3	-9.27166E-3	184.818E-12	661.089E-3	-2.92683E-3
4.60480E-3	180.403E-12	630.943E-3	-14.5793E-3	184.206E-12	656.387E-3	-9.32406E-3
4.59980E-3	179.753E-12	643.249E-3	-12.6401E-3	183.528E-12	651.125E-3	-10.2478E-3
4.59480E-3	179.271E-12	647.804E-3	-5.21416E-3	182.814E-12	650.886E-3	-12.2469E-3
4.58979E-3	178.847E-12	629.307E-3	-5.76470E-3	181.662E-12	654.596E-3	-16.3176E-3
4.58479E-3	178.745E-12	611.007E-3	-27.5636E-3	180.626E-12	630.378E-3	-11.7401E-3
4.57979E-3	179.709E-12	620.150E-3	-39.9624E-3	179.706E-12	609.568E-3	-3.51529E-3
4.57479E-3	179.030E-12	637.347E-3	-34.2151E-3	179.821E-12	620.928E-3	-14.0551E-3
4.56978E-3	179.584E-12	643.958E-3	-22.7185E-3	178.846E-12	613.485E-3	-35.4912E-3
4.56478E-3	180.454E-12	647.016E-3	-17.7322E-3	178.850E-12	606.741E-3	-32.1015E-3
4.55978E-3	181.401E-12	650.291E-3	-29.8376E-3	178.445E-12	629.956E-3	-14.7044E-3
4.55478E-3	181.397E-12	650.030E-3	-41.4786E-3	178.389E-12	628.720E-3	-21.9243E-3
4.54977E-3	181.438E-12	634.750E-3	-47.7543E-3	177.720E-12	611.904E-3	-18.5498E-3
4.54477E-3	181.625E-12	634.310E-3	-33.0682E-3	178.148E-12	627.313E-3	-7.02392E-3
4.53977E-3	181.281E-12	645.552E-3	-569.684E-6	178.701E-12	646.591E-3	-27.0987E-3
4.53477E-3	180.836E-12	645.216E-3	1.40284E-3	179.206E-12	650.881E-3	-42.1385E-3
4.52976E-3	180.666E-12	643.308E-3	-27.4527E-3	179.356E-12	651.562E-3	-59.5153E-3
4.52476E-3	179.557E-12	635.653E-3	-36.0139E-3	179.874E-12	638.822E-3	-55.9292E-3
4.51976E-3	178.879E-12	635.395E-3	-26.7690E-3	180.444E-12	599.462E-3	-22.1702E-3
4.51476E-3	178.508E-12	657.872E-3	-6.95313E-3	181.091E-12	581.748E-3	-16.4147E-3
4.50975E-3	177.746E-12	679.864E-3	11.1201E-3	180.661E-12	630.523E-3	-29.7388E-3
4.50475E-3	177.080E-12	679.119E-3	-17.2648E-3	180.568E-12	673.361E-3	-44.4395E-3
4.49975E-3	176.707E-12	667.508E-3	-38.2094E-3	179.797E-12	670.707E-3	-44.3939E-3
4.49475E-3	176.770E-12	652.291E-3	-727.077E-6	178.983E-12	658.475E-3	-29.0329E-3
4.48974E-3	176.930E-12	646.707E-3	31.2459E-3	178.486E-12	644.276E-3	-8.88284E-3
4.48474E-3	176.705E-12	651.508E-3	14.2288E-3	177.928E-12	639.750E-3	19.8487E-3
4.47974E-3	176.965E-12	641.346E-3	-18.9045E-3	177.311E-12	651.655E-3	40.0543E-3
4.47474E-3	177.294E-12	633.508E-3	-30.4836E-3	176.535E-12	659.860E-3	19.3913E-3
4.46973E-3	177.526E-12	648.949E-3	-12.9995E-3	176.098E-12	669.046E-3	-30.0714E-3
4.46473E-3	177.577E-12	672.654E-3	-8.60141E-3	175.966E-12	685.418E-3	-34.3612E-3
4.45973E-3	177.655E-12	677.891E-3	-24.2682E-3	175.817E-12	686.784E-3	-5.37357E-3
4.45473E-3	177.104E-12	663.397E-3	-30.3909E-3	175.627E-12	667.781E-3	2.88302E-3
4.44972E-3	176.836E-12	654.566E-3	-27.2110E-3	175.818E-12	650.891E-3	-3.31367E-3
4.44472E-3	175.441E-12	646.880E-3	-7.51086E-3	176.167E-12	648.611E-3	-14.3058E-3
4.43972E-3	175.678E-12	643.614E-3	17.1813E-3	176.611E-12	649.249E-3	-5.33397E-3
4.43472E-3	174.312E-12	653.902E-3	24.0249E-3	177.052E-12	646.180E-3	6.52987E-3
4.42971E-3	174.035E-12	660.904E-3	17.7264E-3	176.919E-12	638.794E-3	-16.7395E-3
4.42471E-3	172.499E-12	659.257E-3	12.8284E-3	177.310E-12	646.766E-3	-38.7227E-3
4.41971E-3	172.292E-12	657.883E-3	20.4005E-3	177.316E-12	667.053E-3	-35.8712E-3
4.41471E-3	171.942E-12	655.056E-3	20.0341E-3	177.068E-12	657.973E-3	-32.8497E-3
4.40970E-3	171.548E-12	647.996E-3	2.36181E-3	176.760E-12	652.177E-3	-38.3257E-3
4.40470E-3	171.880E-12	662.914E-3	6.25689E-3	176.454E-12	672.138E-3	-22.4190E-3
4.39970E-3	171.663E-12	674.112E-3	17.2923E-3	175.576E-12	669.200E-3	3.40077E-3
4.39470E-3	171.999E-12	659.911E-3	22.7755E-3	174.933E-12	644.099E-3	-11.6279E-3
4.38969E-3	172.167E-12	648.794E-3	52.0270E-3	173.680E-12	626.234E-3	-33.0815E-3
4.38469E-3	172.495E-12	637.324E-3	53.5387E-3	173.153E-12	621.743E-3	-22.4048E-3
4.37969E-3	173.292E-12	624.815E-3	-4.75779E-3	172.065E-12	630.023E-3	-7.76273E-3
4.37469E-3	173.806E-12	629.636E-3	-51.6916E-3	172.014E-12	634.821E-3	-21.0881E-3
4.36968E-3	173.632E-12	639.530E-3	-48.3676E-3	171.037E-12	643.744E-3	-20.4828E-3
4.36468E-3	173.754E-12	641.289E-3	-16.6426E-3	170.177E-12	664.590E-3	5.57169E-3
4.35968E-3	173.512E-12	664.570E-3	-7.25212E-3	170.821E-12	676.608E-3	863.839E-6
4.35468E-3	172.654E-12	690.341E-3	-18.5086E-3	170.699E-12	668.161E-3	-9.17473E-3
4.34967E-3	172.247E-12	674.940E-3	1.87051E-3	170.461E-12	658.409E-3	-6.79111E-3
4.34467E-3	171.475E-12	630.982E-3	23.0561E-3	169.982E-12	661.477E-3	-9.95531E-3
4.33967E-3	170.894E-12	610.752E-3	7.42401E-3	169.946E-12	659.247E-3	-6.72615E-3
4.33467E-3	170.235E-12	638.324E-3	-25.0548E-3	170.260E-12	662.073E-3	-3.73626E-3
4.32966E-3	170.697E-12	659.957E-3	-35.7561E-3	170.352E-12	663.393E-3	-12.3492E-3
4.32466E-3	170.271E-12	657.282E-3	-16.4350E-3	170.377E-12	668.757E-3	-20.1123E-3
4.31966E-3	170.286E-12	668.219E-3	4.61593E-3	170.028E-12	679.181E-3	-10.9315E-3
4.31466E-3	171.004E-12	675.350E-3	10.6245E-3	170.071E-12	667.769E-3	-3.64933E-3
4.30965E-3	170.788E-12	651.661E-3	14.9034E-3	169.952E-12	652.162E-3	-12.8155E-3
4.30465E-3	170.902E-12	638.792E-3	14.3128E-3	169.735E-12	652.710E-3	-9.31210E-3
4.29965E-3	170.148E-12	650.965E-3	3.05093E-3	169.225E-12	662.424E-3	733.948E-6
4.29465E-3	170.294E-12	673.147E-3	-16.5252E-3	169.653E-12	659.682E-3	4.47722E-3
4.28964E-3	169.507E-12	684.241E-3	-44.4775E-3	169.250E-12	646.661E-3	1.69986E-3
4.28464E-3	169.965E-12	668.999E-3	-53.4455E-3	168.891E-12	660.306E-3	-9.36714E-3
4.27964E-3	169.385E-12	648.664E-3	-50.5768E-3	168.486E-12	688.743E-3	-17.3476E-3
4.27464E-3	169.710E-12	628.173E-3	-36.8308E-3	167.994E-12	684.258E-3	-16.6709E-3
4.26963E-3	169.237E-12	626.695E-3	-691.467E-6	168.159E-12	660.065E-3	-11.9532E-3
4.26463E-3	169.219E-12	640.983E-3	19.8018E-3	167.967E-12	628.935E-3	-6.03161E-3
4.25963E-3	168.815E-12	639.406E-3	5.46115E-3	168.263E-12	598.857E-3	-12.1284E-3
4.25463E-3	168.339E-12	632.883E-3	-2.58163E-3	167.625E-12	611.840E-3	-29.6799E-3
4.24962E-3	167.623E-12	642.244E-3	8.34854E-3	168.035E-12	654.880E-3	-32.4774E-3
4.24462E-3	166.734E-12	641.585E-3	10.7750E-3	167.126E-12	672.266E-3	-23.0601E-3
4.23962E-3	166.402E-12	626.506E-3	-5.43674E-3	166.795E-12	654.596E-3	-10.5470E-3
4.23462E-3	166.098E-12	625.833E-3	-20.2018E-3	166.476E-12	640.117E-3	-10.1149E-3
4.22961E-3	165.977E-12	633.665E-3	-22.2338E-3	165.803E-12	644.003E-3	-25.3058E-3
4.22461E-3	165.196E-12	652.221E-3	-29.5559E-3	166.011E-12	657.740E-3	-29.6101E-3
4.21961E-3	165.955E-12	672.967E-3	-31.8341E-3	166.003E-12	677.613E-3	-19.8614E-3
4.21461E-3	165.058E-12	669.101E-3	-30.5381E-3	166.592E-12	679.635E-3	-25.9536E-3
4.20960E-3	164.537E-12	659.086E-3	-31.8605E-3	166.656E-12	666.206E-3	-60.5373E-3
4.20460E-3	164.389E-12	652.042E-3	-27.1962E-3	166.382E-12	659.575E-3	-80.6283E-3
4.19960E-3	164.181E-12	630.070E-3	-28.0596E-3	165.973E-12	659.379E-3	-57.7651E-3
4.19460E-3	163.613E-12	625.039E-3	-28.2643E-3	166.673E-12	671.665E-3	-46.3225E-3
4.18959E-3	163.797E-12	654.735E-3	-14.0791E-3	166.253E-12	681.857E-3	-51.6839E-3
4.18459E-3	163.447E-12	664.633E-3	-1.95524E-3	166.491E-12	678.636E-3	-42.8474E-3
4.17959E-3	162.879E-12	658.372E-3	1.35076E-3	166.601E-12	666.381E-3	-36.6891E-3
4.17459E-3	162.810E-12	663.791E-3	-247.627E-6	166.245E-12	649.646E-3	-13.9956E-3
4.16958E-3	162.540E-12	648.422E-3	1.42504E-3	166.474E-12	646.995E-3	677.849E-6
4.16458E-3	162.141E-12	640.505E-3	5.13063E-3	165.490E-12	665.344E-3	-14.0126E-3
4.15958E-3	161.874E-12	662.206E-3	-10.3235E-3	165.269E-12	682.163E-3	-8.30935E-3
4.15458E-3	161.839E-12	662.423E-3	-22.6920E-3	164.113E-12	666.483E-3	-3.18111E-3
4.14957E-3	162.293E-12	634.317E-3	-16.2838E-3	164.104E-12	641.183E-3	-6.71230E-3
4.14457E-3	162.411E-12	629.657E-3	-7.83950E-3	162.855E-12	642.882E-3	10.3509E-3
4.13957E-3	161.577E-12	649.563E-3	-6.82360E-3	162.661E-12	676.845E-3	19.3421E-3
4.13457E-3	162.485E-12	654.482E-3	-10.5393E-3	162.060E-12	695.256E-3	9.07058E-3
4.12956E-3	162.564E-12	650.242E-3	-13.9542E-3	161.608E-12	676.185E-3	-18.2237E-3
4.12456E-3	162.786E-12	650.179E-3	-19.5441E-3	162.187E-12	670.028E-3	-48.4751E-3
4.11956E-3	162.326E-12	652.640E-3	-19.0500E-3	161.592E-12	669.039E-3	-41.5950E-3
4.11456E-3	162.294E-12	657.068E-3	-8.13144E-3	161.679E-12	662.785E-3	-16.2476E-3
4.10955E-3	162.249E-12	661.503E-3	3.96795E-3	161.641E-12	679.354E-3	-9.34740E-3
4.10455E-3	161.370E-12	657.626E-3	5.65311E-3	162.415E-12	687.348E-3	-12.7690E-3
4.09955E-3	160.592E-12	656.942E-3	4.04744E-3	162.269E-12	669.210E-3	-11.5758E-3
4.09455E-3	160.281E-12	661.139E-3	-9.05751E-3	162.424E-12	670.380E-3	-16.8027E-3
4.08954E-3	159.787E-12	648.723E-3	-27.6000E-3	162.003E-12	685.871E-3	-25.9865E-3
4.08454E-3	159.104E-12	645.054E-3	-27.0635E-3	162.635E-12	676.744E-3	-13.6197E-3
4.07954E-3	158.534E-12	650.711E-3	-19.1241E-3	161.942E-12	653.443E-3	7.36040E-3
4.07454E-3	158.466E-12	638.977E-3	-21.2293E-3	161.657E-12	644.533E-3	4.47963E-3
4.06953E-3	158.228E-12	629.512E-3	-29.9395E-3	160.717E-12	643.918E-3	-14.8435E-3
4.06453E-3	157.521E-12	639.281E-3	-29.6775E-3	160.598E-12	651.758E-3	-18.0818E-3
4.05953E-3	157.479E-12	643.499E-3	-30.8719E-3	159.176E-12	669.859E-3	-6.21500E-3
4.05453E-3	158.066E-12	627.921E-3	-35.0362E-3	158.510E-12	660.353E-3	2.22078E-3
4.04952E-3	157.987E-12	618.045E-3	-23.7981E-3	158.011E-12	631.700E-3	3.25767E-3
4.04452E-3	158.237E-12	623.248E-3	-11.0324E-3	156.743E-12	627.847E-3	-4.91472E-3
4.03952E-3	158.164E-12	638.825E-3	-28.4391E-3	156.393E-12	646.462E-3	-6.82058E-3
4.03452E-3	158.354E-12	661.346E-3	-33.1349E-3	155.596E-12	663.385E-3	3.83582E-3
4.02951E-3	157.877E-12	666.113E-3	-4.99441E-3	156.259E-12	666.271E-3	-1.03770E-3
4.02451E-3	157.592E-12	653.068E-3	-6.35634E-3	155.414E-12	661.806E-3	-21.8658E-3
4.01951E-3	157.751E-12	655.969E-3	-32.0138E-3	156.053E-12	649.495E-3	-31.2744E-3
4.01451E-3	157.288E-12	662.219E-3	-27.0065E-3	155.679E-12	641.043E-3	-34.4518E-3
4.00950E-3	156.438E-12	651.277E-3	-20.4236E-3	156.356E-12	659.506E-3	-42.8169E-3
4.00450E-3	155.911E-12	653.734E-3	-33.9183E-3	156.164E-12	679.847E-3	-29.1258E-3
3.99950E-3	155.071E-12	659.291E-3	-29.5685E-3	155.974E-12	690.842E-3	-4.45396E-3
3.99450E-3	154.389E-12	658.181E-3	978.594E-6	156.670E-12	673.179E-3	-15.3857E-3
3.98949E-3	153.776E-12	670.901E-3	22.2015E-3	156.059E-12	635.033E-3	-25.6611E-3
3.98449E-3	153.235E-12	681.644E-3	-1.20706E-3	156.172E-12	612.053E-3	-2.14536E-3
3.97949E-3	153.246E-12	682.007E-3	-15.5067E-3	155.279E-12	606.075E-3	20.2333E-3
3.97449E-3	152.652E-12	680.225E-3	-15.2964E-3	155.437E-12	612.631E-3	21.3833E-3
3.96948E-3	152.864E-12	681.455E-3	-34.5024E-3	154.505E-12	629.887E-3	3.15779E-3
3.96448E-3	152.809E-12	678.659E-3	-31.1464E-3	154.045E-12	661.176E-3	-19.9937E-3
3.95948E-3	153.466E-12	668.446E-3	-33.7128E-3	153.218E-12	674.355E-3	-40.3908E-3
3.95448E-3	153.893E-12	656.546E-3	-58.9526E-3	152.809E-12	667.204E-3	-46.6444E-3
3.94947E-3	154.352E-12	637.437E-3	-41.9293E-3	151.960E-12	670.319E-3	-19.1284E-3
3.94447E-3	154.736E-12	628.902E-3	-15.5147E-3	152.101E-12	681.210E-3	-2.14459E-3
3.93947E-3	155.237E-12	645.658E-3	-16.6112E-3	152.543E-12	675.583E-3	-20.4837E-3
3.93447E-3	155.185E-12	665.594E-3	-16.1463E-3	152.345E-12	666.745E-3	-18.8361E-3
3.92946E-3	154.841E-12	669.640E-3	-19.3211E-3	153.127E-12	675.387E-3	-7.27993E-3
3.92446E-3	154.912E-12	664.450E-3	-16.0661E-3	153.221E-12	678.237E-3	-25.3208E-3
3.91946E-3	154.518E-12	664.245E-3	-8.86909E-3	154.375E-12	663.087E-3	-36.8010E-3
3.91446E-3	153.734E-12	672.791E-3	-15.8654E-3	153.920E-12	648.676E-3	-18.1853E-3
3.90945E-3	153.437E-12	696.064E-3	-25.7815E-3	154.507E-12	653.373E-3	5.37115E-3
3.90445E-3	152.775E-12	700.534E-3	-32.5775E-3	153.862E-12	653.740E-3	8.61933E-3
3.89945E-3	152.197E-12	663.129E-3	-37.0369E-3	154.309E-12	644.868E-3	-8.79883E-3
3.89445E-3	151.252E-12	632.749E-3	-39.6103E-3	153.528E-12	654.332E-3	-19.1020E-3
3.88944E-3	150.881E-12	632.116E-3	-42.2012E-3	153.572E-12	670.807E-3	-22.3058E-3
3.88444E-3	150.383E-12	637.089E-3	-41.1205E-3	153.268E-12	677.238E-3	-27.9458E-3
3.87944E-3	150.366E-12	649.937E-3	-27.4541E-3	152.084E-12	666.759E-3	-30.5937E-3
3.87444E-3	150.573E-12	666.623E-3	-10.7576E-3	152.632E-12	661.291E-3	-23.1619E-3
3.86943E-3	150.722E-12	666.424E-3	-12.0891E-3	151.572E-12	683.903E-3	-7.85793E-3
3.86443E-3	150.742E-12	661.163E-3	-23.2816E-3	151.667E-12	705.193E-3	-9.23236E-3
3.85943E-3	150.515E-12	663.297E-3	-27.5365E-3	150.908E-12	699.177E-3	-30.1767E-3
3.85443E-3	150.923E-12	662.902E-3	-30.8168E-3	151.443E-12	683.559E-3	-35.0147E-3
3.84942E-3	150.263E-12	649.635E-3	-30.4870E-3	150.702E-12	666.526E-3	-21.2305E-3
3.84442E-3	150.171E-12	637.885E-3	-29.1598E-3	151.152E-12	652.280E-3	-17.8621E-3
3.83942E-3	150.312E-12	644.418E-3	-36.7336E-3	150.822E-12	651.214E-3	-19.5164E-3
3.83442E-3	150.005E-12	666.825E-3	-38.1395E-3	150.549E-12	663.162E-3	-16.7958E-3
3.82941E-3	149.613E-12	682.728E-3	-17.3855E-3	150.733E-12	678.911E-3	-15.8327E-3
3.82441E-3	149.015E-12	677.195E-3	4.77713E-3	150.041E-12	681.225E-3	-24.9741E-3
3.81941E-3	148.622E-12	663.367E-3	-1.79204E-3	150.129E-12	677.370E-3	-38.0324E-3
3.81441E-3	147.556E-12	651.760E-3	-7.74337E-3	149.855E-12	670.686E-3	-30.3791E-3
3.80940E-3	147.659E-12	643.296E-3	-6.58329E-3	149.485E-12	656.613E-3	-8.62167E-3
3.80440E-3	147.134E-12	643.473E-3	-25.5501E-3	148.914E-12	661.815E-3	-15.8892E-3
3.79940E-3	146.266E-12	644.597E-3	-33.3876E-3	149.234E-12	675.942E-3	-30.3636E-3
3.79440E-3	146.145E-12	635.579E-3	-13.5320E-3	148.487E-12	668.866E-3	-17.5117E-3
3.78939E-3	145.661E-12	627.514E-3	-4.00530E-3	148.271E-12	651.970E-3	3.82866E-3
3.78439E-3	145.201E-12	618.655E-3	-8.68217E-3	147.285E-12	641.238E-3	19.0097E-3
3.77939E-3	145.148E-12	617.557E-3	-12.1895E-3	146.987E-12	634.594E-3	9.65711E-3
3.77439E-3	145.209E-12	626.878E-3	-20.7312E-3	146.643E-12	628.415E-3	6.33575E-3
3.76938E-3	144.815E-12	636.961E-3	-27.6931E-3	145.869E-12	626.633E-3	23.8336E-3
3.76438E-3	145.084E-12	654.504E-3	-29.7118E-3	145.300E-12	634.198E-3	6.61849E-3
3.75938E-3	145.247E-12	659.824E-3	-34.4875E-3	145.335E-12	654.590E-3	-23.1186E-3
3.75438E-3	144.592E-12	649.666E-3	-42.4688E-3	145.354E-12	657.236E-3	-22.2472E-3
3.74937E-3	144.449E-12	648.507E-3	-55.9063E-3	144.601E-12	642.658E-3	-19.2220E-3
3.74437E-3	144.344E-12	648.688E-3	-67.2828E-3	145.190E-12	644.819E-3	-33.3868E-3
3.73937E-3	144.687E-12	648.459E-3	-56.0274E-3	144.868E-12	656.453E-3	-44.9509E-3
3.73437E-3	143.795E-12	647.863E-3	-18.3078E-3	144.166E-12	665.378E-3	-37.4232E-3
3.72936E-3	144.653E-12	645.325E-3	13.9557E-3	143.711E-12	668.912E-3	-29.1911E-3
3.72436E-3	144.243E-12	656.132E-3	17.4761E-3	143.981E-12	659.937E-3	-22.8299E-3
3.71936E-3	143.903E-12	676.135E-3	9.52809E-3	143.360E-12	650.616E-3	-15.1247E-3
3.71436E-3	143.699E-12	683.433E-3	-6.16020E-3	142.539E-12	655.574E-3	-6.80787E-3
3.70935E-3	143.763E-12	672.757E-3	-31.6029E-3	142.378E-12	666.866E-3	2.51814E-3
3.70435E-3	143.510E-12	665.313E-3	-30.0264E-3	142.127E-12	674.176E-3	1.26783E-3
3.69935E-3	143.755E-12	664.907E-3	-10.3459E-3	142.343E-12	657.344E-3	-3.54191E-3
3.69435E-3	143.691E-12	672.626E-3	-8.95164E-3	142.129E-12	626.835E-3	-18.1143E-3
3.68934E-3	143.797E-12	679.833E-3	-21.4528E-3	142.029E-12	619.458E-3	-35.4174E-3
3.68434E-3	143.215E-12	664.397E-3	-26.1769E-3	141.993E-12	636.860E-3	-29.3705E-3
3.67934E-3	143.322E-12	651.322E-3	-29.6871E-3	141.793E-12	647.151E-3	-16.6229E-3
3.67434E-3	142.933E-12	648.909E-3	-34.1879E-3	141.542E-12	639.295E-3	-20.3522E-3
3.66933E-3	142.785E-12	644.180E-3	-22.0895E-3	141.837E-12	639.889E-3	-31.5654E-3
3.66433E-3	141.961E-12	650.771E-3	-17.9766E-3	142.436E-12	652.103E-3	-34.7523E-3
3.65933E-3	141.561E-12	663.765E-3	-25.7878E-3	142.042E-12	667.733E-3	-21.3056E-3
3.65433E-3	141.410E-12	652.878E-3	-7.11809E-3	142.227E-12	670.863E-3	-9.89107E-3
3.64932E-3	140.815E-12	628.787E-3	10.8404E-3	141.759E-12	660.640E-3	-11.8900E-3
3.64432E-3	140.688E-12	632.848E-3	-1.35248E-3	141.849E-12	660.238E-3	-8.21499E-3
3.63932E-3	140.163E-12	646.537E-3	-11.0924E-3	140.732E-12	663.459E-3	-3.02043E-3
3.63432E-3	140.409E-12	638.991E-3	-13.3231E-3	140.539E-12	672.034E-3	-6.29653E-3
3.62931E-3	140.067E-12	643.685E-3	-21.6783E-3	139.635E-12	673.644E-3	-13.4080E-3
3.62431E-3	140.180E-12	662.163E-3	-25.6498E-3	139.604E-12	650.530E-3	-23.6437E-3
3.61931E-3	139.915E-12	659.329E-3	-28.0750E-3	139.180E-12	629.169E-3	-22.7723E-3
3.61431E-3	139.505E-12	667.070E-3	-34.3805E-3	138.684E-12	641.324E-3	-13.3015E-3
3.60930E-3	139.303E-12	686.521E-3	-26.5825E-3	138.567E-12	658.836E-3	-12.7127E-3
3.60430E-3	139.118E-12	684.665E-3	-27.8168E-3	138.352E-12	654.575E-3	-11.3356E-3
3.59930E-3	139.142E-12	675.057E-3	-46.6620E-3	138.508E-12	647.715E-3	-12.2635E-3
3.59430E-3	138.645E-12	672.839E-3	-38.6376E-3	138.680E-12	646.421E-3	-16.3425E-3
3.58929E-3	138.691E-12	672.029E-3	-18.4506E-3	138.949E-12	663.794E-3	-16.0607E-3
3.58429E-3	138.825E-12	673.683E-3	-23.1083E-3	139.161E-12	678.985E-3	-13.1319E-3
3.57929E-3	137.983E-12	689.865E-3	-34.0198E-3	139.703E-12	667.434E-3	-20.6186E-3
3.57429E-3	137.771E-12	699.711E-3	-29.1017E-3	139.893E-12	640.960E-3	-31.5150E-3
3.56928E-3	137.117E-12	676.253E-3	-13.6353E-3	139.725E-12	625.657E-3	-27.1856E-3
3.56428E-3	137.213E-12	650.652E-3	-5.49008E-3	140.209E-12	646.019E-3	-20.3011E-3
3.55928E-3	136.117E-12	641.547E-3	-25.8993E-3	139.731E-12	665.100E-3	-12.1767E-3
3.55428E-3	135.939E-12	644.495E-3	-49.0571E-3	139.200E-12	647.167E-3	-58.7327E-6
3.54927E-3	135.361E-12	668.103E-3	-39.7729E-3	138.714E-12	629.406E-3	7.89119E-3
3.54427E-3	135.439E-12	676.773E-3	-23.0081E-3	137.972E-12	644.943E-3	14.2355E-3
3.53927E-3	134.483E-12	665.023E-3	-16.8888E-3	137.156E-12	667.964E-3	16.9159E-3
3.53427E-3	135.255E-12	657.546E-3	-12.9594E-3	136.608E-12	665.858E-3	6.42481E-3
3.52926E-3	134.813E-12	654.292E-3	-18.3213E-3	135.669E-12	664.023E-3	787.842E-6
3.52426E-3	134.853E-12	661.208E-3	-23.7686E-3	135.142E-12	671.685E-3	2.84684E-3
3.51926E-3	135.043E-12	668.400E-3	-18.4371E-3	134.528E-12	667.562E-3	-10.8265E-3
3.51426E-3	135.000E-12	659.877E-3	820.165E-6	133.907E-12	664.353E-3	-27.2648E-3
3.50925E-3	135.144E-12	644.803E-3	27.0641E-3	133.575E-12	666.990E-3	-26.6303E-3
3.50425E-3	135.024E-12	632.479E-3	21.1449E-3	133.767E-12	667.692E-3	-7.92415E-3
3.49925E-3	134.718E-12	635.395E-3	-1.29380E-3	133.523E-12	676.961E-3	7.83309E-3
3.49425E-3	134.680E-12	643.891E-3	-7.73451E-3	133.545E-12	692.810E-3	-2.07890E-3
3.48924E-3	134.620E-12	642.552E-3	-11.2749E-3	134.078E-12	684.907E-3	-21.1306E-3
3.48424E-3	134.077E-12	641.019E-3	-13.0327E-3	134.542E-12	675.108E-3	-22.6448E-3
3.47924E-3	133.630E-12	651.168E-3	-4.68657E-3	134.004E-12	675.980E-3	-9.32044E-3
3.47424E-3	133.230E-12	674.596E-3	1.91011E-3	133.873E-12	654.289E-3	-7.49452E-3
3.46923E-3	132.618E-12	682.502E-3	2.76809E-3	134.017E-12	638.499E-3	-11.8612E-3
3.46423E-3	132.053E-12	660.764E-3	-643.755E-6	133.541E-12	660.862E-3	4.61934E-3
3.45923E-3	131.552E-12	641.591E-3	-6.55091E-3	132.594E-12	687.692E-3	15.8929E-3
3.45423E-3	131.637E-12	648.253E-3	-4.17532E-3	132.340E-12	692.448E-3	6.15588E-3
3.44922E-3	131.667E-12	656.790E-3	-4.98756E-3	132.051E-12	685.924E-3	-1.68979E-3
3.44422E-3	131.588E-12	650.774E-3	4.87148E-3	131.107E-12	656.811E-3	-2.98309E-3
3.43922E-3	131.285E-12	641.673E-3	22.6949E-3	130.294E-12	620.003E-3	-11.1049E-3
3.43422E-3	131.202E-12	636.869E-3	7.27229E-3	129.930E-12	621.200E-3	-27.6189E-3
3.42921E-3	130.800E-12	651.110E-3	-11.8314E-3	129.806E-12	638.303E-3	-23.0123E-3
3.42421E-3	130.618E-12	655.898E-3	-12.1001E-3	129.337E-12	632.921E-3	-3.68422E-3
3.41921E-3	130.423E-12	640.033E-3	-19.9202E-3	128.974E-12	624.591E-3	-11.4054E-3
3.41421E-3	130.299E-12	637.916E-3	-20.1759E-3	128.923E-12	634.966E-3	-37.2133E-3
3.40920E-3	129.992E-12	659.176E-3	7.14369E-3	128.722E-12	636.563E-3	-41.2888E-3
3.40420E-3	129.508E-12	683.255E-3	20.5640E-3	128.940E-12	638.017E-3	-26.5181E-3
3.39920E-3	130.455E-12	675.498E-3	725.307E-6	128.783E-12	651.890E-3	-12.6867E-3
3.39420E-3	129.859E-12	644.554E-3	-14.0790E-3	129.393E-12	653.889E-3	3.52960E-3
3.38919E-3	129.757E-12	637.593E-3	-4.06823E-3	129.088E-12	656.038E-3	5.99050E-3
3.38419E-3	128.953E-12	659.681E-3	1.12394E-3	129.112E-12	676.149E-3	-10.1366E-3
3.37919E-3	129.109E-12	680.767E-3	-9.17330E-3	129.088E-12	691.655E-3	-16.5798E-3
3.37419E-3	128.302E-12	683.984E-3	-20.1034E-3	129.055E-12	686.519E-3	-11.3845E-3
3.36918E-3	127.831E-12	670.901E-3	-28.7640E-3	129.220E-12	683.227E-3	-15.0829E-3
3.36418E-3	127.580E-12	678.516E-3	-25.5666E-3	128.512E-12	687.581E-3	-26.4248E-3
3.35918E-3	127.414E-12	688.831E-3	-24.0932E-3	128.666E-12	690.066E-3	-19.0616E-3
3.35418E-3	127.173E-12	660.505E-3	-42.8317E-3	128.620E-12	677.735E-3	-4.84686E-3
3.34917E-3	127.071E-12	636.627E-3	-56.0389E-3	128.478E-12	655.237E-3	-8.62058E-3
3.34417E-3	126.738E-12	633.638E-3	-42.6012E-3	127.926E-12	646.266E-3	-4.93841E-3
3.33917E-3	126.852E-12	631.742E-3	-22.6784E-3	127.870E-12	656.403E-3	363.482E-6
3.33417E-3	126.517E-12	649.035E-3	-15.4591E-3	127.374E-12	671.571E-3	-17.1812E-3
3.32916E-3	126.239E-12	668.224E-3	-9.51227E-3	127.348E-12	673.093E-3	-21.4002E-3
3.32416E-3	126.240E-12	659.912E-3	-4.13391E-3	127.484E-12	666.160E-3	-16.2050E-3
3.31916E-3	126.007E-12	659.337E-3	-12.4555E-3	127.091E-12	662.813E-3	-9.53353E-3
3.31416E-3	125.850E-12	670.187E-3	-18.8803E-3	127.212E-12	660.210E-3	9.57280E-3
3.30915E-3	125.692E-12	660.618E-3	-24.0101E-3	127.230E-12	663.269E-3	1.19381E-3
3.30415E-3	126.120E-12	655.299E-3	-23.0803E-3	126.966E-12	668.659E-3	-32.2323E-3
3.29915E-3	125.338E-12	661.845E-3	-11.1784E-3	126.403E-12	667.627E-3	-42.7480E-3
3.29415E-3	125.270E-12	659.769E-3	-541.783E-6	125.963E-12	672.321E-3	-23.4649E-3
3.28914E-3	125.056E-12	681.175E-3	2.15298E-3	125.614E-12	684.400E-3	-12.6133E-3
3.28414E-3	124.707E-12	689.861E-3	-5.74894E-3	125.273E-12	683.184E-3	-20.9422E-3
3.27914E-3	124.420E-12	655.347E-3	-12.2592E-3	124.889E-12	670.318E-3	-22.8253E-3
3.27414E-3	123.970E-12	648.672E-3	-4.40069E-3	124.588E-12	662.625E-3	-25.2263E-3
3.26913E-3	123.943E-12	665.343E-3	15.3890E-3	124.290E-12	654.296E-3	-35.5925E-3
3.26413E-3	124.102E-12	669.070E-3	13.9985E-3	123.933E-12	651.228E-3	-22.1401E-3
3.25913E-3	123.991E-12	663.558E-3	-9.36871E-3	123.792E-12	659.271E-3	3.74369E-3
3.25413E-3	123.513E-12	661.066E-3	-15.6492E-3	123.861E-12	661.818E-3	-1.03587E-3
3.24912E-3	123.119E-12	673.140E-3	-19.6945E-3	123.628E-12	665.275E-3	-19.4666E-3
3.24412E-3	123.093E-12	684.103E-3	-36.6097E-3	123.260E-12	675.410E-3	-34.5434E-3
3.23912E-3	122.815E-12	683.667E-3	-35.2028E-3	123.317E-12	674.772E-3	-38.9314E-3
3.23412E-3	122.676E-12	680.634E-3	-16.9383E-3	123.066E-12	666.078E-3	-21.3976E-3
3.22911E-3	122.268E-12	684.369E-3	-11.9744E-3	123.105E-12	675.184E-3	-8.02398E-3
3.22411E-3	122.400E-12	692.224E-3	-18.6539E-3	122.818E-12	689.329E-3	-16.5629E-3
3.21911E-3	121.696E-12	677.713E-3	-18.6864E-3	122.462E-12	677.390E-3	-17.1131E-3
3.21411E-3	121.583E-12	657.522E-3	-28.5221E-3	122.245E-12	663.307E-3	2.19896E-3
3.20910E-3	120.622E-12	667.807E-3	-45.3436E-3	121.352E-12	672.571E-3	4.13334E-3
3.20410E-3	120.274E-12	676.468E-3	-42.1947E-3	120.715E-12	686.504E-3	10.2153E-3
3.19910E-3	119.869E-12	662.838E-3	-50.3423E-3	120.527E-12	682.156E-3	19.2170E-3
3.19410E-3	119.820E-12	659.068E-3	-53.7134E-3	119.819E-12	675.145E-3	-13.1450E-3
3.18909E-3	119.683E-12	678.127E-3	-22.7693E-3	118.947E-12	678.452E-3	-38.9852E-3
3.18409E-3	119.037E-12	681.137E-3	-8.25566E-3	118.485E-12	684.432E-3	-28.6078E-3
3.17909E-3	118.975E-12	663.441E-3	-19.5218E-3	118.392E-12	685.280E-3	-32.0958E-3
3.17409E-3	119.212E-12	649.853E-3	-18.3002E-3	118.173E-12	676.767E-3	-35.6848E-3
3.16908E-3	118.908E-12	648.702E-3	-10.2444E-3	118.272E-12	668.548E-3	-20.6491E-3
3.16408E-3	119.092E-12	659.629E-3	-14.6460E-3	118.146E-12	663.357E-3	-24.3709E-3
3.15908E-3	118.664E-12	662.885E-3	-29.7702E-3	118.607E-12	665.041E-3	-31.3672E-3
3.15408E-3	118.582E-12	651.789E-3	-32.7932E-3	118.523E-12	679.383E-3	-24.3054E-3
3.14907E-3	118.496E-12	645.214E-3	-21.8858E-3	118.937E-12	687.917E-3	-20.2263E-3
3.14407E-3	118.421E-12	658.570E-3	-32.7890E-3	118.870E-12	683.222E-3	-16.0509E-3
3.13907E-3	118.279E-12	675.303E-3	-52.5247E-3	119.402E-12	681.950E-3	-8.06667E-3
3.13407E-3	117.981E-12	678.077E-3	-40.9626E-3	119.091E-12	678.184E-3	-2.62100E-3
3.12906E-3	118.159E-12	680.442E-3	-19.8925E-3	119.293E-12	673.147E-3	-5.00766E-3
3.12406E-3	117.693E-12	678.631E-3	-25.5435E-3	119.143E-12	670.404E-3	-15.9412E-3
3.11906E-3	117.135E-12	671.643E-3	-43.1720E-3	118.431E-12	669.460E-3	-34.4135E-3
3.11406E-3	116.790E-12	674.082E-3	-48.9784E-3	117.569E-12	659.644E-3	-43.3066E-3
3.10905E-3	116.147E-12	682.677E-3	-40.7791E-3	116.753E-12	640.975E-3	-27.1794E-3
3.10405E-3	116.382E-12	688.482E-3	-26.8502E-3	116.473E-12	656.911E-3	-19.4969E-3
3.09905E-3	115.807E-12	674.257E-3	-18.6117E-3	115.754E-12	685.206E-3	-27.9800E-3
3.09405E-3	116.069E-12	657.156E-3	-10.1844E-3	115.163E-12	684.668E-3	-8.33737E-3
3.08904E-3	116.082E-12	659.917E-3	-5.36377E-3	114.906E-12	681.671E-3	21.1721E-3
3.08404E-3	116.584E-12	675.658E-3	-15.1029E-3	114.887E-12	693.058E-3	2.25290E-3
3.07904E-3	116.353E-12	692.407E-3	-21.8591E-3	114.611E-12	705.661E-3	-35.5584E-3
3.07404E-3	116.470E-12	688.549E-3	-23.1582E-3	114.895E-12	699.035E-3	-38.6999E-3
3.06903E-3	116.212E-12	685.769E-3	-30.3964E-3	114.702E-12	676.019E-3	-25.1602E-3
3.06403E-3	116.307E-12	689.457E-3	-37.1126E-3	115.286E-12	667.061E-3	-19.5632E-3
3.05903E-3	115.966E-12	682.012E-3	-31.1288E-3	114.993E-12	693.158E-3	-21.4125E-3
3.05403E-3	115.949E-12	688.317E-3	-27.8362E-3	115.689E-12	714.642E-3	-28.0537E-3
3.04902E-3	115.565E-12	690.341E-3	-41.3080E-3	115.588E-12	705.943E-3	-31.4695E-3
3.04402E-3	115.071E-12	679.930E-3	-55.3359E-3	115.550E-12	699.749E-3	-26.3903E-3
3.03902E-3	114.606E-12	680.132E-3	-53.7074E-3	115.385E-12	692.404E-3	-21.7958E-3
3.03402E-3	114.024E-12	678.466E-3	-24.1615E-3	115.466E-12	683.100E-3	-16.9700E-3
3.02901E-3	113.539E-12	663.994E-3	3.22103E-3	115.000E-12	690.906E-3	-1.95690E-3
3.02401E-3	112.788E-12	648.405E-3	-4.76773E-3	114.012E-12	690.639E-3	2.29796E-3
3.01901E-3	112.081E-12	650.478E-3	-7.76876E-3	113.511E-12	665.017E-3	-9.80924E-3
3.01401E-3	111.912E-12	668.174E-3	-7.03366E-3	112.761E-12	653.517E-3	-20.6827E-3
3.00900E-3	111.675E-12	672.445E-3	-22.7156E-3	112.187E-12	665.571E-3	-40.2852E-3
3.00400E-3	110.846E-12	673.450E-3	-35.8260E-3	111.717E-12	679.007E-3	-62.3314E-3
2.99900E-3	110.458E-12	678.166E-3	-47.4715E-3	111.079E-12	682.156E-3	-55.9417E-3
2.99400E-3	110.807E-12	663.783E-3	-53.6983E-3	110.905E-12	677.978E-3	-32.3007E-3
2.98899E-3	110.582E-12	649.558E-3	-36.5476E-3	110.648E-12	678.742E-3	-14.9826E-3
2.98399E-3	110.697E-12	649.301E-3	-12.4692E-3	110.427E-12	673.482E-3	-3.10117E-3
2.97899E-3	110.474E-12	642.272E-3	-23.0335E-3	110.380E-12	662.189E-3	597.404E-6
2.97399E-3	110.463E-12	636.636E-3	-30.7381E-3	110.657E-12	662.620E-3	592.774E-6
2.96898E-3	110.224E-12	650.644E-3	-14.6514E-3	110.547E-12	678.046E-3	666.033E-6
2.96398E-3	109.672E-12	668.878E-3	-10.7832E-3	110.870E-12	687.382E-3	-10.4672E-3
2.95898E-3	109.299E-12	675.076E-3	-7.93187E-3	111.177E-12	675.848E-3	-16.1182E-3
2.95398E-3	109.123E-12	670.973E-3	3.91907E-3	111.036E-12	669.976E-3	-4.28793E-3
2.94897E-3	108.895E-12	670.349E-3	-3.09285E-3	110.815E-12	692.111E-3	3.75583E-3
2.94397E-3	108.515E-12	662.556E-3	-17.0800E-3	110.981E-12	698.739E-3	-10.1510E-3
2.93897E-3	108.342E-12	651.636E-3	-16.9634E-3	110.817E-12	683.098E-3	-27.8732E-3
2.93397E-3	107.513E-12	666.626E-3	-19.9678E-3	110.065E-12	676.383E-3	-22.6635E-3
2.92896E-3	107.231E-12	681.744E-3	-23.4009E-3	110.205E-12	681.630E-3	-12.3768E-3
2.92396E-3	106.550E-12	668.407E-3	-15.1319E-3	109.548E-12	701.794E-3	-12.8552E-3
2.91896E-3	106.442E-12	669.974E-3	-11.6092E-3	109.270E-12	707.429E-3	-17.8314E-3
2.91396E-3	106.225E-12	690.014E-3	-26.8610E-3	108.810E-12	688.493E-3	-34.3054E-3
2.90895E-3	105.877E-12	688.268E-3	-30.0393E-3	108.693E-12	681.651E-3	-36.6697E-3
2.90395E-3	106.205E-12	674.885E-3	-17.8311E-3	108.062E-12	692.922E-3	-13.0067E-3
2.89895E-3	106.580E-12	670.677E-3	-18.8058E-3	107.744E-12	697.792E-3	-9.36724E-3
2.89395E-3	106.798E-12	666.550E-3	-11.9163E-3	107.506E-12	693.620E-3	-14.5120E-3
2.88894E-3	106.733E-12	666.237E-3	-1.57996E-3	107.259E-12	685.661E-3	-8.53154E-3
2.88394E-3	106.945E-12	682.863E-3	-15.8316E-3	106.972E-12	677.371E-3	-18.6043E-3
2.87894E-3	106.791E-12	688.647E-3	-35.5770E-3	106.632E-12	674.532E-3	-20.4428E-3
2.87394E-3	107.083E-12	670.127E-3	-41.4083E-3	106.327E-12	679.646E-3	-6.27436E-3
2.86893E-3	106.892E-12	669.075E-3	-35.8802E-3	106.106E-12	691.295E-3	-3.28619E-3
2.86393E-3	106.759E-12	689.432E-3	-26.5487E-3	105.747E-12	694.801E-3	-796.744E-6
2.85893E-3	106.944E-12	689.367E-3	-21.6754E-3	105.344E-12	689.566E-3	2.55656E-3
2.85393E-3	106.675E-12	677.755E-3	-17.3069E-3	104.793E-12	680.388E-3	-3.87665E-3
2.84892E-3	106.364E-12	682.638E-3	-4.66134E-3	104.898E-12	666.128E-3	-18.0793E-3
2.84392E-3	105.747E-12	684.439E-3	10.8024E-3	104.704E-12	665.070E-3	-25.4504E-3
2.83892E-3	105.769E-12	682.498E-3	13.8056E-3	104.333E-12	676.589E-3	-29.9211E-3
2.83392E-3	105.130E-12	691.026E-3	-319.302E-6	103.891E-12	674.313E-3	-34.0384E-3
2.82891E-3	104.812E-12	692.524E-3	-26.6227E-3	103.856E-12	665.674E-3	-21.6377E-3
2.82391E-3	104.972E-12	685.425E-3	-47.5855E-3	104.013E-12	665.020E-3	-10.9504E-3
2.81891E-3	104.494E-12	689.836E-3	-36.8056E-3	103.391E-12	661.993E-3	-12.5407E-3
2.81391E-3	105.177E-12	697.106E-3	-10.7486E-3	103.686E-12	669.145E-3	-2.30850E-3
2.80890E-3	104.523E-12	693.099E-3	-9.47837E-3	103.345E-12	697.434E-3	7.88105E-3
2.80390E-3	104.798E-12	689.627E-3	-19.8888E-3	103.013E-12	716.319E-3	-3.20454E-3
2.79890E-3	103.630E-12	683.786E-3	-13.5029E-3	102.947E-12	699.476E-3	-12.6869E-3
2.79390E-3	103.753E-12	682.676E-3	-16.8810E-3	102.442E-12	672.663E-3	-10.1674E-3
2.78889E-3	102.843E-12	687.571E-3	-36.1341E-3	102.456E-12	665.722E-3	-11.5221E-3
2.78389E-3	103.078E-12	682.823E-3	-44.7105E-3	101.977E-12	675.200E-3	-17.5820E-3
2.77889E-3	102.232E-12	685.230E-3	-45.1195E-3	102.115E-12	694.138E-3	-18.2359E-3
2.77389E-3	101.871E-12	700.432E-3	-40.1274E-3	101.430E-12	705.947E-3	-19.0950E-3
2.76888E-3	101.625E-12	704.742E-3	-28.4569E-3	101.268E-12	698.981E-3	-13.9926E-3
2.76388E-3	101.262E-12	696.064E-3	-21.9736E-3	101.051E-12	688.766E-3	6.98612E-3
2.75888E-3	101.362E-12	694.889E-3	-27.1104E-3	100.676E-12	686.850E-3	7.82548E-3
2.75388E-3	100.875E-12	699.448E-3	-22.5416E-3	100.195E-12	684.879E-3	-5.34684E-3
2.74887E-3	100.375E-12	695.518E-3	-7.16890E-3	99.9476E-12	679.770E-3	2.11650E-3
2.74387E-3	99.8034E-12	689.851E-3	-7.54325E-3	99.7726E-12	690.543E-3	1.12458E-3
2.73887E-3	99.9224E-12	684.471E-3	-15.6058E-3	99.8229E-12	700.428E-3	-17.4953E-3
2.73387E-3	99.8671E-12	679.403E-3	-16.7427E-3	99.7789E-12	695.627E-3	-15.9510E-3
2.72886E-3	99.4070E-12	682.898E-3	-17.2220E-3	99.9549E-12	702.212E-3	9.28706E-3
2.72386E-3	99.2876E-12	687.522E-3	-13.2972E-3	100.010E-12	703.995E-3	7.72418E-3
2.71886E-3	99.1617E-12	696.968E-3	-9.26243E-3	99.9359E-12	697.040E-3	-7.50435E-3
2.71386E-3	99.0080E-12	708.634E-3	-12.5975E-3	100.032E-12	691.102E-3	-2.35937E-3
2.70885E-3	98.2545E-12	700.421E-3	-20.1952E-3	99.9665E-12	688.308E-3	-12.0126E-3
2.70385E-3	97.9509E-12	682.265E-3	-20.9992E-3	99.6293E-12	697.730E-3	-22.9235E-3
2.69885E-3	97.7134E-12	674.572E-3	-17.9430E-3	99.3649E-12	711.163E-3	-12.9027E-3
2.69385E-3	97.2918E-12	678.298E-3	-17.6480E-3	99.1386E-12	726.198E-3	-9.10107E-3
2.68884E-3	96.7083E-12	695.505E-3	-24.2421E-3	98.7190E-12	733.163E-3	-6.46965E-3
2.68384E-3	96.7468E-12	709.776E-3	-51.7031E-3	98.0480E-12	726.541E-3	-3.52135E-3
2.67884E-3	96.5012E-12	711.374E-3	-58.5828E-3	97.2114E-12	708.043E-3	-11.4171E-3
2.67384E-3	96.4105E-12	696.972E-3	-23.9250E-3	96.7994E-12	681.203E-3	-15.4459E-3
2.66883E-3	96.4693E-12	662.809E-3	259.487E-6	96.3060E-12	667.538E-3	-16.0054E-3
2.66383E-3	96.7079E-12	653.706E-3	-6.69713E-3	95.8325E-12	676.914E-3	-14.7463E-3
2.65883E-3	96.4210E-12	677.360E-3	-23.0033E-3	95.3484E-12	695.943E-3	378.505E-6
2.65383E-3	96.1933E-12	694.767E-3	-37.5845E-3	95.0808E-12	710.130E-3	16.2387E-3
2.64882E-3	96.2520E-12	695.829E-3	-32.7894E-3	94.8692E-12	711.070E-3	5.02671E-3
2.64382E-3	96.3121E-12	689.054E-3	-7.82972E-3	94.6903E-12	705.751E-3	-23.1790E-3
2.63882E-3	96.2316E-12	689.118E-3	4.66699E-3	94.7513E-12	705.790E-3	-34.9592E-3
2.63382E-3	95.8116E-12	700.013E-3	-13.5845E-3	94.7796E-12	706.193E-3	-26.5527E-3
2.62881E-3	96.0270E-12	716.230E-3	-43.3305E-3	94.8207E-12	699.905E-3	-14.0150E-3
2.62381E-3	95.6120E-12	718.059E-3	-54.4356E-3	94.5358E-12	696.649E-3	-6.76631E-3
2.61881E-3	95.3664E-12	716.935E-3	-41.1753E-3	94.6920E-12	697.816E-3	-13.0940E-3
2.61381E-3	94.3141E-12	735.067E-3	-14.9675E-3	94.3851E-12	691.070E-3	-26.7422E-3
2.60880E-3	94.1008E-12	744.184E-3	-9.41074E-3	94.2857E-12	684.421E-3	-24.6701E-3
2.60380E-3	93.7210E-12	734.132E-3	-29.2686E-3	94.0411E-12	684.097E-3	-15.1460E-3
2.59880E-3	92.9651E-12	717.457E-3	-37.2280E-3	94.0656E-12	673.320E-3	-11.2751E-3
2.59380E-3	92.5535E-12	701.542E-3	-26.7974E-3	93.5832E-12	672.853E-3	-12.0696E-3
2.58879E-3	92.2495E-12	690.077E-3	-17.3732E-3	92.9923E-12	694.981E-3	-24.0827E-3
2.58379E-3	92.2202E-12	685.926E-3	-7.42726E-3	92.6370E-12	699.188E-3	-33.3446E-3
2.57879E-3	91.5010E-12	690.919E-3	6.05933E-3	92.2863E-12	693.908E-3	-24.1592E-3
2.57379E-3	91.6102E-12	694.125E-3	5.59475E-3	92.0342E-12	692.221E-3	-16.8334E-3
2.56878E-3	91.4077E-12	697.325E-3	-3.64293E-3	91.2761E-12	684.459E-3	-22.9290E-3
2.56378E-3	91.1539E-12	702.819E-3	-6.16791E-3	91.1489E-12	682.243E-3	-18.9808E-3
2.55878E-3	91.1190E-12	705.153E-3	-13.5801E-3	90.8000E-12	680.735E-3	-12.3391E-3
2.55378E-3	91.0979E-12	711.084E-3	-21.1441E-3	90.5518E-12	682.883E-3	-14.6789E-3
2.54877E-3	91.1541E-12	720.108E-3	-5.97161E-3	90.5773E-12	697.252E-3	-10.7448E-3
2.54377E-3	90.6923E-12	722.854E-3	12.3833E-3	90.4004E-12	707.817E-3	-12.0506E-3
2.53877E-3	90.9451E-12	720.630E-3	10.4256E-3	90.5329E-12	706.512E-3	-29.5879E-3
2.53377E-3	90.7863E-12	721.497E-3	1.69532E-3	90.6613E-12	700.952E-3	-44.7194E-3
2.52876E-3	90.6596E-12	720.499E-3	-2.88660E-3	90.9792E-12	693.917E-3	-43.6261E-3
2.52376E-3	90.4358E-12	713.744E-3	814.296E-6	91.1315E-12	704.699E-3	-34.9912E-3
2.51876E-3	90.0370E-12	712.170E-3	1.66193E-3	91.1704E-12	729.569E-3	-14.8859E-3
2.51376E-3	89.6152E-12	710.041E-3	-8.71015E-3	90.8966E-12	738.836E-3	2.78940E-3
2.50875E-3	88.9621E-12	687.305E-3	-21.6368E-3	90.8948E-12	743.319E-3	-13.8286E-3
2.50375E-3	88.6428E-12	665.980E-3	-31.6114E-3	90.1616E-12	745.978E-3	-37.3388E-3
2.49875E-3	88.0709E-12	678.776E-3	-37.1983E-3	89.9568E-12	748.017E-3	-38.0183E-3
2.49375E-3	88.3342E-12	709.498E-3	-34.2316E-3	89.1787E-12	747.624E-3	-26.0778E-3
2.48874E-3	87.5855E-12	722.818E-3	-23.2266E-3	89.2558E-12	726.272E-3	-1.43597E-3
2.48374E-3	87.6943E-12	714.011E-3	-19.0467E-3	88.5037E-12	704.779E-3	8.00203E-3
2.47874E-3	87.5999E-12	710.760E-3	-29.7027E-3	88.4050E-12	701.606E-3	-10.0142E-3
2.47374E-3	87.5928E-12	713.530E-3	-31.1760E-3	87.5088E-12	691.328E-3	-9.77987E-3
2.46873E-3	87.4973E-12	722.874E-3	-18.6481E-3	87.4090E-12	680.593E-3	12.3723E-3
2.46373E-3	87.6608E-12	736.760E-3	-6.81941E-3	86.8912E-12	694.526E-3	14.3960E-3
2.45873E-3	88.0864E-12	735.850E-3	-2.30292E-3	86.5166E-12	718.475E-3	-7.00079E-3
2.45373E-3	87.3978E-12	729.846E-3	-14.1242E-3	86.4897E-12	741.200E-3	-14.5883E-3
2.44872E-3	87.6011E-12	726.675E-3	-15.8517E-3	86.2066E-12	753.288E-3	-3.65084E-3
2.44372E-3	87.5575E-12	720.786E-3	-2.29073E-3	86.1095E-12	739.159E-3	-4.43050E-3
2.43872E-3	87.2640E-12	719.996E-3	-5.57850E-3	86.1184E-12	710.804E-3	-714.722E-6
2.43372E-3	86.6822E-12	720.374E-3	-14.7048E-3	86.4923E-12	707.782E-3	19.8322E-3
2.42871E-3	86.8472E-12	726.436E-3	-3.84305E-3	86.1365E-12	721.651E-3	13.7631E-3
2.42371E-3	86.2899E-12	741.067E-3	5.82654E-3	86.0880E-12	718.920E-3	-11.6097E-3
2.41871E-3	85.8544E-12	744.363E-3	-4.71572E-3	85.9345E-12	718.348E-3	-25.7167E-3
2.41371E-3	85.4487E-12	733.921E-3	-10.3307E-3	85.5961E-12	721.420E-3	-26.2643E-3
2.40870E-3	85.0102E-12	725.311E-3	-8.72175E-3	85.0853E-12	721.959E-3	-19.7243E-3
2.40370E-3	84.4602E-12	724.845E-3	-11.8534E-3	84.1417E-12	724.246E-3	-24.7671E-3
2.39870E-3	84.0755E-12	729.077E-3	-20.0895E-3	83.8985E-12	719.138E-3	-31.5903E-3
2.39370E-3	83.8920E-12	736.618E-3	-28.6140E-3	83.1927E-12	715.379E-3	-22.5901E-3
2.38869E-3	83.5724E-12	746.044E-3	-27.7520E-3	82.7616E-12	713.989E-3	-25.4671E-3
2.38369E-3	83.0635E-12	752.849E-3	-21.6348E-3	82.4385E-12	705.391E-3	-38.1166E-3
2.37869E-3	82.7639E-12	740.239E-3	-28.0722E-3	82.0494E-12	696.797E-3	-13.7469E-3
2.37369E-3	82.5063E-12	721.636E-3	-33.8193E-3	81.7493E-12	699.680E-3	10.5316E-3
2.36868E-3	82.3100E-12	726.641E-3	-16.4610E-3	81.3688E-12	709.154E-3	-7.91578E-3
2.36368E-3	81.8032E-12	726.077E-3	-8.20121E-3	81.1177E-12	710.355E-3	-18.3805E-3
2.35868E-3	81.4085E-12	707.531E-3	-21.9988E-3	80.9252E-12	711.901E-3	1.48481E-3
2.35368E-3	81.1535E-12	696.219E-3	-29.3967E-3	80.7408E-12	719.608E-3	5.90017E-3
2.34867E-3	81.0363E-12	694.645E-3	-19.0594E-3	80.6485E-12	730.282E-3	-15.0070E-3
2.34367E-3	80.5725E-12	709.428E-3	-10.5459E-3	80.6242E-12	744.704E-3	-21.7329E-3
2.33867E-3	80.1924E-12	742.611E-3	-13.0966E-3	80.4214E-12	755.038E-3	-13.6080E-3
2.33367E-3	79.8064E-12	757.356E-3	-22.3700E-3	80.3524E-12	743.954E-3	-15.6255E-3
2.32866E-3	79.4027E-12	740.740E-3	-33.3450E-3	80.2838E-12	723.125E-3	-29.6138E-3
2.32366E-3	79.1619E-12	722.737E-3	-37.5377E-3	80.0807E-12	721.705E-3	-41.8932E-3
2.31866E-3	78.8101E-12	711.338E-3	-30.9252E-3	79.8814E-12	722.289E-3	-32.3644E-3
2.31366E-3	78.6487E-12	698.845E-3	-17.7919E-3	79.6300E-12	715.296E-3	-6.50862E-3
2.30865E-3	78.4860E-12	695.154E-3	-23.5792E-3	79.3317E-12	726.290E-3	7.32363E-3
2.30365E-3	78.4348E-12	707.164E-3	-34.0530E-3	79.5093E-12	748.983E-3	545.654E-6
2.29865E-3	78.2751E-12	716.344E-3	-25.9975E-3	79.2049E-12	758.803E-3	-11.3853E-3
2.29365E-3	78.3990E-12	721.253E-3	-15.2127E-3	78.9140E-12	760.581E-3	-20.8509E-3
2.28864E-3	78.1760E-12	732.906E-3	-7.36146E-3	78.9682E-12	758.066E-3	-27.3026E-3
2.28364E-3	78.0359E-12	741.757E-3	-7.30148E-3	78.7418E-12	755.898E-3	-22.5838E-3
2.27864E-3	77.8025E-12	740.783E-3	-18.2708E-3	78.4718E-12	753.568E-3	-11.5024E-3
2.27364E-3	77.7342E-12	736.190E-3	-22.8300E-3	78.2569E-12	739.966E-3	-11.8976E-3
2.26863E-3	77.1686E-12	722.698E-3	-8.76741E-3	78.0664E-12	732.446E-3	-12.6764E-3
2.26363E-3	77.4007E-12	714.988E-3	8.47404E-3	77.5988E-12	739.519E-3	-17.1554E-3
2.25863E-3	77.0915E-12	722.684E-3	3.70170E-3	77.3668E-12	746.866E-3	-36.7041E-3
2.25363E-3	77.1130E-12	729.453E-3	-15.0669E-3	76.8467E-12	749.707E-3	-42.7651E-3
2.24862E-3	76.6098E-12	732.550E-3	-19.0683E-3	76.6038E-12	747.651E-3	-37.2397E-3
2.24362E-3	76.2686E-12	728.585E-3	-6.83510E-3	76.3721E-12	728.388E-3	-35.4427E-3
2.23862E-3	76.0756E-12	717.143E-3	-2.63467E-3	76.1551E-12	711.124E-3	-27.4864E-3
2.23362E-3	75.9057E-12	723.595E-3	-15.1127E-3	75.8795E-12	725.048E-3	-15.0027E-3
2.22861E-3	75.8657E-12	743.113E-3	-23.3897E-3	75.9946E-12	749.291E-3	-9.39497E-3
2.22361E-3	75.6587E-12	736.236E-3	-15.3591E-3	75.6696E-12	757.621E-3	-9.18619E-3
2.21861E-3	75.5768E-12	726.678E-3	-733.215E-6	75.7612E-12	759.744E-3	-4.32715E-3
2.21361E-3	75.4239E-12	739.410E-3	10.2062E-3	75.5318E-12	763.274E-3	-10.4797E-3
2.20860E-3	75.6307E-12	749.112E-3	8.16558E-3	75.3468E-12	752.132E-3	-33.5786E-3
2.20360E-3	75.2361E-12	759.592E-3	-11.6838E-3	75.3264E-12	745.161E-3	-38.8716E-3
2.19860E-3	75.2141E-12	775.024E-3	-26.2214E-3	74.9371E-12	754.075E-3	-26.8063E-3
2.19360E-3	75.2644E-12	767.933E-3	-23.4608E-3	74.8214E-12	748.712E-3	-29.2746E-3
2.18859E-3	74.8540E-12	743.637E-3	-18.8343E-3	74.6301E-12	741.267E-3	-28.4804E-3
2.18359E-3	74.4482E-12	742.664E-3	-13.0492E-3	74.5979E-12	753.856E-3	-17.6669E-3
2.17859E-3	74.0355E-12	763.726E-3	-5.96545E-3	73.8944E-12	765.267E-3	-21.3921E-3
2.17359E-3	74.0525E-12	766.494E-3	-16.3930E-3	73.8584E-12	766.982E-3	-16.4280E-3
2.16858E-3	73.4879E-12	754.739E-3	-31.0377E-3	73.3830E-12	771.183E-3	-1.05535E-3
2.16358E-3	72.9981E-12	760.986E-3	-26.8019E-3	73.0567E-12	778.142E-3	-10.1477E-3
2.15858E-3	72.4844E-12	762.591E-3	-19.6153E-3	72.4025E-12	778.509E-3	-27.2874E-3
2.15358E-3	72.0170E-12	751.689E-3	-12.5361E-3	71.7406E-12	769.705E-3	-23.6799E-3
2.14857E-3	71.4891E-12	747.824E-3	-6.77042E-3	71.3905E-12	758.046E-3	-10.7987E-3
2.14357E-3	71.0600E-12	745.384E-3	-12.8344E-3	70.7257E-12	746.829E-3	-9.01836E-3
2.13857E-3	70.6337E-12	754.557E-3	-20.9523E-3	70.3858E-12	747.981E-3	-21.4603E-3
2.13357E-3	70.4421E-12	769.736E-3	-14.7728E-3	69.7714E-12	759.426E-3	-31.3318E-3
2.12856E-3	70.1870E-12	774.565E-3	-5.21722E-3	69.5915E-12	757.522E-3	-34.8014E-3
2.12356E-3	69.8766E-12	768.650E-3	-4.63337E-3	69.5462E-12	757.782E-3	-36.3127E-3
2.11856E-3	69.6410E-12	756.648E-3	-6.87133E-3	69.3001E-12	772.282E-3	-32.3462E-3
2.11356E-3	69.7234E-12	748.000E-3	-13.8345E-3	69.3369E-12	766.590E-3	-23.6542E-3
2.10855E-3	69.2096E-12	752.168E-3	-33.1427E-3	69.3130E-12	750.662E-3	-10.6995E-3
2.10355E-3	69.0487E-12	758.764E-3	-52.7947E-3	69.5680E-12	767.858E-3	1.49303E-3
2.09855E-3	68.8473E-12	757.114E-3	-57.7708E-3	69.2328E-12	801.501E-3	7.64068E-3
2.09355E-3	68.5462E-12	766.480E-3	-50.1918E-3	69.4473E-12	803.081E-3	3.42013E-3
2.08854E-3	68.2192E-12	779.618E-3	-35.5354E-3	69.3444E-12	783.921E-3	-19.5656E-3
2.08354E-3	67.9266E-12	773.426E-3	-23.6710E-3	68.9247E-12	774.941E-3	-30.6943E-3
2.07854E-3	67.7968E-12	769.770E-3	-27.4337E-3	68.6371E-12	767.369E-3	-19.8261E-3
2.07354E-3	67.3383E-12	776.708E-3	-36.2388E-3	68.1635E-12	761.923E-3	-8.26427E-3
2.06853E-3	67.0655E-12	782.341E-3	-36.4199E-3	67.8870E-12	764.771E-3	-2.87700E-3
2.06353E-3	66.5437E-12	785.216E-3	-38.1099E-3	67.2579E-12	766.008E-3	-7.01166E-3
2.05853E-3	66.3859E-12	777.583E-3	-32.9406E-3	66.8074E-12	762.175E-3	-9.07607E-3
2.05353E-3	66.1819E-12	769.478E-3	-25.2703E-3	66.4433E-12	767.899E-3	-11.0941E-3
2.04852E-3	65.9800E-12	762.477E-3	-20.8071E-3	65.9493E-12	785.809E-3	-13.8779E-3
2.04352E-3	66.0191E-12	758.737E-3	-10.4174E-3	65.4094E-12	791.936E-3	-16.6350E-3
2.03852E-3	65.7210E-12	764.138E-3	-14.0321E-3	65.0934E-12	782.924E-3	-21.6672E-3
2.03352E-3	65.8519E-12	769.171E-3	-31.8052E-3	64.8285E-12	776.287E-3	-28.3795E-3
2.02851E-3	65.5229E-12	777.735E-3	-38.9437E-3	64.8586E-12	785.201E-3	-37.3365E-3
2.02351E-3	65.5605E-12	788.336E-3	-26.8977E-3	64.5778E-12	799.576E-3	-30.0920E-3
2.01851E-3	65.2980E-12	791.952E-3	-8.13436E-3	64.5862E-12	801.063E-3	-22.6580E-3
2.01351E-3	65.2555E-12	800.444E-3	-5.71646E-3	64.5363E-12	803.455E-3	-31.6279E-3
2.00850E-3	64.8580E-12	812.457E-3	-12.4485E-3	64.5538E-12	805.322E-3	-28.7332E-3
2.00350E-3	64.5743E-12	805.322E-3	-18.5103E-3	64.5843E-12	803.867E-3	-14.8701E-3
1.99850E-3	64.3072E-12	785.035E-3	-27.5138E-3	64.6390E-12	820.391E-3	-8.76215E-3
1.99350E-3	63.9191E-12	781.225E-3	-18.7873E-3	64.3808E-12	826.989E-3	-15.6863E-3
1.98849E-3	63.6839E-12	806.398E-3	6.43809E-3	64.4391E-12	811.184E-3	-25.1803E-3
1.98349E-3	63.2268E-12	834.885E-3	6.42147E-3	64.1034E-12	810.549E-3	-19.4874E-3
1.97849E-3	62.9014E-12	850.673E-3	-12.4270E-3	64.0616E-12	821.576E-3	-9.53613E-3
1.97349E-3	62.6003E-12	851.844E-3	-19.7631E-3	63.4705E-12	817.857E-3	-4.00486E-3
1.96848E-3	62.2106E-12	833.285E-3	-22.7935E-3	63.2592E-12	806.759E-3	-998.047E-6
1.96348E-3	62.0541E-12	825.086E-3	-18.3918E-3	62.6229E-12	803.968E-3	-9.77668E-3
1.95848E-3	61.7754E-12	834.570E-3	-6.38011E-3	62.2442E-12	806.077E-3	-16.3780E-3
1.95348E-3	61.5249E-12	836.592E-3	-12.6311E-3	61.4891E-12	817.975E-3	-7.37255E-3
1.94847E-3	61.1361E-12	832.556E-3	-25.5140E-3	60.8866E-12	827.523E-3	-3.22656E-3
1.94347E-3	61.3039E-12	829.551E-3	-26.1288E-3	60.4896E-12	815.752E-3	-11.0803E-3
1.93847E-3	60.9969E-12	820.129E-3	-22.4417E-3	60.1595E-12	797.730E-3	-19.7078E-3
1.93347E-3	60.6514E-12	818.755E-3	-19.9494E-3	59.8958E-12	797.438E-3	-20.9274E-3
1.92846E-3	60.3857E-12	825.310E-3	-22.3731E-3	59.4535E-12	807.763E-3	-20.6040E-3
1.92346E-3	59.9829E-12	829.867E-3	-13.7927E-3	59.4604E-12	819.871E-3	-26.6660E-3
1.91846E-3	59.7975E-12	829.631E-3	-2.01459E-3	59.1199E-12	835.043E-3	-25.9734E-3
1.91346E-3	59.0857E-12	823.843E-3	-6.28544E-3	59.0954E-12	842.476E-3	-17.7162E-3
1.90845E-3	59.0268E-12	832.080E-3	-17.5482E-3	58.8918E-12	850.305E-3	-7.27607E-3
1.90345E-3	58.3918E-12	833.288E-3	-28.7758E-3	58.7616E-12	860.691E-3	-5.03064E-3
1.89845E-3	58.1882E-12	817.109E-3	-28.5408E-3	58.4690E-12	863.797E-3	-11.3393E-3
1.89345E-3	57.6883E-12	810.313E-3	-17.1569E-3	58.4888E-12	856.307E-3	-9.85089E-3
1.88844E-3	57.2791E-12	813.456E-3	-11.4557E-3	58.2236E-12	843.477E-3	-7.79329E-3
1.88344E-3	56.9232E-12	820.550E-3	-16.9371E-3	58.0376E-12	841.742E-3	-9.56093E-3
1.87844E-3	56.6034E-12	839.442E-3	-21.8809E-3	57.8874E-12	856.756E-3	-9.11817E-3
1.87344E-3	56.2964E-12	856.959E-3	-19.3955E-3	57.6153E-12	876.861E-3	-6.16488E-3
1.86843E-3	55.9710E-12	861.695E-3	-18.8390E-3	57.4710E-12	877.919E-3	-12.6207E-3
1.86343E-3	56.0175E-12	863.251E-3	-18.3493E-3	56.9395E-12	871.385E-3	-20.5290E-3
1.85843E-3	55.8578E-12	866.147E-3	-20.3547E-3	56.7678E-12	881.316E-3	-12.2026E-3
1.85343E-3	55.8522E-12	866.693E-3	-28.9348E-3	56.2902E-12	881.822E-3	-5.40948E-3
1.84842E-3	55.9015E-12	865.228E-3	-32.2125E-3	56.0186E-12	864.300E-3	3.02578E-3
1.84342E-3	55.8493E-12	860.748E-3	-32.3807E-3	55.4727E-12	861.986E-3	19.8687E-3
1.83842E-3	55.7402E-12	863.897E-3	-27.8099E-3	55.1673E-12	865.144E-3	10.1411E-3
1.83342E-3	55.4442E-12	878.471E-3	-11.7203E-3	54.8199E-12	853.907E-3	-23.4014E-3
1.82841E-3	55.3975E-12	884.641E-3	1.46348E-3	54.4742E-12	863.322E-3	-35.0225E-3
1.82341E-3	54.8225E-12	886.642E-3	-4.54661E-3	54.1101E-12	897.568E-3	-18.5879E-3
1.81841E-3	54.4186E-12	886.119E-3	-15.8463E-3	53.6877E-12	914.694E-3	-5.11009E-3
1.81341E-3	53.8501E-12	886.489E-3	-11.9476E-3	53.3477E-12	908.473E-3	-7.34052E-3
1.80840E-3	53.8130E-12	886.500E-3	-3.83157E-3	52.9323E-12	900.641E-3	-14.5044E-3
1.80340E-3	53.3501E-12	873.903E-3	-6.95583E-3	52.7606E-12	891.407E-3	-18.3250E-3
1.79840E-3	52.8751E-12	875.052E-3	-13.3413E-3	52.5312E-12	887.395E-3	-13.4590E-3
1.79340E-3	52.2775E-12	889.410E-3	-10.1290E-3	52.2856E-12	894.143E-3	-9.55354E-3
1.78839E-3	52.1370E-12	885.772E-3	741.203E-6	51.8792E-12	901.433E-3	-13.3572E-3
1.78339E-3	51.7323E-12	889.432E-3	-628.828E-6	51.5599E-12	906.685E-3	-15.8410E-3
1.77839E-3	51.4091E-12	905.594E-3	-19.2019E-3	51.4623E-12	907.248E-3	-27.9399E-3
1.77339E-3	51.0383E-12	906.648E-3	-31.6484E-3	51.2958E-12	904.560E-3	-33.0576E-3
1.76838E-3	51.0819E-12	905.689E-3	-23.1134E-3	50.8811E-12	901.948E-3	-18.8861E-3
1.76338E-3	50.5726E-12	917.008E-3	1.00015E-3	50.5793E-12	907.129E-3	-17.7221E-3
1.75838E-3	50.3909E-12	927.413E-3	7.27929E-3	50.3023E-12	920.886E-3	-20.2244E-3
1.75338E-3	49.9017E-12	929.453E-3	-23.9713E-3	49.9692E-12	927.051E-3	-9.26478E-3
1.74837E-3	49.8827E-12	928.794E-3	-40.3876E-3	49.5689E-12	927.168E-3	-2.17072E-3
1.74337E-3	49.4655E-12	930.564E-3	-22.5320E-3	49.1651E-12	933.541E-3	-5.61697E-3
1.73837E-3	49.1653E-12	934.981E-3	-9.56622E-3	48.8106E-12	944.312E-3	-10.7629E-3
1.73337E-3	48.9033E-12	946.916E-3	-9.24295E-3	48.4803E-12	952.714E-3	-15.1372E-3
1.72836E-3	48.4671E-12	960.111E-3	-10.7212E-3	47.8911E-12	952.957E-3	-20.0864E-3
1.72336E-3	48.1024E-12	954.088E-3	-9.92744E-3	47.6702E-12	946.461E-3	-21.9201E-3
1.71836E-3	47.5733E-12	943.597E-3	-7.28790E-3	47.2202E-12	942.205E-3	-25.0328E-3
1.71336E-3	47.3516E-12	949.302E-3	-3.48167E-3	46.9020E-12	941.831E-3	-32.8940E-3
1.70835E-3	46.9626E-12	956.672E-3	-6.21518E-3	46.5553E-12	942.590E-3	-32.4927E-3
1.70335E-3	46.5289E-12	953.595E-3	-27.9400E-3	46.2841E-12	953.290E-3	-26.7966E-3
1.69835E-3	46.0741E-12	950.741E-3	-50.3839E-3	45.7674E-12	964.969E-3	-31.1613E-3
1.69335E-3	45.9177E-12	951.930E-3	-39.2486E-3	45.5765E-12	964.947E-3	-36.0293E-3
1.68834E-3	45.6207E-12	951.687E-3	-20.2225E-3	45.1395E-12	962.865E-3	-31.6144E-3
1.68334E-3	45.2738E-12	959.458E-3	-15.2486E-3	44.9935E-12	967.870E-3	-25.2043E-3
1.67834E-3	44.7515E-12	973.281E-3	-1.44399E-3	44.7331E-12	979.376E-3	-11.0080E-3
1.67334E-3	44.6481E-12	972.743E-3	8.52468E-3	44.4682E-12	1.00235E+0	3.21784E-3
1.66833E-3	44.4152E-12	970.993E-3	-5.28165E-3	44.5244E-12	1.02488E+0	-1.83233E-3
1.66333E-3	43.9505E-12	984.890E-3	-14.3643E-3	44.3768E-12	1.02852E+0	-17.3222E-3
1.65833E-3	43.5545E-12	993.320E-3	-6.78338E-3	44.3651E-12	1.02415E+0	-21.6968E-3
1.65333E-3	43.1631E-12	989.454E-3	-9.30931E-3	43.9862E-12	1.02193E+0	-17.0354E-3
1.64832E-3	42.8172E-12	991.503E-3	-16.6067E-3	43.7738E-12	1.01822E+0	-18.3399E-3
1.64332E-3	42.5476E-12	997.239E-3	-17.0149E-3	43.5474E-12	1.02679E+0	-11.7981E-3
1.63832E-3	42.1428E-12	1.00062E+0	-13.2803E-3	43.3028E-12	1.05525E+0	925.633E-6
1.63332E-3	41.9656E-12	1.01050E+0	-8.10324E-3	42.7194E-12	1.05760E+0	824.890E-6
1.62831E-3	41.6869E-12	1.01606E+0	-11.9511E-3	42.3722E-12	1.04222E+0	170.437E-6
1.62331E-3	41.4726E-12	1.01221E+0	-15.8097E-3	41.9468E-12	1.05205E+0	-1.13060E-3
1.61831E-3	41.0845E-12	1.01289E+0	-1.52415E-3	41.5052E-12	1.05310E+0	-7.23472E-3
1.61331E-3	40.9120E-12	1.02257E+0	6.32767E-3	40.9399E-12	1.04635E+0	-5.68351E-3
1.60830E-3	40.5723E-12	1.04230E+0	1.29505E-3	40.4382E-12	1.06688E+0	-10.3030E-3
1.60330E-3	40.2228E-12	1.06223E+0	-5.22310E-3	40.0888E-12	1.08890E+0	-22.0601E-3
1.59830E-3	40.1145E-12	1.06548E+0	-18.0072E-3	39.6815E-12	1.08758E+0	-16.4197E-3
1.59330E-3	40.0154E-12	1.06654E+0	-24.6908E-3	39.2824E-12	1.07975E+0	-6.20782E-3
1.58829E-3	39.7548E-12	1.07711E+0	-23.8173E-3	38.8851E-12	1.07766E+0	-17.5829E-3
1.58329E-3	39.3524E-12	1.07437E+0	-13.3385E-3	38.6866E-12	1.08038E+0	-28.0137E-3
1.57829E-3	38.8660E-12	1.06973E+0	1.29379E-3	38.2838E-12	1.09205E+0	-13.3011E-3
1.57329E-3	38.6834E-12	1.08232E+0	-5.25074E-3	37.8802E-12	1.10677E+0	-7.91626E-3
1.56828E-3	38.0560E-12	1.09983E+0	-22.6265E-3	37.5890E-12	1.11109E+0	-16.9266E-3
1.56328E-3	37.3879E-12	1.10910E+0	-17.9074E-3	37.4065E-12	1.11122E+0	-9.47083E-3
1.55828E-3	37.0087E-12	1.10084E+0	-3.50310E-3	37.0682E-12	1.11190E+0	-3.70783E-3
1.55328E-3	36.6950E-12	1.09207E+0	-9.79628E-3	36.6496E-12	1.10621E+0	-8.35981E-3
1.54827E-3	36.0110E-12	1.09739E+0	-22.4484E-3	36.3773E-12	1.11013E+0	-9.05358E-3
1.54327E-3	35.3362E-12	1.10733E+0	-24.6015E-3	35.8528E-12	1.12377E+0	-13.0097E-3
1.53827E-3	34.9809E-12	1.11070E+0	-23.1684E-3	35.5101E-12	1.11917E+0	-20.6027E-3
1.53327E-3	34.7271E-12	1.11142E+0	-19.8714E-3	34.9813E-12	1.11224E+0	-22.2879E-3
1.52826E-3	34.3387E-12	1.11647E+0	-23.1757E-3	34.6418E-12	1.11799E+0	-13.0564E-3
1.52326E-3	33.8069E-12	1.11091E+0	-26.9251E-3	34.1727E-12	1.11843E+0	-10.1464E-3
1.51826E-3	33.6321E-12	1.10208E+0	-25.5223E-3	33.4797E-12	1.12687E+0	-21.9914E-3
1.51326E-3	33.3934E-12	1.10689E+0	-16.6234E-3	32.9240E-12	1.13956E+0	-33.0621E-3
1.50825E-3	32.9456E-12	1.12343E+0	142.849E-6	32.6356E-12	1.13386E+0	-35.6049E-3
1.50325E-3	32.7424E-12	1.13727E+0	3.86718E-3	32.2942E-12	1.13928E+0	-29.3585E-3
1.49825E-3	32.4678E-12	1.14057E+0	-1.88267E-3	31.8273E-12	1.14664E+0	-27.8513E-3
1.49325E-3	32.2586E-12	1.14571E+0	-4.38877E-3	31.4752E-12	1.13005E+0	-36.1312E-3
1.48824E-3	31.7861E-12	1.15203E+0	-10.9720E-3	31.2249E-12	1.13155E+0	-32.7916E-3
1.48324E-3	31.3703E-12	1.15455E+0	-17.6751E-3	30.9756E-12	1.15419E+0	-15.2108E-3
1.47824E-3	30.9751E-12	1.15838E+0	-14.8369E-3	30.5355E-12	1.16255E+0	-9.35944E-3
1.47324E-3	30.4230E-12	1.16108E+0	-21.6730E-3	30.1530E-12	1.16610E+0	-6.18384E-3
1.46823E-3	29.7833E-12	1.15565E+0	-40.5671E-3	29.8491E-12	1.17356E+0	-4.51855E-3
1.46323E-3	29.3727E-12	1.14592E+0	-40.5026E-3	29.6926E-12	1.17170E+0	-14.1349E-3
1.45823E-3	29.0289E-12	1.14499E+0	-24.1096E-3	29.2765E-12	1.15880E+0	-21.1067E-3
1.45323E-3	28.4393E-12	1.15101E+0	-14.3943E-3	28.9496E-12	1.15449E+0	-21.3631E-3
1.44822E-3	27.9286E-12	1.14895E+0	-9.68777E-3	28.6400E-12	1.16382E+0	-17.3025E-3
1.44322E-3	27.6557E-12	1.13572E+0	-8.41994E-3	28.3596E-12	1.16320E+0	-12.2492E-3
1.43822E-3	27.4174E-12	1.12765E+0	-14.2642E-3	27.9772E-12	1.15273E+0	-9.64429E-3
1.43322E-3	27.0351E-12	1.13614E+0	-21.2549E-3	27.6641E-12	1.14016E+0	-19.3766E-3
1.42821E-3	26.6041E-12	1.14355E+0	-20.1393E-3	27.1312E-12	1.13204E+0	-27.5087E-3
1.42321E-3	26.4752E-12	1.13747E+0	-13.1087E-3	26.5983E-12	1.13150E+0	-22.2099E-3
1.41821E-3	26.2884E-12	1.13106E+0	-9.85081E-3	26.1098E-12	1.12714E+0	-17.7821E-3
1.41321E-3	25.9637E-12	1.12720E+0	-8.20393E-3	25.8728E-12	1.12343E+0	-11.1013E-3
1.40820E-3	25.5505E-12	1.12728E+0	-8.79748E-3	25.5350E-12	1.12457E+0	-4.25656E-3
1.40320E-3	25.5211E-12	1.13693E+0	-12.9424E-3	25.0843E-12	1.12138E+0	-8.90047E-3
1.39820E-3	25.1432E-12	1.14133E+0	-13.4408E-3	24.6835E-12	1.11359E+0	-18.3298E-3
1.39320E-3	24.8806E-12	1.13674E+0	-13.0224E-3	24.4378E-12	1.10786E+0	-12.5761E-3
1.38819E-3	24.2915E-12	1.12967E+0	-20.8551E-3	24.2071E-12	1.09919E+0	-8.91660E-3
1.38319E-3	24.0504E-12	1.11770E+0	-30.2480E-3	23.7642E-12	1.07984E+0	-19.5426E-3
1.37819E-3	23.6157E-12	1.11066E+0	-26.2946E-3	23.3068E-12	1.06764E+0	-16.0988E-3
1.37319E-3	23.2081E-12	1.10574E+0	-22.1699E-3	23.1474E-12	1.07009E+0	-10.7868E-3
1.36818E-3	22.6805E-12	1.09559E+0	-16.7429E-3	22.8214E-12	1.06670E+0	-23.0818E-3
1.36318E-3	22.3012E-12	1.08676E+0	-1.26507E-3	22.3920E-12	1.05946E+0	-35.0196E-3
1.35818E-3	21.8972E-12	1.08289E+0	-3.42663E-3	21.9380E-12	1.06130E+0	-33.4886E-3
1.35318E-3	21.4257E-12	1.08016E+0	-19.1737E-3	21.7586E-12	1.05639E+0	-19.6777E-3
1.34817E-3	21.1035E-12	1.07197E+0	-19.1942E-3	21.3128E-12	1.02757E+0	-9.15485E-3
1.34317E-3	20.7546E-12	1.06504E+0	-13.6456E-3	20.9649E-12	1.00666E+0	-10.5397E-3
1.33817E-3	20.4833E-12	1.05604E+0	-8.73437E-3	20.4688E-12	1.00008E+0	-18.7807E-3
1.33317E-3	20.0655E-12	1.04770E+0	-3.80629E-3	20.1314E-12	985.222E-3	-19.0477E-3
1.32816E-3	19.7339E-12	1.04522E+0	-9.41274E-3	19.7107E-12	974.970E-3	-11.5664E-3
1.32316E-3	19.4757E-12	1.03438E+0	-16.6950E-3	19.2461E-12	967.377E-3	-17.0926E-3
1.31816E-3	19.0057E-12	1.02118E+0	-20.4541E-3	18.7861E-12	948.500E-3	-17.2238E-3
1.31316E-3	18.6423E-12	1.01190E+0	-19.8570E-3	18.5503E-12	931.414E-3	-4.27021E-3
1.30815E-3	18.3357E-12	995.610E-3	-15.5517E-3	18.2301E-12	922.542E-3	-5.38926E-3
1.30315E-3	18.1334E-12	980.272E-3	-16.0318E-3	17.9385E-12	909.868E-3	-14.5370E-3
1.29815E-3	17.7652E-12	975.440E-3	-20.3754E-3	17.6557E-12	904.294E-3	-17.2187E-3
1.29315E-3	17.2366E-12	969.099E-3	-16.2666E-3	17.3367E-12	905.144E-3	-19.4257E-3
1.28814E-3	16.9398E-12	964.535E-3	-7.97568E-3	17.0905E-12	895.283E-3	-22.6563E-3
1.28314E-3	16.7904E-12	958.365E-3	-13.0544E-3	16.6734E-12	880.104E-3	-18.7662E-3
1.27814E-3	16.4059E-12	943.117E-3	-20.1162E-3	16.4469E-12	860.793E-3	-9.00511E-3
1.27314E-3	16.0190E-12	919.458E-3	-17.9098E-3	16.2580E-12	835.404E-3	-11.7118E-3
1.26813E-3	15.8240E-12	889.839E-3	-15.4734E-3	15.8495E-12	820.259E-3	-25.1425E-3
1.26313E-3	15.5869E-12	869.156E-3	-17.3135E-3	15.5668E-12	817.159E-3	-33.9314E-3
1.25813E-3	15.2773E-12	857.565E-3	-22.8370E-3	15.4147E-12	805.777E-3	-32.1196E-3
1.25313E-3	14.9872E-12	849.276E-3	-29.9899E-3	15.1645E-12	784.327E-3	-21.2352E-3
1.24812E-3	14.7223E-12	840.059E-3	-24.8502E-3	14.8545E-12	763.554E-3	-19.3653E-3
1.24312E-3	14.5167E-12	820.411E-3	-13.0487E-3	14.5028E-12	751.045E-3	-26.0960E-3
1.23812E-3	14.3071E-12	800.471E-3	-11.1931E-3	14.3023E-12	745.659E-3	-27.0658E-3
1.23312E-3	14.0741E-12	788.506E-3	-10.7768E-3	14.2076E-12	737.876E-3	-19.7516E-3
1.22811E-3	13.7958E-12	780.800E-3	-3.99547E-3	13.8680E-12	720.827E-3	-9.43640E-3
1.22311E-3	13.5476E-12	773.103E-3	-2.66408E-3	13.5593E-12	705.987E-3	-8.11870E-3
1.21811E-3	13.2588E-12	758.382E-3	-9.88260E-3	13.4083E-12	694.961E-3	-13.8686E-3
1.21311E-3	13.0002E-12	744.303E-3	-11.6133E-3	13.2642E-12	671.408E-3	-17.9966E-3
1.20810E-3	12.8588E-12	728.015E-3	-15.6915E-3	12.8771E-12	642.762E-3	-18.1703E-3
1.20310E-3	12.5849E-12	709.533E-3	-21.5933E-3	12.6113E-12	629.311E-3	-15.8339E-3
1.19810E-3	12.3200E-12	690.253E-3	-19.6712E-3	12.5472E-12	622.045E-3	-17.3440E-3
1.19310E-3	12.1082E-12	662.875E-3	-18.0772E-3	12.1814E-12	609.739E-3	-11.5639E-3
1.18809E-3	12.0902E-12	646.580E-3	-21.6990E-3	11.9986E-12	603.641E-3	-1.63135E-3
1.18309E-3	11.8722E-12	651.025E-3	-25.7867E-3	11.8173E-12	592.926E-3	-16.3686E-3
1.17809E-3	11.6082E-12	648.374E-3	-27.8428E-3	11.6043E-12	571.916E-3	-31.0440E-3
1.17309E-3	11.4620E-12	623.837E-3	-31.5115E-3	11.3377E-12	558.769E-3	-25.9667E-3
1.16808E-3	11.4019E-12	603.097E-3	-21.9103E-3	11.1500E-12	553.046E-3	-22.6438E-3
1.16308E-3	11.1479E-12	592.028E-3	-5.63352E-3	10.9399E-12	538.337E-3	-13.7052E-3
1.15808E-3	10.9815E-12	585.431E-3	-6.38419E-3	10.8437E-12	517.087E-3	-9.17317E-3
1.15308E-3	10.7615E-12	582.739E-3	-20.5305E-3	10.6538E-12	507.144E-3	-23.4444E-3
1.14807E-3	10.5813E-12	570.569E-3	-26.9264E-3	10.4176E-12	494.798E-3	-27.4820E-3
1.14307E-3	10.3667E-12	550.876E-3	-24.3124E-3	10.2256E-12	467.889E-3	-21.9967E-3
1.13807E-3	10.2615E-12	537.419E-3	-24.1874E-3	10.1832E-12	452.988E-3	-22.0910E-3
1.13307E-3	9.96808E-12	526.811E-3	-26.2168E-3	10.0037E-12	459.548E-3	-17.5318E-3
1.12806E-3	9.84597E-12	508.235E-3	-31.1680E-3	9.76007E-12	455.386E-3	-9.33399E-3
1.12306E-3	9.64064E-12	490.806E-3	-33.8041E-3	9.64964E-12	433.302E-3	-3.40489E-3
1.11806E-3	9.47468E-12	467.816E-3	-23.0595E-3	9.54499E-12	420.569E-3	-2.77045E-3
1.11306E-3	9.25526E-12	446.194E-3	-14.6413E-3	9.34849E-12	416.837E-3	-1.66416E-3
1.10805E-3	9.16197E-12	447.270E-3	-24.2974E-3	9.10493E-12	410.552E-3	-4.72654E-3
1.10305E-3	8.89011E-12	448.313E-3	-30.3933E-3	9.01215E-12	397.479E-3	-23.1649E-3
1.09805E-3	8.79302E-12	430.773E-3	-20.0352E-3	8.86450E-12	378.814E-3	-28.2862E-3
1.09305E-3	8.71093E-12	413.636E-3	-7.09589E-3	8.73892E-12	368.300E-3	-18.9766E-3
1.08804E-3	8.54869E-12	403.803E-3	-10.1809E-3	8.52289E-12	364.414E-3	-22.9532E-3
1.08304E-3	8.37995E-12	394.068E-3	-28.4463E-3	8.32824E-12	357.871E-3	-17.8139E-3
1.07804E-3	8.32389E-12	387.425E-3	-42.2689E-3	8.24661E-12	352.378E-3	-1.29937E-3
1.07304E-3	8.23960E-12	377.866E-3	-40.7845E-3	8.12121E-12	340.459E-3	1.03334E-3
1.06803E-3	8.03274E-12	361.308E-3	-27.1911E-3	7.96223E-12	327.066E-3	-8.47624E-3
1.06303E-3	7.93273E-12	345.006E-3	-14.9321E-3	7.83730E-12	328.462E-3	-16.2181E-3
1.05803E-3	7.87168E-12	337.939E-3	-12.4621E-3	7.80760E-12	327.671E-3	-17.7103E-3
1.05303E-3	7.77914E-12	336.788E-3	-17.4707E-3	7.76923E-12	315.613E-3	-11.3850E-3
1.04802E-3	7.59521E-12	328.817E-3	-27.8905E-3	7.63195E-12	309.548E-3	-5.69783E-3
1.04302E-3	7.57211E-12	314.230E-3	-30.7250E-3	7.73590E-12	301.464E-3	-13.8015E-3
1.03802E-3	7.46962E-12	307.264E-3	-25.9715E-3	7.61576E-12	283.734E-3	-23.3136E-3
1.03302E-3	7.20605E-12	312.264E-3	-26.4156E-3	7.35609E-12	275.823E-3	-11.9342E-3
1.02801E-3	7.01421E-12	311.365E-3	-25.6997E-3	7.13012E-12	270.574E-3	1.52931E-3
1.02301E-3	6.84046E-12	289.482E-3	-19.4472E-3	7.11208E-12	254.163E-3	-1.45789E-3
1.01801E-3	6.67805E-12	262.925E-3	-19.5749E-3	6.87068E-12	232.915E-3	-6.65419E-3
1.01301E-3	6.55863E-12	254.924E-3	-26.2837E-3	6.75672E-12	220.699E-3	-14.1842E-3
1.00800E-3	6.52748E-12	265.485E-3	-25.0771E-3	6.70139E-12	223.594E-3	-14.6566E-3
1.00300E-3	6.46004E-12	272.236E-3	-23.9707E-3	6.67236E-12	232.991E-3	-2.55280E-3
997.999E-6	6.37385E-12	264.652E-3	-32.8982E-3	6.50343E-12	229.720E-3	5.73789E-3
992.997E-6	6.33136E-12	246.590E-3	-41.1130E-3	6.32183E-12	201.462E-3	2.81550E-3
987.994E-6	6.29506E-12	230.498E-3	-38.3818E-3	6.30259E-12	185.875E-3	-3.50442E-3
982.991E-6	6.29276E-12	230.506E-3	-23.4425E-3	6.19980E-12	202.030E-3	-9.78827E-3
977.989E-6	6.21890E-12	239.073E-3	-10.3661E-3	6.07160E-12	218.549E-3	-15.8283E-3
972.986E-6	6.10458E-12	239.894E-3	-17.0421E-3	5.94374E-12	217.332E-3	-13.3897E-3
967.984E-6	6.06851E-12	232.832E-3	-24.6052E-3	5.86531E-12	208.612E-3	-10.8682E-3
962.981E-6	6.01548E-12	226.181E-3	-14.7682E-3	5.83168E-12	198.516E-3	-16.6031E-3
957.979E-6	5.94080E-12	217.733E-3	-6.42723E-3	5.77882E-12	190.857E-3	-18.9520E-3
952.976E-6	5.89782E-12	214.127E-3	-11.5271E-3	5.64067E-12	196.042E-3	-20.1206E-3
947.974E-6	5.75501E-12	208.942E-3	-29.2140E-3	5.59534E-12	195.281E-3	-21.4313E-3
942.971E-6	5.68503E-12	187.164E-3	-44.4139E-3	5.67764E-12	184.703E-3	-17.5558E-3
937.969E-6	5.62614E-12	176.759E-3	-37.2742E-3	5.64342E-12	183.850E-3	-20.5514E-3
932.966E-6	5.58439E-12	189.915E-3	-16.8028E-3	5.53494E-12	186.060E-3	-24.0303E-3
927.964E-6	5.38316E-12	202.253E-3	-9.57086E-3	5.43246E-12	175.423E-3	-15.4215E-3
922.961E-6	5.36212E-12	202.905E-3	-22.0184E-3	5.43603E-12	165.078E-3	-5.36816E-3
917.959E-6	5.36403E-12	190.798E-3	-29.6545E-3	5.32287E-12	161.162E-3	28.2069E-6
912.956E-6	5.30266E-12	172.810E-3	-18.4337E-3	5.26304E-12	156.565E-3	1.78718E-3
907.954E-6	5.12711E-12	168.458E-3	-10.6567E-3	5.21656E-12	156.508E-3	-4.25732E-3
902.951E-6	5.13714E-12	166.933E-3	-18.1550E-3	5.11800E-12	159.450E-3	-17.8307E-3
897.949E-6	5.07828E-12	164.678E-3	-26.8785E-3	4.99380E-12	158.920E-3	-31.4208E-3
892.946E-6	4.99763E-12	177.369E-3	-33.5692E-3	4.99579E-12	150.169E-3	-35.6651E-3
887.944E-6	5.10286E-12	177.888E-3	-32.6551E-3	4.91241E-12	139.193E-3	-25.5141E-3
882.941E-6	4.99467E-12	162.285E-3	-20.7427E-3	4.85044E-12	134.544E-3	-6.21368E-3
877.939E-6	4.83036E-12	153.430E-3	-12.5448E-3	4.71741E-12	142.798E-3	4.10604E-3
872.936E-6	4.85486E-12	146.297E-3	-8.18637E-3	4.72406E-12	154.059E-3	-4.60680E-3
867.934E-6	4.80799E-12	131.664E-3	-9.04858E-3	4.72884E-12	153.477E-3	-11.4827E-3
862.931E-6	4.70277E-12	128.973E-3	-22.2409E-3	4.66621E-12	148.324E-3	-8.12922E-3
857.929E-6	4.67460E-12	147.049E-3	-28.6128E-3	4.59767E-12	146.209E-3	-13.6589E-3
852.926E-6	4.58339E-12	152.200E-3	-22.3017E-3	4.60556E-12	137.467E-3	-22.6046E-3
847.924E-6	4.59534E-12	147.079E-3	-13.8938E-3	4.60923E-12	129.794E-3	-14.0607E-3
842.921E-6	4.57872E-12	147.575E-3	-12.9716E-3	4.58487E-12	125.829E-3	-1.42642E-3
837.919E-6	4.44753E-12	134.417E-3	-16.2800E-3	4.51924E-12	114.815E-3	-6.15424E-3
832.916E-6	4.33508E-12	119.234E-3	-7.31129E-3	4.47093E-12	114.022E-3	-14.1896E-3
827.914E-6	4.41111E-12	127.202E-3	2.88442E-3	4.49941E-12	117.390E-3	-18.6944E-3
822.911E-6	4.33531E-12	138.655E-3	-5.27426E-3	4.39624E-12	110.152E-3	-22.3503E-3
817.909E-6	4.28005E-12	125.154E-3	-18.0955E-3	4.30966E-12	111.987E-3	-17.5387E-3
812.906E-6	4.21694E-12	100.344E-3	-10.8135E-3	4.25311E-12	119.897E-3	-9.08505E-3
807.904E-6	4.21055E-12	93.8538E-3	-1.04980E-3	4.23576E-12	116.039E-3	-12.7878E-3
802.901E-6	4.22293E-12	107.619E-3	-11.9554E-3	4.22040E-12	110.912E-3	-29.6392E-3
797.899E-6	4.20664E-12	122.671E-3	-25.0509E-3	4.14097E-12	110.898E-3	-31.0555E-3
792.896E-6	4.05808E-12	117.711E-3	-23.0526E-3	4.09507E-12	103.727E-3	-13.5236E-3
787.894E-6	4.06409E-12	108.501E-3	-12.5190E-3	4.05253E-12	98.3076E-3	-9.69608E-3
782.891E-6	4.04566E-12	113.838E-3	-8.48655E-3	3.99362E-12	104.916E-3	-18.1589E-3
777.889E-6	3.98515E-12	121.556E-3	-13.1530E-3	4.01357E-12	101.545E-3	-24.1823E-3
772.886E-6	3.95248E-12	115.857E-3	-22.1195E-3	3.97508E-12	90.0976E-3	-23.7991E-3
767.884E-6	3.87887E-12	103.718E-3	-24.9221E-3	3.90636E-12	92.0040E-3	-13.9553E-3
762.881E-6	3.88713E-12	108.162E-3	-12.2192E-3	3.88503E-12	98.7834E-3	-14.0859E-3
757.879E-6	3.85366E-12	112.587E-3	1.52052E-3	3.83614E-12	92.3682E-3	-22.1007E-3
752.876E-6	3.85614E-12	99.3638E-3	3.05860E-3	3.85726E-12	85.9903E-3	-14.7604E-3
747.874E-6	3.76822E-12	88.9547E-3	-8.65982E-3	3.84326E-12	93.8045E-3	-9.48061E-3
742.871E-6	3.73052E-12	91.1800E-3	-24.0683E-3	3.69989E-12	93.0263E-3	-13.7798E-3
737.869E-6	3.67332E-12	88.8545E-3	-25.5449E-3	3.66585E-12	86.6254E-3	-7.38316E-3
732.866E-6	3.73903E-12	85.4762E-3	-12.8784E-3	3.65155E-12	94.9758E-3	-3.54026E-3
727.864E-6	3.67841E-12	98.2586E-3	-9.48230E-3	3.63332E-12	98.9245E-3	-14.9704E-3
722.861E-6	3.57625E-12	113.252E-3	-20.2508E-3	3.57833E-12	92.8410E-3	-17.8304E-3
717.859E-6	3.55081E-12	114.629E-3	-25.2379E-3	3.51104E-12	92.6671E-3	-9.57643E-3
712.856E-6	3.58805E-12	107.220E-3	-20.9550E-3	3.58955E-12	90.7516E-3	-7.13792E-3
707.854E-6	3.55016E-12	103.758E-3	-12.9973E-3	3.51674E-12	92.7067E-3	-10.1866E-3
702.851E-6	3.44313E-12	108.150E-3	-12.7917E-3	3.37106E-12	100.734E-3	-12.5447E-3
697.849E-6	3.40966E-12	110.822E-3	-25.5290E-3	3.38951E-12	101.007E-3	-11.6965E-3
692.846E-6	3.41593E-12	98.9482E-3	-32.8548E-3	3.45209E-12	100.869E-3	-10.5905E-3
687.844E-6	3.41800E-12	72.3648E-3	-24.6707E-3	3.41634E-12	104.602E-3	-11.5328E-3
682.841E-6	3.33831E-12	56.2663E-3	-17.6800E-3	3.36607E-12	99.0984E-3	-15.1956E-3
677.839E-6	3.23645E-12	62.8446E-3	-19.9862E-3	3.30510E-12	85.6179E-3	-22.6805E-3
672.836E-6	3.24892E-12	72.8893E-3	-21.1550E-3	3.24494E-12	78.6056E-3	-26.4896E-3
667.834E-6	3.28727E-12	78.0930E-3	-20.7093E-3	3.24614E-12	73.9423E-3	-24.8125E-3
662.831E-6	3.18390E-12	82.8191E-3	-24.5014E-3	3.23494E-12	72.1053E-3	-28.5564E-3
657.829E-6	3.19456E-12	90.6745E-3	-23.0764E-3	3.25825E-12	79.3459E-3	-28.2278E-3
652.826E-6	3.18370E-12	100.929E-3	-15.4680E-3	3.16552E-12	80.0492E-3	-18.3398E-3
647.824E-6	3.12358E-12	109.800E-3	-20.3634E-3	3.08458E-12	75.4768E-3	-17.5355E-3
642.821E-6	3.11747E-12	111.686E-3	-28.4843E-3	3.08957E-12	73.9238E-3	-25.2396E-3
637.819E-6	3.18592E-12	95.1873E-3	-22.5228E-3	3.07791E-12	73.6157E-3	-25.0946E-3
632.816E-6	3.11569E-12	75.1635E-3	-14.5929E-3	3.02997E-12	77.5829E-3	-15.3799E-3
627.814E-6	3.01078E-12	73.8596E-3	-14.8783E-3	2.97980E-12	77.3114E-3	-4.13478E-3
622.811E-6	3.02833E-12	80.6199E-3	-27.7149E-3	2.93223E-12	68.2391E-3	-40.1173E-6
617.809E-6	3.00665E-12	81.0512E-3	-40.3239E-3	2.97849E-12	59.3914E-3	-1.08839E-3
612.806E-6	2.94201E-12	76.2147E-3	-36.8454E-3	2.95550E-12	57.1428E-3	-6.82278E-3
607.804E-6	2.90531E-12	74.1291E-3	-27.9986E-3	2.87859E-12	65.5612E-3	-18.9431E-3
602.801E-6	2.84448E-12	79.4098E-3	-25.0637E-3	2.88492E-12	76.5179E-3	-25.1702E-3
597.799E-6	2.83826E-12	78.3371E-3	-27.1758E-3	2.88733E-12	79.1559E-3	-20.5302E-3
592.796E-6	2.85527E-12	66.4391E-3	-20.3629E-3	2.89108E-12	80.7314E-3	-19.4728E-3
587.794E-6	2.75869E-12	59.5441E-3	-11.2399E-3	2.79485E-12	87.1184E-3	-24.1452E-3
582.791E-6	2.66205E-12	56.8779E-3	-18.0747E-3	2.74684E-12	93.1721E-3	-19.9807E-3
577.789E-6	2.72537E-12	61.6890E-3	-25.3620E-3	2.75521E-12	91.3077E-3	-11.9528E-3
572.786E-6	2.70418E-12	72.5395E-3	-23.2276E-3	2.73081E-12	78.9176E-3	-13.4432E-3
567.784E-6	2.60697E-12	85.1349E-3	-20.0923E-3	2.65692E-12	72.2771E-3	-16.8783E-3
562.781E-6	2.63326E-12	102.866E-3	-16.6507E-3	2.56709E-12	82.3717E-3	-8.40946E-3
557.779E-6	2.57161E-12	105.456E-3	-16.1306E-3	2.52502E-12	87.0022E-3	-917.803E-6
552.776E-6	2.63420E-12	92.4457E-3	-11.4142E-3	2.54915E-12	80.2527E-3	-1.35622E-3
547.774E-6	2.59358E-12	92.2984E-3	-2.44332E-3	2.47603E-12	70.9362E-3	3.23812E-3
542.771E-6	2.51585E-12	90.5726E-3	-2.59374E-3	2.44746E-12	69.3413E-3	2.07714E-3
537.769E-6	2.53431E-12	82.4236E-3	-8.07606E-3	2.44814E-12	75.0945E-3	-12.4094E-3
532.766E-6	2.49952E-12	90.0627E-3	-19.0284E-3	2.38710E-12	73.4383E-3	-29.2009E-3
527.764E-6	2.45087E-12	97.5788E-3	-24.6797E-3	2.34833E-12	75.6834E-3	-41.3204E-3
522.761E-6	2.41784E-12	101.760E-3	-20.4582E-3	2.38456E-12	81.7458E-3	-38.6404E-3
517.759E-6	2.35574E-12	102.851E-3	-23.4466E-3	2.31827E-12	84.2556E-3	-27.8530E-3
512.756E-6	2.34881E-12	86.9114E-3	-27.4515E-3	2.29449E-12	89.0494E-3	-22.8362E-3
507.754E-6	2.24246E-12	71.5152E-3	-21.3232E-3	2.28141E-12	90.6732E-3	-20.5903E-3
502.751E-6	2.27057E-12	80.6953E-3	-17.5679E-3	2.30970E-12	91.8679E-3	-19.3302E-3
497.749E-6	2.18850E-12	101.107E-3	-19.2953E-3	2.28719E-12	96.1968E-3	-22.8758E-3
492.746E-6	2.13577E-12	104.267E-3	-21.3801E-3	2.16142E-12	100.112E-3	-18.1443E-3
487.744E-6	2.09212E-12	95.6627E-3	-21.8600E-3	2.15146E-12	106.932E-3	-732.884E-6
482.741E-6	2.14163E-12	91.1487E-3	-12.6777E-3	2.20397E-12	106.749E-3	-3.93198E-3
477.739E-6	2.08404E-12	90.6877E-3	-3.64320E-3	2.08832E-12	99.0727E-3	-19.8636E-3
472.736E-6	1.98306E-12	93.8650E-3	-16.3682E-3	2.03280E-12	96.4348E-3	-11.9834E-3
467.734E-6	1.94775E-12	91.5024E-3	-32.1222E-3	1.93617E-12	92.1568E-3	2.09310E-3
462.731E-6	1.96776E-12	80.7259E-3	-29.9515E-3	1.99440E-12	90.0405E-3	2.61969E-3
457.729E-6	2.01803E-12	80.6899E-3	-16.9845E-3	1.89675E-12	101.807E-3	-6.36151E-3
452.726E-6	1.91071E-12	93.2686E-3	-1.36449E-3	1.84264E-12	105.093E-3	-16.2772E-3
447.724E-6	1.85561E-12	101.917E-3	917.210E-6	1.82933E-12	98.5822E-3	-21.2027E-3
442.721E-6	1.86656E-12	101.600E-3	-8.09248E-3	1.79292E-12	99.8046E-3	-21.3651E-3
437.719E-6	1.89951E-12	99.2405E-3	-9.07622E-3	1.81341E-12	100.335E-3	-22.8684E-3
432.716E-6	1.77652E-12	98.6642E-3	-6.37324E-3	1.80715E-12	99.5688E-3	-30.7790E-3
427.714E-6	1.69980E-12	102.241E-3	-12.4752E-3	1.69288E-12	104.036E-3	-30.3579E-3
422.711E-6	1.68019E-12	102.991E-3	-22.2149E-3	1.73259E-12	104.240E-3	-17.2796E-3
417.709E-6	1.70485E-12	102.773E-3	-20.3423E-3	1.67083E-12	101.729E-3	-4.46136E-3
412.706E-6	1.62975E-12	108.546E-3	-5.96286E-3	1.67329E-12	95.8652E-3	-6.25221E-3
407.704E-6	1.61458E-12	113.183E-3	-990.103E-6	1.64426E-12	87.8149E-3	-12.0766E-3
402.701E-6	1.57072E-12	110.750E-3	-3.35073E-3	1.59040E-12	95.0287E-3	-11.9566E-3
397.699E-6	1.51091E-12	107.906E-3	-1.65533E-3	1.49939E-12	102.257E-3	-14.4256E-3
392.696E-6	1.48919E-12	110.069E-3	-7.50969E-3	1.49808E-12	93.0896E-3	-20.7746E-3
387.694E-6	1.51430E-12	99.5260E-3	-14.8499E-3	1.49198E-12	87.9000E-3	-25.2047E-3
382.691E-6	1.47129E-12	89.2013E-3	-17.9410E-3	1.45522E-12	95.5794E-3	-18.3869E-3
377.689E-6	1.38214E-12	94.8360E-3	-17.4625E-3	1.33180E-12	97.5915E-3	-13.7011E-3
372.686E-6	1.34036E-12	96.1606E-3	-12.7643E-3	1.30347E-12	92.1481E-3	-31.6415E-3
367.684E-6	1.38442E-12	88.6009E-3	-16.2929E-3	1.32407E-12	84.4152E-3	-49.4088E-3
362.681E-6	1.35112E-12	89.2842E-3	-23.7813E-3	1.29754E-12	83.2132E-3	-44.0902E-3
357.679E-6	1.23264E-12	89.9982E-3	-21.6232E-3	1.24976E-12	96.7914E-3	-38.9497E-3
352.676E-6	1.18923E-12	82.6471E-3	-20.5086E-3	1.20769E-12	103.796E-3	-34.1940E-3
347.674E-6	1.27548E-12	78.2039E-3	-23.0063E-3	1.19671E-12	98.5608E-3	-21.4019E-3
342.671E-6	1.25054E-12	77.1747E-3	-20.4530E-3	1.18604E-12	93.7445E-3	-21.5854E-3
337.669E-6	1.09018E-12	80.6901E-3	-18.9191E-3	1.12417E-12	92.1357E-3	-28.1447E-3
332.666E-6	1.06827E-12	85.7378E-3	-18.8939E-3	1.08508E-12	91.8887E-3	-28.0305E-3
327.664E-6	1.10209E-12	88.7357E-3	-24.3103E-3	1.06194E-12	88.9983E-3	-31.4749E-3
322.661E-6	1.04007E-12	86.3604E-3	-36.3992E-3	1.09252E-12	78.8323E-3	-32.3426E-3
317.659E-6	1.03207E-12	72.4856E-3	-36.4727E-3	1.01052E-12	67.4633E-3	-18.5489E-3
312.656E-6	969.864E-15	64.1386E-3	-24.8861E-3	962.775E-15	66.1866E-3	-5.10100E-3
307.654E-6	949.940E-15	73.6436E-3	-23.4305E-3	911.671E-15	73.8368E-3	-10.4619E-3
302.651E-6	969.175E-15	82.8691E-3	-34.0215E-3	937.568E-15	85.4294E-3	-18.9877E-3
297.649E-6	932.938E-15	91.6574E-3	-29.9142E-3	879.183E-15	92.2825E-3	-15.6399E-3
292.646E-6	875.879E-15	93.8020E-3	-20.3963E-3	828.672E-15	83.9193E-3	-15.3993E-3
287.644E-6	840.609E-15	81.5452E-3	-29.0759E-3	817.032E-15	68.9790E-3	-17.5368E-3
282.641E-6	802.157E-15	75.9000E-3	-35.2904E-3	793.176E-15	61.4340E-3	-8.95357E-3
277.639E-6	772.502E-15	81.2640E-3	-34.2102E-3	752.683E-15	64.1207E-3	-7.18939E-3
272.636E-6	787.482E-15	93.3105E-3	-33.6456E-3	738.227E-15	70.2386E-3	-19.0513E-3
267.634E-6	741.017E-15	98.8612E-3	-25.8456E-3	702.469E-15	69.4607E-3	-23.0832E-3
262.631E-6	659.535E-15	90.3351E-3	-17.1235E-3	658.689E-15	74.4204E-3	-12.5006E-3
257.629E-6	660.651E-15	82.6037E-3	-9.78014E-3	673.730E-15	78.5383E-3	-4.64508E-3
252.626E-6	650.249E-15	81.9068E-3	-2.67821E-3	661.933E-15	73.1113E-3	-10.0494E-3
247.624E-6	657.268E-15	76.3871E-3	-8.79295E-3	661.401E-15	75.7626E-3	-19.3090E-3
242.621E-6	573.772E-15	69.0806E-3	-19.7279E-3	561.547E-15	75.7918E-3	-24.5128E-3
237.619E-6	573.057E-15	72.4484E-3	-14.9723E-3	563.954E-15	59.9195E-3	-32.0279E-3
232.616E-6	608.867E-15	71.2656E-3	153.041E-6	568.645E-15	47.7530E-3	-38.6509E-3
227.614E-6	544.144E-15	67.3384E-3	5.57546E-3	536.654E-15	46.8818E-3	-33.0827E-3
222.611E-6	440.637E-15	74.2584E-3	-5.70247E-3	482.446E-15	54.3168E-3	-17.1258E-3
217.609E-6	437.576E-15	82.0657E-3	-13.5191E-3	425.143E-15	68.8242E-3	-9.49627E-3
212.606E-6	488.000E-15	77.7354E-3	-9.08411E-3	479.734E-15	73.4529E-3	-21.1007E-3
207.604E-6	508.996E-15	70.4711E-3	-8.42819E-3	445.467E-15	69.3435E-3	-32.2706E-3
202.601E-6	360.184E-15	63.0047E-3	-16.1001E-3	362.460E-15	67.6344E-3	-33.3962E-3
197.599E-6	382.374E-15	50.9417E-3	-21.0843E-3	363.026E-15	56.5408E-3	-33.2293E-3
192.596E-6	370.132E-15	50.8139E-3	-17.6711E-3	339.877E-15	43.8282E-3	-24.7880E-3
187.594E-6	362.486E-15	49.9962E-3	-13.5390E-3	376.201E-15	41.7041E-3	-14.0252E-3
182.591E-6	323.868E-15	41.2963E-3	-13.9687E-3	308.452E-15	42.6858E-3	-12.8644E-3
177.589E-6	301.991E-15	48.5572E-3	-20.1854E-3	296.777E-15	49.5838E-3	-11.6299E-3
172.586E-6	273.087E-15	53.6353E-3	-26.4105E-3	285.547E-15	62.6216E-3	-11.3763E-3
167.584E-6	284.657E-15	42.9140E-3	-24.5237E-3	274.517E-15	58.4609E-3	-18.1615E-3
162.581E-6	258.865E-15	31.4815E-3	-19.6728E-3	258.909E-15	39.9448E-3	-28.1568E-3
157.579E-6	206.096E-15	27.4037E-3	-12.7296E-3	252.021E-15	37.4028E-3	-29.3383E-3
152.576E-6	226.499E-15	37.3924E-3	-7.21316E-3	225.148E-15	45.1862E-3	-26.3263E-3
147.574E-6	190.044E-15	42.9262E-3	-7.21633E-3	198.258E-15	46.5669E-3	-23.3203E-3
142.571E-6	165.377E-15	36.7901E-3	-10.0299E-3	208.764E-15	38.7043E-3	-16.9436E-3
137.569E-6	196.008E-15	32.5577E-3	-11.3451E-3	192.337E-15	30.4287E-3	-16.1298E-3
132.566E-6	140.152E-15	34.2932E-3	-8.40021E-3	161.506E-15	27.3226E-3	-16.9919E-3
127.564E-6	172.980E-15	36.3035E-3	-13.8423E-3	127.317E-15	25.2914E-3	-10.9426E-3
122.561E-6	127.901E-15	31.8695E-3	-24.7245E-3	109.643E-15	27.2263E-3	-9.25916E-3
117.559E-6	155.053E-15	34.2109E-3	-21.5765E-3	179.860E-15	35.6787E-3	-12.5804E-3
112.556E-6	152.185E-15	43.5409E-3	-12.7290E-3	107.490E-15	35.6243E-3	-17.2530E-3
107.554E-6	81.3578E-15	49.5838E-3	-13.3352E-3	88.9087E-15	28.2196E-3	-26.3668E-3
102.551E-6	47.7884E-15	47.8325E-3	-12.8325E-3	61.4167E-15	33.2442E-3	-28.0032E-3
97.5488E-6	106.417E-15	32.9069E-3	-15.1769E-3	66.5872E-15	39.4307E-3	-17.8120E-3
92.5463E-6	142.105E-15	23.6214E-3	-20.8052E-3	94.1839E-15	38.9180E-3	-5.13552E-3
87.5438E-6	-577.578E-18	30.9117E-3	-9.63532E-3	-23.7622E-15	36.3861E-3	-6.28169E-3
82.5413E-6	-47.5136E-15	37.9988E-3	3.05801E-3	15.7450E-15	30.6128E-3	-18.2893E-3
77.5388E-6	39.2086E-15	31.9415E-3	3.12890E-3	32.6430E-15	30.2204E-3	-22.1620E-3
72.5363E-6	55.7840E-15	25.7831E-3	-2.89046E-3	29.0419E-15	33.2742E-3	-19.5890E-3
67.5338E-6	-15.7230E-15	33.9860E-3	-7.21877E-3	-16.0544E-15	26.4590E-3	-22.7099E-3
62.5313E-6	-71.9974E-15	32.0400E-3	-5.87175E-3	-91.2584E-15	28.8898E-3	-31.5105E-3
57.5288E-6	-11.3023E-15	17.7568E-3	-14.1476E-3	-36.5796E-15	36.9210E-3	-33.8276E-3
52.5263E-6	23.5051E-15	25.4300E-3	-27.4812E-3	-15.7230E-15	29.2620E-3	-20.3615E-3
47.5238E-6	-62.0138E-15	41.7972E-3	-26.7050E-3	-34.0946E-15	28.4874E-3	-9.03725E-3
42.5213E-6	-104.224E-15	43.2722E-3	-23.2108E-3	-62.4149E-15	28.7504E-3	-12.1565E-3
37.5188E-6	-39.8232E-15	35.9562E-3	-21.8733E-3	-59.1888E-15	21.5167E-3	-19.1112E-3
32.5163E-6	-59.1277E-15	29.8055E-3	-14.5968E-3	-110.467E-15	20.3944E-3	-20.6019E-3
27.5138E-6	-74.1947E-15	23.3541E-3	-3.35022E-3	-82.1554E-15	26.4497E-3	-18.8024E-3
22.5113E-6	-86.1053E-15	22.2442E-3	-1.60753E-3	-68.5010E-15	37.8828E-3	-11.9064E-3
17.5088E-6	-122.805E-15	31.6340E-3	-17.0230E-3	-119.317E-15	47.7067E-3	-4.00061E-3
12.5063E-6	-158.310E-15	37.4823E-3	-28.6663E-3	-133.181E-15	47.7571E-3	-8.82150E-3
7.50375E-6	-130.792E-15	34.5336E-3	-23.3717E-3	-139.790E-15	35.2642E-3	-14.9078E-3
2.50125E-6	-153.218E-15	25.7231E-3	-13.0291E-3	-129.806E-15	19.7526E-3	-14.6472E-3
-2.50125E-6	-145.283E-15	22.7185E-3	-9.35188E-3	-150.794E-15	14.4476E-3	-19.0765E-3
-7.50375E-6	-219.205E-15	23.3524E-3	-9.75644E-3	-208.219E-15	17.9017E-3	-25.0419E-3
-12.5063E-6	-210.844E-15	17.8705E-3	-16.4093E-3	-213.433E-15	22.9820E-3	-22.0414E-3
-17.5088E-6	-140.383E-15	10.0110E-3	-26.6844E-3	-180.954E-15	27.2495E-3	-11.9404E-3
-22.5113E-6	-178.556E-15	11.7262E-3	-24.0468E-3	-182.768E-15	30.7763E-3	-4.92645E-3
-27.5138E-6	-260.579E-15	22.5079E-3	-12.8703E-3	-247.325E-15	36.2205E-3	1.18011E-3
-32.5163E-6	-248.781E-15	27.3163E-3	-16.4719E-3	-287.983E-15	39.3399E-3	2.91812E-3
-37.5188E-6	-194.765E-15	25.1925E-3	-25.1227E-3	-199.822E-15	36.1652E-3	-7.13684E-3
-42.5213E-6	-182.576E-15	24.4157E-3	-16.1766E-3	-254.937E-15	30.6656E-3	-17.3699E-3
-47.5238E-6	-292.980E-15	29.6896E-3	-5.89164E-3	-279.168E-15	35.1768E-3	-21.5912E-3
-52.5263E-6	-275.393E-15	29.9915E-3	-4.23566E-3	-307.253E-15	40.0093E-3	-18.7605E-3
-57.5288E-6	-287.748E-15	24.0451E-3	-7.88509E-3	-299.162E-15	42.0969E-3	-5.58702E-3
-62.5313E-6	-287.460E-15	26.0833E-3	-22.5350E-3	-258.242E-15	54.5059E-3	-6.21189E-3
-67.5338E-6	-353.605E-15	26.5050E-3	-32.3594E-3	-315.406E-15	50.0593E-3	-25.9920E-3
-72.5363E-6	-343.630E-15	21.6863E-3	-27.6460E-3	-360.886E-15	38.0237E-3	-30.5635E-3
-77.5388E-6	-358.906E-15	28.0292E-3	-19.3443E-3	-339.541E-15	50.3558E-3	-18.3305E-3
-82.5413E-6	-350.030E-15	35.9256E-3	-10.8076E-3	-392.476E-15	59.8568E-3	-6.90558E-3
-87.5438E-6	-392.162E-15	32.4826E-3	-7.99181E-3	-407.246E-15	48.2154E-3	-8.35175E-3
-92.5463E-6	-396.722E-15	27.6867E-3	-10.7055E-3	-380.408E-15	45.6071E-3	-19.3388E-3
-97.5488E-6	-419.767E-15	33.6066E-3	-13.3576E-3	-408.467E-15	57.5511E-3	-19.5803E-3
-102.551E-6	-436.735E-15	37.9580E-3	-14.1413E-3	-451.959E-15	59.4445E-3	-6.79396E-3
-107.554E-6	-450.067E-15	37.8952E-3	-16.6128E-3	-438.322E-15	54.0425E-3	-7.03746E-3
-112.556E-6	-426.742E-15	48.7066E-3	-19.6585E-3	-445.820E-15	60.1988E-3	-24.9772E-3
-117.559E-6	-431.617E-15	56.5337E-3	-17.1242E-3	-450.381E-15	65.1449E-3	-35.2884E-3
-122.561E-6	-488.301E-15	52.4913E-3	-19.2458E-3	-554.873E-15	61.2576E-3	-33.4676E-3
-127.564E-6	-529.491E-15	42.9942E-3	-22.5173E-3	-567.367E-15	60.2834E-3	-20.5933E-3
-132.566E-6	-482.075E-15	35.0779E-3	-17.2410E-3	-508.216E-15	52.9259E-3	-10.4627E-3
-137.569E-6	-497.622E-15	35.6310E-3	-15.0705E-3	-549.013E-15	44.1189E-3	-12.0854E-3
-142.571E-6	-581.781E-15	46.4909E-3	-19.5102E-3	-598.129E-15	53.6343E-3	-20.5958E-3
-147.574E-6	-645.039E-15	58.9248E-3	-24.2204E-3	-684.171E-15	65.1547E-3	-33.3162E-3
-152.576E-6	-572.826E-15	69.5711E-3	-17.0267E-3	-608.235E-15	61.3625E-3	-32.1654E-3
-157.579E-6	-567.830E-15	80.0219E-3	-7.45248E-3	-606.665E-15	56.7084E-3	-26.5439E-3
-162.581E-6	-651.805E-15	77.1349E-3	-12.4228E-3	-686.159E-15	51.3285E-3	-26.0101E-3
-167.584E-6	-721.350E-15	66.8786E-3	-16.1668E-3	-715.011E-15	49.5359E-3	-16.2759E-3
-172.586E-6	-696.666E-15	60.6824E-3	-16.0034E-3	-721.961E-15	63.6847E-3	-11.0090E-3
-177.589E-6	-708.943E-15	57.4986E-3	-15.2749E-3	-737.908E-15	76.0129E-3	-11.8195E-3
-182.591E-6	-719.467E-15	56.5584E-3	-11.3923E-3	-735.101E-15	79.5465E-3	-4.56846E-3
-187.594E-6	-826.418E-15	54.3425E-3	-14.4775E-3	-816.243E-15	76.8924E-3	-2.87053E-3
-192.596E-6	-805.405E-15	48.9720E-3	-14.6452E-3	-823.401E-15	59.6270E-3	-14.5227E-3
-197.599E-6	-775.018E-15	47.3489E-3	-9.84118E-3	-805.649E-15	53.0058E-3	-27.5444E-3
-202.601E-6	-825.503E-15	59.8856E-3	-14.1684E-3	-860.903E-15	67.2022E-3	-21.8368E-3
-207.604E-6	-937.467E-15	78.4614E-3	-22.3938E-3	-890.296E-15	76.3374E-3	76.4943E-6
-212.606E-6	-903.610E-15	83.5660E-3	-26.0607E-3	-952.604E-15	74.3635E-3	5.71339E-3
-217.609E-6	-961.559E-15	74.1636E-3	-28.8136E-3	-1.00405E-12	66.0718E-3	-4.85884E-3
-222.611E-6	-996.166E-15	72.6484E-3	-24.5110E-3	-966.180E-15	67.2530E-3	-15.1821E-3
-227.614E-6	-958.115E-15	86.0438E-3	-6.51297E-3	-990.620E-15	80.6044E-3	-17.8425E-3
-232.616E-6	-1.03651E-12	93.0141E-3	376.090E-6	-1.08325E-12	86.8829E-3	-11.8537E-3
-237.619E-6	-1.09574E-12	91.1965E-3	-14.4238E-3	-1.09652E-12	92.6149E-3	-11.3373E-3
-242.621E-6	-1.15714E-12	103.259E-3	-18.5463E-3	-1.15269E-12	99.5091E-3	-19.9653E-3
-247.624E-6	-1.11920E-12	118.178E-3	-7.31984E-3	-1.15463E-12	101.881E-3	-31.7263E-3
-252.626E-6	-1.16125E-12	108.381E-3	-10.7130E-3	-1.12968E-12	106.394E-3	-37.0603E-3
-257.629E-6	-1.20165E-12	88.4099E-3	-28.2869E-3	-1.26214E-12	115.839E-3	-27.4238E-3
-262.631E-6	-1.26851E-12	84.5385E-3	-33.0922E-3	-1.28910E-12	119.203E-3	-13.9970E-3
-267.634E-6	-1.23514E-12	91.5631E-3	-19.1704E-3	-1.31455E-12	112.538E-3	-12.5852E-3
-272.636E-6	-1.29622E-12	104.482E-3	2.55992E-3	-1.32941E-12	113.085E-3	-18.1218E-3
-277.639E-6	-1.37924E-12	116.765E-3	19.5718E-3	-1.39829E-12	123.629E-3	-20.7781E-3
-282.641E-6	-1.43322E-12	114.377E-3	15.8733E-3	-1.50744E-12	130.490E-3	-18.9375E-3
-287.644E-6	-1.45068E-12	115.056E-3	-4.93915E-3	-1.45057E-12	123.736E-3	-12.3280E-3
-292.646E-6	-1.44352E-12	121.802E-3	-20.9991E-3	-1.50100E-12	122.197E-3	-6.79361E-3
-297.649E-6	-1.53752E-12	125.807E-3	-18.8892E-3	-1.53043E-12	133.957E-3	-12.2191E-3
-302.651E-6	-1.58891E-12	131.983E-3	-8.33957E-3	-1.61211E-12	139.973E-3	-19.5514E-3
-307.654E-6	-1.61137E-12	131.269E-3	-11.7503E-3	-1.63689E-12	141.363E-3	-10.5676E-3
-312.656E-6	-1.61737E-12	120.666E-3	-22.8704E-3	-1.61783E-12	141.036E-3	1.77073E-3
-317.659E-6	-1.72724E-12	116.044E-3	-25.1778E-3	-1.67510E-12	140.586E-3	3.42273E-3
-322.661E-6	-1.83114E-12	119.302E-3	-18.6627E-3	-1.74089E-12	143.357E-3	-862.601E-6
-327.664E-6	-1.84535E-12	120.809E-3	-9.97803E-3	-1.81603E-12	149.729E-3	-10.0707E-3
-332.666E-6	-1.82351E-12	125.862E-3	-2.54871E-3	-1.82053E-12	154.868E-3	-17.9002E-3
-337.669E-6	-1.87734E-12	134.283E-3	2.98639E-3	-1.82745E-12	143.308E-3	-16.2855E-3
-342.671E-6	-1.94823E-12	134.056E-3	-4.19789E-3	-1.92289E-12	125.490E-3	-12.2889E-3
-347.674E-6	-1.98053E-12	128.518E-3	-13.3425E-3	-1.95230E-12	119.575E-3	-14.3308E-3
-352.676E-6	-2.06110E-12	129.080E-3	-14.0078E-3	-2.06704E-12	125.033E-3	-18.4909E-3
-357.679E-6	-2.05113E-12	133.205E-3	-15.6795E-3	-2.08148E-12	140.829E-3	-17.6571E-3
-362.681E-6	-2.08784E-12	142.909E-3	-18.2107E-3	-2.06031E-12	144.761E-3	-12.7475E-3
-367.684E-6	-2.12148E-12	155.233E-3	-25.2380E-3	-2.16922E-12	128.692E-3	-7.51704E-3
-372.686E-6	-2.21553E-12	152.095E-3	-29.4599E-3	-2.27250E-12	126.886E-3	-7.86734E-3
-377.689E-6	-2.24441E-12	131.178E-3	-25.8039E-3	-2.31628E-12	141.875E-3	-13.1343E-3
-382.691E-6	-2.27958E-12	124.817E-3	-25.8166E-3	-2.28966E-12	143.770E-3	-10.7456E-3
-387.694E-6	-2.34674E-12	133.823E-3	-24.2334E-3	-2.37317E-12	140.233E-3	-6.94787E-3
-392.696E-6	-2.43894E-12	135.280E-3	-22.4487E-3	-2.43575E-12	135.755E-3	-11.0019E-3
-397.699E-6	-2.49428E-12	134.059E-3	-23.9485E-3	-2.49801E-12	120.668E-3	-3.75831E-3
-402.701E-6	-2.48200E-12	135.893E-3	-25.9343E-3	-2.46213E-12	119.721E-3	6.64164E-3
-407.704E-6	-2.54793E-12	144.669E-3	-31.4524E-3	-2.50713E-12	135.084E-3	-1.47109E-3
-412.706E-6	-2.67161E-12	151.268E-3	-37.1898E-3	-2.60959E-12	141.603E-3	-12.8015E-3
-417.709E-6	-2.68706E-12	149.548E-3	-32.8310E-3	-2.65188E-12	138.715E-3	-26.0436E-3
-422.711E-6	-2.70857E-12	152.342E-3	-14.8002E-3	-2.65767E-12	142.411E-3	-35.4640E-3
-427.714E-6	-2.79784E-12	154.917E-3	-3.75463E-3	-2.70164E-12	153.753E-3	-25.0195E-3
-432.716E-6	-2.83851E-12	152.415E-3	-11.1382E-3	-2.76594E-12	153.082E-3	-8.10959E-3
-437.719E-6	-2.90793E-12	144.667E-3	-19.4008E-3	-2.89337E-12	137.680E-3	-5.53762E-3
-442.721E-6	-2.85867E-12	133.787E-3	-24.1430E-3	-2.95559E-12	129.017E-3	-17.2246E-3
-447.724E-6	-2.86382E-12	132.021E-3	-22.3833E-3	-2.99213E-12	135.586E-3	-22.2108E-3
-452.726E-6	-2.95164E-12	136.296E-3	-9.55318E-3	-2.99381E-12	145.647E-3	-12.2016E-3
-457.729E-6	-3.04272E-12	137.757E-3	-1.71009E-3	-3.09195E-12	155.217E-3	-5.22938E-3
-462.731E-6	-3.00158E-12	137.345E-3	-5.95760E-3	-3.17775E-12	154.727E-3	-8.93424E-3
-467.734E-6	-3.08975E-12	146.677E-3	-11.7329E-3	-3.22183E-12	143.144E-3	-8.98164E-3
-472.736E-6	-3.21396E-12	157.289E-3	-15.8701E-3	-3.24953E-12	141.285E-3	-8.28455E-3
-477.739E-6	-3.24917E-12	154.980E-3	-11.7444E-3	-3.24013E-12	146.103E-3	-12.5744E-3
-482.741E-6	-3.26219E-12	152.099E-3	-3.14613E-3	-3.30601E-12	150.105E-3	-18.7352E-3
-487.744E-6	-3.33985E-12	146.559E-3	59.9801E-6	-3.37108E-12	150.135E-3	-25.1234E-3
-492.746E-6	-3.42491E-12	138.152E-3	2.20403E-3	-3.39826E-12	137.611E-3	-21.0186E-3
-497.749E-6	-3.45311E-12	138.513E-3	-3.47142E-3	-3.38969E-12	136.592E-3	-14.2254E-3
-502.751E-6	-3.46846E-12	143.105E-3	-13.7755E-3	-3.45516E-12	151.367E-3	-14.8800E-3
-507.754E-6	-3.58032E-12	146.075E-3	-23.0288E-3	-3.58989E-12	147.867E-3	-4.79476E-3
-512.756E-6	-3.61876E-12	143.280E-3	-25.3727E-3	-3.59834E-12	134.508E-3	672.983E-6
-517.759E-6	-3.61869E-12	131.544E-3	-20.3127E-3	-3.62072E-12	136.771E-3	-21.3734E-3
-522.761E-6	-3.60253E-12	129.021E-3	-17.1853E-3	-3.65170E-12	149.613E-3	-36.5080E-3
-527.764E-6	-3.74448E-12	140.544E-3	-12.1437E-3	-3.80124E-12	157.154E-3	-27.4202E-3
-532.766E-6	-3.79456E-12	147.993E-3	-11.4153E-3	-3.87073E-12	147.607E-3	-21.4984E-3
-537.769E-6	-3.77150E-12	145.094E-3	-18.2374E-3	-3.76575E-12	129.948E-3	-24.1456E-3
-542.771E-6	-3.78177E-12	132.916E-3	-21.0531E-3	-3.92268E-12	123.615E-3	-23.5182E-3
-547.774E-6	-3.87469E-12	128.179E-3	-19.4891E-3	-3.94973E-12	124.450E-3	-18.1679E-3
-552.776E-6	-3.91245E-12	135.900E-3	-14.2679E-3	-4.03802E-12	123.065E-3	-13.6282E-3
-557.779E-6	-3.91545E-12	135.138E-3	-11.6140E-3	-3.99270E-12	122.916E-3	-9.25371E-3
-562.781E-6	-3.95271E-12	130.300E-3	-17.9774E-3	-4.00175E-12	121.723E-3	-2.57055E-3
-567.784E-6	-4.05612E-12	128.418E-3	-17.7828E-3	-4.10235E-12	115.920E-3	-8.38042E-3
-572.786E-6	-4.15767E-12	115.579E-3	-17.6677E-3	-4.16778E-12	110.845E-3	-26.0349E-3
-577.789E-6	-4.17725E-12	109.164E-3	-28.8879E-3	-4.16355E-12	109.191E-3	-21.1242E-3
-582.791E-6	-4.19506E-12	123.704E-3	-30.4887E-3	-4.16392E-12	108.772E-3	-895.151E-6
-587.794E-6	-4.28090E-12	138.399E-3	-17.8731E-3	-4.20705E-12	111.588E-3	2.19329E-3
-592.796E-6	-4.36538E-12	139.104E-3	-9.07190E-3	-4.28353E-12	111.784E-3	-12.3555E-3
-597.799E-6	-4.35415E-12	129.623E-3	-9.16328E-3	-4.35014E-12	112.428E-3	-25.4407E-3
-602.801E-6	-4.42127E-12	124.040E-3	-17.1758E-3	-4.39968E-12	114.819E-3	-26.5043E-3
-607.804E-6	-4.44774E-12	127.876E-3	-25.6209E-3	-4.44295E-12	116.039E-3	-23.7537E-3
-612.806E-6	-4.43292E-12	128.076E-3	-13.2503E-3	-4.44000E-12	120.693E-3	-25.1931E-3
-617.809E-6	-4.47878E-12	123.349E-3	-1.22902E-3	-4.53068E-12	120.385E-3	-26.7608E-3
-622.811E-6	-4.57049E-12	113.169E-3	-7.62357E-3	-4.62485E-12	118.707E-3	-30.2470E-3
-627.814E-6	-4.54751E-12	99.4068E-3	-10.6422E-3	-4.59175E-12	122.617E-3	-32.9803E-3
-632.816E-6	-4.58318E-12	95.0983E-3	-5.20977E-3	-4.64300E-12	122.721E-3	-22.4179E-3
-637.819E-6	-4.57859E-12	91.8781E-3	-1.40118E-3	-4.68289E-12	118.124E-3	-10.8865E-3
-642.821E-6	-4.74810E-12	94.5193E-3	-4.07925E-3	-4.76926E-12	114.155E-3	-12.6839E-3
-647.824E-6	-4.76458E-12	100.148E-3	-5.35382E-3	-4.73997E-12	115.363E-3	-20.6392E-3
-652.826E-6	-4.76825E-12	102.177E-3	-4.23631E-3	-4.70735E-12	126.530E-3	-21.8067E-3
-657.829E-6	-4.73591E-12	117.108E-3	-9.83006E-3	-4.73277E-12	129.751E-3	-22.1417E-3
-662.831E-6	-4.88201E-12	124.992E-3	-25.1675E-3	-4.90376E-12	116.053E-3	-26.2238E-3
-667.834E-6	-4.97943E-12	118.990E-3	-46.2602E-3	-4.86946E-12	99.3763E-3	-19.2420E-3
-672.836E-6	-4.89398E-12	121.424E-3	-51.2815E-3	-4.83774E-12	94.5849E-3	-12.5016E-3
-677.839E-6	-4.98540E-12	125.934E-3	-34.6172E-3	-4.94638E-12	108.751E-3	-14.4989E-3
-682.841E-6	-5.01128E-12	119.008E-3	-24.4694E-3	-5.07143E-12	116.240E-3	-15.0953E-3
-687.844E-6	-5.08214E-12	113.675E-3	-30.5916E-3	-5.07649E-12	112.534E-3	-15.2220E-3
-692.846E-6	-5.12491E-12	122.914E-3	-34.0274E-3	-5.13214E-12	116.483E-3	-18.8728E-3
-697.849E-6	-5.11513E-12	126.043E-3	-24.1682E-3	-5.18353E-12	118.120E-3	-24.5374E-3
-702.851E-6	-5.22444E-12	118.680E-3	-4.61925E-3	-5.31098E-12	116.301E-3	-30.2519E-3
-707.854E-6	-5.25073E-12	111.453E-3	7.65819E-3	-5.31774E-12	113.437E-3	-29.3286E-3
-712.856E-6	-5.27095E-12	107.226E-3	-1.29056E-3	-5.35934E-12	107.588E-3	-23.3019E-3
-717.859E-6	-5.33879E-12	112.532E-3	-21.3815E-3	-5.38456E-12	112.549E-3	-19.3027E-3
-722.861E-6	-5.36676E-12	116.423E-3	-34.2706E-3	-5.42563E-12	120.624E-3	-12.7658E-3
-727.864E-6	-5.37082E-12	113.562E-3	-36.2648E-3	-5.44438E-12	127.839E-3	-9.38326E-3
-732.866E-6	-5.48419E-12	120.326E-3	-33.9440E-3	-5.42176E-12	140.898E-3	-12.7037E-3
-737.869E-6	-5.51906E-12	132.683E-3	-30.1846E-3	-5.50937E-12	139.690E-3	-14.5888E-3
-742.871E-6	-5.52580E-12	132.114E-3	-25.6460E-3	-5.51240E-12	129.903E-3	-15.6556E-3
-747.874E-6	-5.50749E-12	132.606E-3	-19.0041E-3	-5.50520E-12	126.974E-3	-14.8501E-3
-752.876E-6	-5.55653E-12	146.233E-3	-9.21032E-3	-5.55886E-12	125.925E-3	-15.4022E-3
-757.879E-6	-5.66208E-12	147.774E-3	-7.43888E-3	-5.62335E-12	131.623E-3	-15.5513E-3
-762.881E-6	-5.70893E-12	129.876E-3	-12.3428E-3	-5.67029E-12	133.910E-3	-12.8261E-3
-767.884E-6	-5.69597E-12	118.867E-3	-12.9339E-3	-5.70682E-12	135.246E-3	-18.5136E-3
-772.886E-6	-5.69835E-12	120.908E-3	-14.5045E-3	-5.75813E-12	141.215E-3	-29.8920E-3
-777.889E-6	-5.80607E-12	123.687E-3	-17.8175E-3	-5.88430E-12	148.935E-3	-32.2148E-3
-782.891E-6	-5.83901E-12	130.106E-3	-15.0213E-3	-5.89171E-12	161.219E-3	-22.7238E-3
-787.894E-6	-5.86322E-12	140.602E-3	-9.02819E-3	-5.95566E-12	162.955E-3	-10.6572E-3
-792.896E-6	-5.89261E-12	147.782E-3	-14.2922E-3	-6.02994E-12	164.903E-3	-6.39142E-3
-797.899E-6	-5.93480E-12	150.157E-3	-24.7911E-3	-6.12286E-12	171.041E-3	-14.1724E-3
-802.901E-6	-6.07182E-12	149.700E-3	-26.5809E-3	-6.13738E-12	164.400E-3	-22.0388E-3
-807.904E-6	-6.11842E-12	149.101E-3	-24.8982E-3	-6.18846E-12	154.067E-3	-18.4483E-3
-812.906E-6	-6.05556E-12	145.422E-3	-28.2295E-3	-6.21518E-12	156.158E-3	-5.80848E-3
-817.909E-6	-6.25462E-12	140.884E-3	-25.0469E-3	-6.29450E-12	168.061E-3	-4.32004E-3
-822.911E-6	-6.36957E-12	143.639E-3	-21.8251E-3	-6.28001E-12	181.596E-3	-16.3217E-3
-827.914E-6	-6.38917E-12	148.278E-3	-25.6567E-3	-6.29277E-12	190.061E-3	-19.5247E-3
-832.916E-6	-6.42582E-12	151.939E-3	-20.7113E-3	-6.42043E-12	182.104E-3	-29.9521E-3
-837.919E-6	-6.57624E-12	159.082E-3	-15.6764E-3	-6.42977E-12	161.780E-3	-32.7182E-3
-842.921E-6	-6.59896E-12	170.347E-3	-9.97016E-3	-6.45981E-12	152.145E-3	-9.39097E-3
-847.924E-6	-6.58515E-12	173.989E-3	3.81430E-3	-6.51808E-12	160.939E-3	-2.20675E-3
-852.926E-6	-6.68377E-12	170.806E-3	3.88865E-3	-6.63984E-12	181.474E-3	-12.4570E-3
-857.929E-6	-6.74264E-12	178.566E-3	-18.1412E-3	-6.73504E-12	202.204E-3	-12.5743E-3
-862.931E-6	-6.74297E-12	191.024E-3	-32.4104E-3	-6.78978E-12	205.705E-3	-10.1929E-3
-867.934E-6	-6.80332E-12	187.984E-3	-26.5953E-3	-6.86082E-12	195.109E-3	-17.7768E-3
-872.936E-6	-6.90331E-12	176.316E-3	-23.0522E-3	-7.02764E-12	194.071E-3	-23.3542E-3
-877.939E-6	-6.86851E-12	179.976E-3	-22.3182E-3	-7.10605E-12	204.610E-3	-16.8806E-3
-882.941E-6	-6.90414E-12	183.079E-3	-16.0722E-3	-7.08086E-12	203.424E-3	-11.7076E-3
-887.944E-6	-7.01121E-12	177.654E-3	-14.5128E-3	-7.20719E-12	197.152E-3	-11.5456E-3
-892.946E-6	-7.20069E-12	188.210E-3	-20.9409E-3	-7.30935E-12	199.199E-3	-15.0868E-3
-897.949E-6	-7.21204E-12	194.070E-3	-23.8747E-3	-7.35718E-12	198.990E-3	-26.5651E-3
-902.951E-6	-7.28504E-12	191.341E-3	-21.7157E-3	-7.35559E-12	202.444E-3	-31.3670E-3
-907.954E-6	-7.35810E-12	199.014E-3	-25.4244E-3	-7.47146E-12	208.646E-3	-20.3314E-3
-912.956E-6	-7.53650E-12	202.981E-3	-27.9115E-3	-7.56146E-12	206.873E-3	-15.0051E-3
-917.959E-6	-7.64083E-12	204.648E-3	-30.4360E-3	-7.51038E-12	212.955E-3	-21.8215E-3
-922.961E-6	-7.72416E-12	213.694E-3	-35.2434E-3	-7.59955E-12	228.927E-3	-27.3904E-3
-927.964E-6	-7.77953E-12	221.063E-3	-22.6960E-3	-7.64178E-12	235.624E-3	-28.9529E-3
-932.966E-6	-7.88876E-12	221.669E-3	-9.03936E-3	-7.71341E-12	241.412E-3	-22.7739E-3
-937.969E-6	-7.98512E-12	231.825E-3	-3.36699E-3	-7.84736E-12	252.355E-3	-9.64302E-3
-942.971E-6	-8.02863E-12	242.396E-3	-6.40020E-3	-7.95949E-12	241.967E-3	-4.46349E-3
-947.974E-6	-8.11821E-12	232.752E-3	-24.0647E-3	-8.00624E-12	222.862E-3	-12.8251E-3
-952.976E-6	-8.22083E-12	228.696E-3	-24.8315E-3	-8.08999E-12	235.226E-3	-19.9133E-3
-957.979E-6	-8.33402E-12	243.709E-3	-12.0593E-3	-8.25654E-12	259.401E-3	-16.6020E-3
-962.981E-6	-8.39237E-12	252.660E-3	-15.2322E-3	-8.40370E-12	257.384E-3	-10.0342E-3
-967.984E-6	-8.44155E-12	254.802E-3	-19.0043E-3	-8.50594E-12	249.118E-3	-18.0724E-3
-972.986E-6	-8.49665E-12	257.918E-3	-12.0637E-3	-8.58849E-12	256.455E-3	-32.7180E-3
-977.989E-6	-8.49256E-12	250.450E-3	-7.47404E-3	-8.58980E-12	272.254E-3	-30.0020E-3
-982.991E-6	-8.63184E-12	245.605E-3	-1.08575E-3	-8.59278E-12	280.194E-3	-16.3067E-3
-987.994E-6	-8.72407E-12	255.014E-3	1.94561E-3	-8.75627E-12	268.050E-3	-5.28131E-3
-992.997E-6	-8.84351E-12	257.792E-3	-9.12808E-3	-8.89808E-12	257.403E-3	-1.21499E-3
-997.999E-6	-8.82923E-12	250.034E-3	-20.2049E-3	-8.75403E-12	266.895E-3	-14.7567E-3
-1.00300E-3	-8.98773E-12	245.756E-3	-17.3580E-3	-8.89828E-12	280.709E-3	-28.6850E-3
-1.00800E-3	-9.06729E-12	253.309E-3	-6.17941E-3	-9.00237E-12	281.402E-3	-19.2888E-3
-1.01301E-3	-9.14099E-12	269.932E-3	-8.59157E-3	-9.08113E-12	281.158E-3	-6.63113E-3
-1.01801E-3	-9.31880E-12	285.111E-3	-18.2545E-3	-9.12226E-12	288.048E-3	-10.2099E-3
-1.02301E-3	-9.29341E-12	287.883E-3	-12.4602E-3	-9.28021E-12	296.325E-3	-21.4752E-3
-1.02801E-3	-9.46888E-12	284.215E-3	-2.77874E-3	-9.42732E-12	304.121E-3	-18.8642E-3
-1.03302E-3	-9.60387E-12	275.233E-3	3.56642E-3	-9.51719E-12	311.914E-3	-2.43971E-3
-1.03802E-3	-9.66203E-12	266.692E-3	5.92409E-3	-9.63770E-12	319.545E-3	86.7395E-6
-1.04302E-3	-9.70105E-12	277.805E-3	-9.46769E-3	-9.73224E-12	320.052E-3	-9.45596E-3
-1.04802E-3	-9.86136E-12	298.752E-3	-30.7116E-3	-9.91782E-12	325.745E-3	-19.6773E-3
-1.05303E-3	-9.96166E-12	312.583E-3	-25.9980E-3	-10.0425E-12	340.206E-3	-26.3953E-3
-1.05803E-3	-9.93001E-12	313.690E-3	-3.17003E-3	-10.2110E-12	351.984E-3	-28.7262E-3
-1.06303E-3	-10.0766E-12	306.322E-3	-7.61041E-3	-10.2408E-12	360.144E-3	-30.3583E-3
-1.06803E-3	-10.1296E-12	311.704E-3	-20.6209E-3	-10.3822E-12	357.534E-3	-23.5959E-3
-1.07304E-3	-10.2385E-12	324.644E-3	-15.5783E-3	-10.4885E-12	357.025E-3	-10.9564E-3
-1.07804E-3	-10.4376E-12	329.889E-3	-11.4267E-3	-10.4562E-12	374.928E-3	-5.94143E-3
-1.08304E-3	-10.5119E-12	340.569E-3	-9.45585E-3	-10.7336E-12	391.132E-3	-13.8755E-3
-1.08804E-3	-10.6212E-12	356.252E-3	-12.5228E-3	-10.7552E-12	390.095E-3	-15.8305E-3
-1.09305E-3	-10.6584E-12	362.428E-3	-16.5273E-3	-10.7872E-12	390.190E-3	-12.9925E-3
-1.09805E-3	-11.0058E-12	362.545E-3	-7.93039E-3	-10.9765E-12	404.686E-3	-17.8032E-3
-1.10305E-3	-11.0177E-12	367.887E-3	-4.95642E-3	-11.2072E-12	422.534E-3	-11.1077E-3
-1.10805E-3	-11.1157E-12	379.325E-3	-22.3230E-3	-11.2770E-12	424.826E-3	2.19633E-3
-1.11306E-3	-11.3765E-12	399.120E-3	-35.2457E-3	-11.2720E-12	427.200E-3	-3.64864E-3
-1.11806E-3	-11.4995E-12	412.110E-3	-26.4728E-3	-11.5442E-12	443.058E-3	-18.0807E-3
-1.12306E-3	-11.6737E-12	415.306E-3	-10.5407E-3	-11.7182E-12	452.181E-3	-24.2664E-3
-1.12806E-3	-11.8408E-12	432.018E-3	-10.8668E-3	-11.8199E-12	453.424E-3	-22.4583E-3
-1.13307E-3	-11.9904E-12	442.125E-3	-20.2357E-3	-11.9515E-12	462.240E-3	-15.3006E-3
-1.13807E-3	-12.0529E-12	439.443E-3	-11.6499E-3	-12.0944E-12	481.734E-3	-9.43772E-3
-1.14307E-3	-12.4402E-12	443.036E-3	8.16307E-3	-12.3202E-12	496.672E-3	-10.9251E-3
-1.14807E-3	-12.5398E-12	452.938E-3	8.32233E-3	-12.4694E-12	496.646E-3	-21.2157E-3
-1.15308E-3	-12.6653E-12	471.153E-3	-12.6260E-3	-12.5014E-12	501.148E-3	-28.6174E-3
-1.15808E-3	-12.9857E-12	490.154E-3	-28.6072E-3	-12.7400E-12	523.246E-3	-21.1516E-3
-1.16308E-3	-13.1929E-12	508.083E-3	-35.4150E-3	-12.8945E-12	542.084E-3	-11.7577E-3
-1.16808E-3	-13.3821E-12	523.779E-3	-39.7346E-3	-13.2076E-12	548.905E-3	-10.5471E-3
-1.17309E-3	-13.4933E-12	540.343E-3	-29.2407E-3	-13.2459E-12	562.520E-3	-13.5005E-3
-1.17809E-3	-13.6854E-12	556.600E-3	-9.83026E-3	-13.3692E-12	586.961E-3	-16.7454E-3
-1.18309E-3	-13.7661E-12	568.702E-3	-6.11696E-3	-13.7147E-12	599.251E-3	-16.3272E-3
-1.18809E-3	-14.0526E-12	578.191E-3	-8.43516E-3	-13.9906E-12	607.940E-3	-9.71749E-3
-1.19310E-3	-14.1437E-12	573.868E-3	-1.55812E-3	-14.1129E-12	624.795E-3	-6.58659E-3
-1.19810E-3	-14.2568E-12	565.772E-3	-9.89051E-3	-14.3894E-12	631.376E-3	-19.1083E-3
-1.20310E-3	-14.4463E-12	575.118E-3	-28.8556E-3	-14.6357E-12	634.272E-3	-24.5495E-3
-1.20810E-3	-14.6414E-12	595.808E-3	-26.9660E-3	-14.7436E-12	645.504E-3	-15.0607E-3
-1.21311E-3	-14.8424E-12	609.718E-3	-22.7028E-3	-14.9348E-12	659.325E-3	-14.6643E-3
-1.21811E-3	-15.0448E-12	617.549E-3	-27.9385E-3	-15.2783E-12	674.460E-3	-22.2922E-3
-1.22311E-3	-15.3106E-12	622.479E-3	-23.1522E-3	-15.4918E-12	695.748E-3	-28.7451E-3
-1.22811E-3	-15.3546E-12	625.974E-3	-14.6997E-3	-15.6585E-12	715.345E-3	-26.3870E-3
-1.23312E-3	-15.6729E-12	642.791E-3	-15.8986E-3	-15.8490E-12	730.760E-3	-20.3059E-3
-1.23812E-3	-15.8954E-12	661.042E-3	-22.9471E-3	-16.0881E-12	751.514E-3	-21.5500E-3
-1.24312E-3	-16.1988E-12	670.531E-3	-25.4133E-3	-16.2473E-12	765.812E-3	-25.5178E-3
-1.24812E-3	-16.2614E-12	685.371E-3	-21.0277E-3	-16.2903E-12	771.834E-3	-33.5774E-3
-1.25313E-3	-16.6162E-12	704.689E-3	-14.8646E-3	-16.5356E-12	781.945E-3	-38.1172E-3
-1.25813E-3	-16.9098E-12	724.897E-3	-12.7295E-3	-16.7992E-12	795.462E-3	-27.9855E-3
-1.26313E-3	-17.2048E-12	750.411E-3	-16.0778E-3	-17.1136E-12	813.831E-3	-8.47562E-3
-1.26813E-3	-17.4840E-12	777.165E-3	-15.8376E-3	-17.2893E-12	819.248E-3	4.42913E-3
-1.27314E-3	-17.7702E-12	796.203E-3	-19.5761E-3	-17.5974E-12	818.962E-3	5.21733E-3
-1.27814E-3	-18.0885E-12	803.416E-3	-33.2964E-3	-17.8827E-12	849.181E-3	-6.04603E-3
-1.28314E-3	-18.2925E-12	803.524E-3	-38.4522E-3	-18.1872E-12	886.761E-3	-12.4296E-3
-1.28814E-3	-18.5797E-12	818.200E-3	-30.9002E-3	-18.4210E-12	892.622E-3	-13.1358E-3
-1.29315E-3	-18.8468E-12	844.177E-3	-26.8993E-3	-18.7814E-12	889.845E-3	-23.7279E-3
-1.29815E-3	-19.0939E-12	856.590E-3	-21.9856E-3	-19.2290E-12	911.226E-3	-25.9318E-3
-1.30315E-3	-19.4313E-12	864.093E-3	-16.8165E-3	-19.5244E-12	938.741E-3	-26.3065E-3
-1.30815E-3	-19.6151E-12	882.893E-3	-24.9298E-3	-19.7858E-12	953.424E-3	-28.8400E-3
-1.31316E-3	-19.9350E-12	897.019E-3	-26.3800E-3	-20.1125E-12	962.057E-3	-11.3814E-3
-1.31816E-3	-20.1831E-12	902.774E-3	-14.7837E-3	-20.5790E-12	968.999E-3	-1.42916E-3
-1.32316E-3	-20.5843E-12	913.727E-3	-6.47042E-3	-20.7813E-12	975.381E-3	-10.8198E-3
-1.32816E-3	-20.9689E-12	934.351E-3	46.1518E-6	-21.0620E-12	988.028E-3	-8.94361E-3
-1.33317E-3	-21.2288E-12	953.560E-3	2.88691E-3	-21.3554E-12	999.014E-3	-6.96075E-3
-1.33817E-3	-21.6094E-12	962.317E-3	-2.57420E-3	-21.6145E-12	999.100E-3	-17.3216E-3
-1.34317E-3	-21.9626E-12	974.751E-3	-13.4382E-3	-21.7425E-12	1.00516E+0	-14.7727E-3
-1.34817E-3	-22.3816E-12	982.773E-3	-21.6349E-3	-21.8393E-12	1.02469E+0	-7.63667E-3
-1.35318E-3	-22.5827E-12	975.061E-3	-22.7580E-3	-22.2740E-12	1.04441E+0	-5.20429E-3
-1.35818E-3	-23.1030E-12	981.952E-3	-25.2883E-3	-22.7084E-12	1.06420E+0	-94.8225E-6
-1.36318E-3	-23.5095E-12	1.00647E+0	-25.9895E-3	-23.0692E-12	1.08359E+0	-11.8302E-3
-1.36818E-3	-23.9587E-12	1.02929E+0	-23.1539E-3	-23.5543E-12	1.08910E+0	-21.1093E-3
-1.37319E-3	-24.3410E-12	1.05488E+0	-23.7074E-3	-24.1740E-12	1.08960E+0	-5.73157E-3
-1.37819E-3	-24.4792E-12	1.07608E+0	-23.5786E-3	-24.4332E-12	1.10388E+0	-52.5600E-6
-1.38319E-3	-24.8118E-12	1.08300E+0	-21.5529E-3	-24.7313E-12	1.13741E+0	-15.9525E-3
-1.38819E-3	-25.1746E-12	1.08519E+0	-20.3496E-3	-25.1889E-12	1.15964E+0	-23.0864E-3
-1.39320E-3	-25.6098E-12	1.09401E+0	-15.5294E-3	-25.7637E-12	1.14929E+0	-17.9246E-3
-1.39820E-3	-25.8183E-12	1.10341E+0	-10.7414E-3	-26.1073E-12	1.13476E+0	-15.5122E-3
-1.40320E-3	-26.2127E-12	1.10181E+0	-19.8510E-3	-26.3525E-12	1.14082E+0	-18.2930E-3
-1.40820E-3	-26.4790E-12	1.09976E+0	-28.7507E-3	-26.8858E-12	1.15417E+0	-18.4940E-3
-1.41321E-3	-26.8430E-12	1.11745E+0	-21.3957E-3	-27.3453E-12	1.15565E+0	-14.5638E-3
-1.41821E-3	-27.3225E-12	1.13829E+0	-13.7682E-3	-27.5847E-12	1.14880E+0	-16.4672E-3
-1.42321E-3	-27.6380E-12	1.14309E+0	-17.6239E-3	-27.7645E-12	1.14900E+0	-16.8717E-3
-1.42821E-3	-28.0874E-12	1.13922E+0	-21.3026E-3	-28.2255E-12	1.15810E+0	-12.2693E-3
-1.43322E-3	-28.3920E-12	1.13899E+0	-19.6213E-3	-28.5990E-12	1.17285E+0	-12.6427E-3
-1.43822E-3	-28.8342E-12	1.14615E+0	-17.2028E-3	-28.9079E-12	1.18456E+0	-19.4376E-3
-1.44322E-3	-29.1623E-12	1.15612E+0	-8.60010E-3	-29.1746E-12	1.17719E+0	-30.9384E-3
-1.44822E-3	-29.5738E-12	1.16899E+0	-4.11911E-3	-29.5401E-12	1.17004E+0	-34.1749E-3
-1.45323E-3	-30.0391E-12	1.17614E+0	-6.82308E-3	-29.9457E-12	1.17604E+0	-22.8819E-3
-1.45823E-3	-30.3321E-12	1.17265E+0	-4.23107E-3	-30.4534E-12	1.18087E+0	-19.5676E-3
-1.46323E-3	-31.0263E-12	1.17127E+0	-7.93406E-3	-30.7363E-12	1.17959E+0	-21.7855E-3
-1.46823E-3	-31.3445E-12	1.17836E+0	-15.6814E-3	-31.2171E-12	1.18153E+0	-22.0608E-3
-1.47324E-3	-31.6148E-12	1.18734E+0	-6.29107E-3	-31.6103E-12	1.18215E+0	-33.3382E-3
-1.47824E-3	-31.8777E-12	1.18388E+0	-1.88138E-3	-31.9937E-12	1.18021E+0	-33.2099E-3
-1.48324E-3	-32.3547E-12	1.17272E+0	-11.6703E-3	-32.3653E-12	1.19260E+0	-17.9856E-3
-1.48824E-3	-32.7038E-12	1.17686E+0	-9.43813E-3	-32.7603E-12	1.19643E+0	-18.7999E-3
-1.49325E-3	-32.8485E-12	1.19272E+0	-7.80577E-3	-33.2052E-12	1.18957E+0	-30.3732E-3
-1.49825E-3	-33.5599E-12	1.20046E+0	-16.2931E-3	-33.5069E-12	1.19914E+0	-39.0624E-3
-1.50325E-3	-33.9327E-12	1.19775E+0	-14.6343E-3	-33.9308E-12	1.21076E+0	-42.5855E-3
-1.50825E-3	-34.4956E-12	1.18694E+0	-11.7897E-3	-34.3287E-12	1.20657E+0	-26.6733E-3
-1.51326E-3	-34.8580E-12	1.17810E+0	-19.4956E-3	-34.7652E-12	1.19254E+0	-1.41197E-3
-1.51826E-3	-35.3758E-12	1.18312E+0	-16.0329E-3	-35.0235E-12	1.17577E+0	2.99850E-3
-1.52326E-3	-35.8637E-12	1.18771E+0	-9.85619E-3	-35.3123E-12	1.16926E+0	-10.9160E-3
-1.52826E-3	-36.3177E-12	1.19432E+0	-17.3907E-3	-35.8389E-12	1.17618E+0	-15.6114E-3
-1.53327E-3	-36.7404E-12	1.20765E+0	-17.0125E-3	-36.2889E-12	1.18058E+0	-12.0379E-3
-1.53827E-3	-37.1305E-12	1.20286E+0	-4.34953E-3	-36.6753E-12	1.17921E+0	-9.69729E-3
-1.54327E-3	-37.7646E-12	1.18298E+0	2.43270E-3	-36.9513E-12	1.17906E+0	-9.56420E-3
-1.54827E-3	-38.1595E-12	1.17559E+0	-2.66547E-3	-37.4595E-12	1.17168E+0	-17.6449E-3
-1.55328E-3	-38.4229E-12	1.17867E+0	-15.7321E-3	-37.9190E-12	1.16043E+0	-22.3258E-3
-1.55828E-3	-38.9226E-12	1.18636E+0	-29.5294E-3	-38.2257E-12	1.16261E+0	-22.5109E-3
-1.56328E-3	-39.3053E-12	1.18664E+0	-33.4304E-3	-38.7266E-12	1.16147E+0	-31.3625E-3
-1.56828E-3	-39.6797E-12	1.16975E+0	-26.0563E-3	-39.1880E-12	1.13994E+0	-36.0791E-3
-1.57329E-3	-39.9909E-12	1.16718E+0	-21.5447E-3	-39.6513E-12	1.12592E+0	-31.8210E-3
-1.57829E-3	-40.2204E-12	1.18540E+0	-13.3650E-3	-39.9007E-12	1.13379E+0	-25.7442E-3
-1.58329E-3	-40.6735E-12	1.17971E+0	-4.21007E-3	-40.3154E-12	1.14151E+0	-20.0661E-3
-1.58829E-3	-41.0315E-12	1.15774E+0	-8.16423E-3	-40.6964E-12	1.13158E+0	-18.1152E-3
-1.59330E-3	-41.2421E-12	1.15336E+0	-9.66009E-3	-41.0032E-12	1.10999E+0	-12.1323E-3
-1.59830E-3	-41.7746E-12	1.15311E+0	-18.0758E-3	-41.2183E-12	1.09526E+0	-7.71218E-3
-1.60330E-3	-42.2277E-12	1.13804E+0	-34.8340E-3	-41.6487E-12	1.09992E+0	-15.0237E-3
-1.60830E-3	-42.4822E-12	1.12038E+0	-31.4518E-3	-42.0595E-12	1.11467E+0	-16.4445E-3
-1.61331E-3	-42.6280E-12	1.12201E+0	-17.0384E-3	-42.5223E-12	1.10775E+0	-7.40031E-3
-1.61831E-3	-43.0917E-12	1.12921E+0	-7.38670E-3	-42.7877E-12	1.08847E+0	-2.03090E-3
-1.62331E-3	-43.4334E-12	1.12869E+0	-10.8900E-3	-43.4741E-12	1.08340E+0	-3.89339E-3
-1.62831E-3	-43.6255E-12	1.11789E+0	-21.1870E-3	-43.9930E-12	1.08673E+0	-12.8283E-3
-1.63332E-3	-43.9122E-12	1.10289E+0	-24.3755E-3	-44.3236E-12	1.09480E+0	-20.1988E-3
-1.63832E-3	-44.3419E-12	1.10047E+0	-23.7538E-3	-44.4811E-12	1.09899E+0	-20.8644E-3
-1.64332E-3	-44.6840E-12	1.09496E+0	-22.5246E-3	-45.0489E-12	1.08988E+0	-20.1859E-3
-1.64832E-3	-44.9809E-12	1.08115E+0	-28.5214E-3	-45.5114E-12	1.07662E+0	-14.5228E-3
-1.65333E-3	-45.1735E-12	1.08132E+0	-39.4388E-3	-45.6673E-12	1.06955E+0	-15.3773E-3
-1.65833E-3	-45.5508E-12	1.07876E+0	-39.5031E-3	-45.9962E-12	1.06959E+0	-22.6014E-3
-1.66333E-3	-45.8826E-12	1.06544E+0	-32.1186E-3	-46.4997E-12	1.06488E+0	-15.6202E-3
-1.66833E-3	-46.2778E-12	1.06023E+0	-20.9917E-3	-46.8875E-12	1.04317E+0	-5.34894E-3
-1.67334E-3	-46.6217E-12	1.06049E+0	-8.08654E-3	-47.0299E-12	1.02223E+0	-13.7808E-3
-1.67834E-3	-47.0204E-12	1.05425E+0	-9.63855E-3	-47.0969E-12	1.01848E+0	-33.3400E-3
-1.68334E-3	-47.3793E-12	1.04699E+0	-21.2033E-3	-47.4487E-12	1.01355E+0	-34.5309E-3
-1.68834E-3	-47.7113E-12	1.04127E+0	-15.6577E-3	-47.7116E-12	1.00296E+0	-12.0230E-3
-1.69335E-3	-47.9897E-12	1.02779E+0	-1.49653E-3	-47.8925E-12	989.577E-3	-967.739E-6
-1.69835E-3	-48.2091E-12	1.01974E+0	-3.76656E-3	-48.0971E-12	980.253E-3	-5.16758E-3
-1.70335E-3	-48.5966E-12	1.03035E+0	-13.4541E-3	-48.5827E-12	993.219E-3	-5.88000E-3
-1.70835E-3	-48.8033E-12	1.03600E+0	-10.6803E-3	-48.8712E-12	1.00306E+0	-10.3970E-3
-1.71336E-3	-49.2797E-12	1.01819E+0	-6.95388E-3	-49.3273E-12	989.707E-3	-11.3095E-3
-1.71836E-3	-49.7049E-12	1.00284E+0	-14.3206E-3	-49.7275E-12	974.324E-3	-7.25429E-3
-1.72336E-3	-49.9409E-12	996.694E-3	-7.90397E-3	-50.1139E-12	968.310E-3	-13.8945E-3
-1.72836E-3	-50.2601E-12	982.137E-3	-3.14764E-3	-50.2160E-12	974.524E-3	-15.9799E-3
-1.73337E-3	-50.4373E-12	982.143E-3	-17.1969E-3	-50.8580E-12	982.330E-3	-216.483E-6
-1.73837E-3	-51.0512E-12	990.456E-3	-16.4753E-3	-51.2334E-12	976.908E-3	5.44605E-3
-1.74337E-3	-51.4315E-12	968.463E-3	-12.3866E-3	-51.6822E-12	963.281E-3	-565.944E-6
-1.74837E-3	-51.9630E-12	957.690E-3	-22.4261E-3	-51.8151E-12	955.472E-3	-1.97273E-3
-1.75338E-3	-52.2357E-12	974.559E-3	-27.6255E-3	-52.0176E-12	958.263E-3	-14.7426E-3
-1.75838E-3	-52.9233E-12	979.080E-3	-24.6969E-3	-52.4592E-12	960.305E-3	-29.2527E-3
-1.76338E-3	-53.5303E-12	978.142E-3	-29.4503E-3	-52.8893E-12	948.234E-3	-18.8291E-3
-1.76838E-3	-54.0334E-12	985.907E-3	-43.1591E-3	-53.2434E-12	930.986E-3	-4.56022E-3
-1.77339E-3	-54.5621E-12	992.420E-3	-48.1304E-3	-53.2790E-12	924.955E-3	-9.73613E-3
-1.77839E-3	-54.9924E-12	992.004E-3	-43.7872E-3	-53.8571E-12	936.766E-3	-23.7887E-3
-1.78339E-3	-55.3660E-12	979.052E-3	-34.9232E-3	-54.1883E-12	953.721E-3	-24.9078E-3
-1.78839E-3	-55.5587E-12	954.909E-3	-26.7242E-3	-54.6615E-12	947.137E-3	-10.5399E-3
-1.79340E-3	-55.9520E-12	941.156E-3	-24.1110E-3	-54.8250E-12	920.264E-3	-5.49851E-3
-1.79840E-3	-55.9853E-12	944.204E-3	-13.7679E-3	-55.3333E-12	903.225E-3	-9.84463E-3
-1.80340E-3	-56.1926E-12	943.664E-3	-6.56353E-3	-55.7774E-12	906.617E-3	-16.1328E-3
-1.80840E-3	-56.4052E-12	948.917E-3	-13.1330E-3	-55.9945E-12	921.085E-3	-13.7276E-3
-1.81341E-3	-56.3849E-12	964.008E-3	-20.0326E-3	-56.2567E-12	924.992E-3	774.318E-6
-1.81841E-3	-56.5551E-12	955.740E-3	-27.2457E-3	-56.6101E-12	917.817E-3	1.21327E-3
-1.82341E-3	-56.6039E-12	926.515E-3	-36.1747E-3	-57.1073E-12	907.050E-3	-3.63412E-3
-1.82841E-3	-56.7414E-12	907.301E-3	-33.1929E-3	-57.3753E-12	886.588E-3	-6.22086E-3
-1.83342E-3	-56.9197E-12	897.098E-3	-19.8181E-3	-57.6110E-12	875.715E-3	-17.1635E-3
-1.83842E-3	-57.3506E-12	894.520E-3	-16.5685E-3	-57.7073E-12	883.210E-3	-23.7205E-3
-1.84342E-3	-57.2867E-12	900.287E-3	-20.7424E-3	-58.0990E-12	888.933E-3	-24.3888E-3
-1.84842E-3	-57.5783E-12	897.382E-3	-19.4624E-3	-58.3765E-12	888.450E-3	-19.1996E-3
-1.85343E-3	-58.1853E-12	883.311E-3	-22.8942E-3	-58.4306E-12	889.121E-3	-13.4593E-3
-1.85843E-3	-58.5609E-12	871.420E-3	-20.0907E-3	-58.7167E-12	884.756E-3	-16.0009E-3
-1.86343E-3	-58.9704E-12	878.838E-3	-4.53609E-3	-59.0506E-12	873.404E-3	-15.9860E-3
-1.86843E-3	-59.3491E-12	887.362E-3	-1.04823E-3	-59.3025E-12	864.253E-3	-15.7528E-3
-1.87344E-3	-59.9402E-12	884.385E-3	-1.47804E-3	-59.6456E-12	866.178E-3	-15.1339E-3
-1.87844E-3	-60.1467E-12	888.656E-3	-2.96417E-3	-60.0147E-12	870.267E-3	-12.3844E-3
-1.88344E-3	-60.6193E-12	883.794E-3	-18.6536E-3	-60.2483E-12	871.036E-3	-7.19593E-3
-1.88844E-3	-60.8258E-12	877.999E-3	-35.1879E-3	-60.5479E-12	866.924E-3	-4.85110E-3
-1.89345E-3	-61.2835E-12	887.043E-3	-34.3928E-3	-60.9140E-12	852.823E-3	-21.3343E-3
-1.89845E-3	-61.3066E-12	880.266E-3	-25.0580E-3	-61.1722E-12	847.327E-3	-30.6606E-3
-1.90345E-3	-61.5071E-12	861.716E-3	-24.5115E-3	-61.7029E-12	850.273E-3	-21.9242E-3
-1.90845E-3	-61.5800E-12	851.521E-3	-25.4459E-3	-61.6713E-12	848.569E-3	-22.1397E-3
-1.91346E-3	-61.6612E-12	848.325E-3	-15.2332E-3	-62.2203E-12	847.034E-3	-27.7274E-3
-1.91846E-3	-62.0087E-12	858.531E-3	-10.6352E-3	-62.4155E-12	835.916E-3	-32.9074E-3
-1.92346E-3	-61.8346E-12	868.472E-3	-16.5788E-3	-62.6305E-12	827.945E-3	-38.3175E-3
-1.92846E-3	-62.2781E-12	849.625E-3	-11.8855E-3	-62.6421E-12	838.514E-3	-38.5320E-3
-1.93347E-3	-62.3572E-12	823.306E-3	-13.2846E-3	-62.7862E-12	844.377E-3	-41.2841E-3
-1.93847E-3	-62.6809E-12	827.128E-3	-19.7352E-3	-63.1261E-12	836.836E-3	-37.9652E-3
-1.94347E-3	-62.9876E-12	844.885E-3	-10.5342E-3	-62.9922E-12	824.148E-3	-17.4235E-3
-1.94847E-3	-63.3517E-12	847.677E-3	-8.48410E-3	-63.1916E-12	819.173E-3	5.71571E-3
-1.95348E-3	-64.1480E-12	844.910E-3	-11.3366E-3	-63.4663E-12	820.416E-3	12.2872E-3
-1.95848E-3	-64.6770E-12	840.125E-3	-2.85277E-3	-63.8863E-12	816.275E-3	4.61982E-3
-1.96348E-3	-64.9688E-12	838.627E-3	2.01966E-3	-64.1659E-12	812.831E-3	2.90713E-3
-1.96848E-3	-65.5831E-12	846.554E-3	-1.92256E-3	-64.4533E-12	815.516E-3	7.42548E-3
-1.97349E-3	-66.1630E-12	850.986E-3	-8.66643E-3	-64.7684E-12	815.349E-3	1.00838E-3
-1.97849E-3	-66.4167E-12	840.357E-3	-15.9187E-3	-65.0078E-12	814.203E-3	-17.5266E-3
-1.98349E-3	-66.7632E-12	830.234E-3	-9.71501E-3	-65.3834E-12	814.683E-3	-33.2279E-3
-1.98849E-3	-67.3749E-12	839.458E-3	2.34018E-3	-65.7947E-12	809.690E-3	-35.2081E-3
-1.99350E-3	-67.7982E-12	849.745E-3	-9.34022E-3	-66.2882E-12	803.813E-3	-26.8858E-3
-1.99850E-3	-67.8377E-12	861.049E-3	-27.1566E-3	-66.5781E-12	807.367E-3	-17.9963E-3
-2.00350E-3	-67.9317E-12	866.336E-3	-23.9889E-3	-66.9520E-12	813.612E-3	-17.6067E-3
-2.00850E-3	-67.9158E-12	845.281E-3	-18.9570E-3	-67.2775E-12	818.098E-3	-12.3170E-3
-2.01351E-3	-67.9925E-12	826.059E-3	-27.9475E-3	-67.7070E-12	807.124E-3	7.12197E-3
-2.01851E-3	-67.8888E-12	823.555E-3	-29.3075E-3	-67.8695E-12	782.683E-3	1.88607E-3
-2.02351E-3	-67.9486E-12	810.367E-3	-21.0169E-3	-68.0500E-12	767.378E-3	-25.7867E-3
-2.02851E-3	-68.1376E-12	798.217E-3	-24.8623E-3	-68.3554E-12	759.907E-3	-34.5663E-3
-2.03352E-3	-68.1232E-12	799.136E-3	-23.0584E-3	-68.4718E-12	768.511E-3	-23.8171E-3
-2.03852E-3	-68.3768E-12	795.055E-3	-16.2167E-3	-68.7276E-12	786.997E-3	-12.8048E-3
-2.04352E-3	-68.5992E-12	801.284E-3	-24.8068E-3	-68.8103E-12	795.285E-3	-4.20415E-3
-2.04852E-3	-68.8770E-12	816.276E-3	-35.0695E-3	-69.3546E-12	789.864E-3	-2.74370E-3
-2.05353E-3	-69.0890E-12	814.957E-3	-42.6498E-3	-69.6947E-12	778.172E-3	-14.9640E-3
-2.05853E-3	-69.2454E-12	805.487E-3	-34.8351E-3	-69.8369E-12	773.874E-3	-16.4489E-3
-2.06353E-3	-69.4028E-12	796.777E-3	-10.4535E-3	-70.1439E-12	780.047E-3	-17.9715E-3
-2.06853E-3	-70.0057E-12	783.820E-3	-9.40472E-3	-70.4432E-12	784.222E-3	-32.6379E-3
-2.07354E-3	-70.2677E-12	783.808E-3	-34.3514E-3	-70.8365E-12	786.246E-3	-36.6536E-3
-2.07854E-3	-70.5397E-12	804.250E-3	-41.1824E-3	-71.1616E-12	792.222E-3	-32.6998E-3
-2.08354E-3	-70.8380E-12	805.002E-3	-22.0366E-3	-71.3332E-12	782.777E-3	-25.2270E-3
-2.08854E-3	-71.3092E-12	780.803E-3	-17.3777E-3	-71.6445E-12	773.979E-3	-4.28639E-3
-2.09355E-3	-71.3791E-12	772.283E-3	-31.0506E-3	-72.1124E-12	784.538E-3	9.44748E-3
-2.09855E-3	-71.6004E-12	779.190E-3	-24.0506E-3	-72.2829E-12	781.343E-3	-7.95816E-3
-2.10355E-3	-71.7737E-12	789.563E-3	-10.0409E-3	-72.4515E-12	765.749E-3	-29.3416E-3
-2.10855E-3	-72.2412E-12	796.315E-3	-14.1639E-3	-72.5358E-12	758.091E-3	-33.6432E-3
-2.11356E-3	-72.3398E-12	783.756E-3	-5.22149E-3	-72.7882E-12	755.598E-3	-30.9838E-3
-2.11856E-3	-72.7152E-12	771.884E-3	4.17923E-3	-73.0193E-12	760.516E-3	-23.3354E-3
-2.12356E-3	-73.0997E-12	773.692E-3	-13.5236E-3	-73.0887E-12	771.797E-3	-24.7144E-3
-2.12856E-3	-73.4317E-12	771.663E-3	-23.3349E-3	-73.2357E-12	781.247E-3	-33.4064E-3
-2.13357E-3	-73.5227E-12	765.560E-3	-18.1198E-3	-73.4865E-12	791.870E-3	-17.9566E-3
-2.13857E-3	-73.5479E-12	770.780E-3	-17.1356E-3	-73.4481E-12	795.016E-3	2.18304E-3
-2.14357E-3	-73.8747E-12	784.238E-3	-15.2128E-3	-73.6740E-12	781.401E-3	-13.2718E-3
-2.14857E-3	-73.8126E-12	774.817E-3	-15.2312E-3	-73.6755E-12	762.683E-3	-38.3781E-3
-2.15358E-3	-74.2404E-12	756.191E-3	-22.2859E-3	-74.3322E-12	754.940E-3	-35.6664E-3
-2.15858E-3	-74.3515E-12	755.940E-3	-22.6002E-3	-74.7317E-12	762.501E-3	-21.6493E-3
-2.16358E-3	-74.8626E-12	760.375E-3	-11.5487E-3	-75.1476E-12	764.745E-3	-18.0527E-3
-2.16858E-3	-75.1011E-12	768.707E-3	-6.53838E-3	-75.4121E-12	761.518E-3	-14.2839E-3
-2.17359E-3	-75.2867E-12	770.348E-3	-6.16159E-3	-75.8501E-12	767.306E-3	-6.53188E-3
-2.17859E-3	-75.8518E-12	750.302E-3	-8.83499E-3	-76.0488E-12	768.221E-3	-8.04477E-3
-2.18359E-3	-76.1345E-12	745.150E-3	-24.5782E-3	-76.2804E-12	762.168E-3	-15.8124E-3
-2.18859E-3	-76.8465E-12	757.659E-3	-35.0660E-3	-76.4715E-12	768.496E-3	-17.6634E-3
-2.19360E-3	-77.1114E-12	753.899E-3	-33.1670E-3	-76.7636E-12	773.364E-3	-16.3639E-3
-2.19860E-3	-77.8916E-12	760.133E-3	-33.1798E-3	-76.9625E-12	756.148E-3	-16.4683E-3
-2.20360E-3	-78.3210E-12	792.070E-3	-27.2459E-3	-77.3340E-12	726.186E-3	-9.53675E-3
-2.20860E-3	-78.7107E-12	809.546E-3	-22.7296E-3	-77.7474E-12	700.235E-3	314.671E-6
-2.21361E-3	-79.1545E-12	791.529E-3	-31.5812E-3	-77.8134E-12	698.614E-3	6.96420E-3
-2.21861E-3	-79.5032E-12	767.988E-3	-26.6538E-3	-78.2821E-12	718.647E-3	7.59942E-3
-2.22361E-3	-79.9603E-12	756.434E-3	-21.8488E-3	-78.4849E-12	739.576E-3	-3.95119E-3
-2.22861E-3	-79.8077E-12	762.952E-3	-27.2232E-3	-79.0380E-12	758.520E-3	-27.7943E-3
-2.23362E-3	-80.1271E-12	785.377E-3	-21.5195E-3	-79.2399E-12	781.130E-3	-36.3670E-3
-2.23862E-3	-80.2592E-12	781.094E-3	-16.0074E-3	-79.7971E-12	793.918E-3	-26.2404E-3
-2.24362E-3	-80.4340E-12	767.998E-3	-22.8582E-3	-80.1807E-12	774.208E-3	-27.2589E-3
-2.24862E-3	-80.0854E-12	778.113E-3	-25.4231E-3	-80.5000E-12	743.001E-3	-33.0485E-3
-2.25363E-3	-79.9596E-12	780.730E-3	-13.0957E-3	-80.9158E-12	743.819E-3	-31.6467E-3
-2.25863E-3	-79.7659E-12	770.745E-3	-7.43468E-3	-81.0046E-12	749.668E-3	-32.2115E-3
-2.26363E-3	-79.7710E-12	766.746E-3	-10.3003E-3	-81.3032E-12	733.933E-3	-21.6484E-3
-2.26863E-3	-79.7789E-12	752.947E-3	-5.94028E-3	-81.0893E-12	726.416E-3	-6.94878E-3
-2.27364E-3	-79.7789E-12	730.230E-3	-11.0341E-3	-81.5677E-12	724.560E-3	-3.33148E-3
-2.27864E-3	-80.2782E-12	730.845E-3	-25.6884E-3	-81.5127E-12	713.953E-3	1.61455E-3
-2.28364E-3	-80.2894E-12	737.274E-3	-18.6776E-3	-81.3169E-12	723.312E-3	5.25275E-3
-2.28864E-3	-80.7594E-12	727.853E-3	-16.3313E-3	-81.5065E-12	759.033E-3	7.53155E-3
-2.29365E-3	-81.0315E-12	729.959E-3	-34.3310E-3	-81.3865E-12	764.465E-3	8.39274E-3
-2.29865E-3	-81.6326E-12	739.082E-3	-39.2873E-3	-81.8567E-12	737.146E-3	-4.57833E-3
-2.30365E-3	-82.1773E-12	734.910E-3	-29.8000E-3	-82.0403E-12	719.270E-3	-16.9240E-3
-2.30865E-3	-82.5298E-12	740.140E-3	-16.7779E-3	-82.3977E-12	719.534E-3	-18.4697E-3
-2.31366E-3	-82.7590E-12	744.451E-3	-7.38751E-3	-82.7116E-12	733.602E-3	-27.0987E-3
-2.31866E-3	-83.2708E-12	726.717E-3	-15.7034E-3	-83.0784E-12	735.106E-3	-35.6780E-3
-2.32366E-3	-83.4368E-12	715.362E-3	-37.5993E-3	-83.1023E-12	729.116E-3	-25.9029E-3
-2.32866E-3	-83.5736E-12	719.617E-3	-34.8873E-3	-83.4952E-12	735.035E-3	-9.37608E-3
-2.33367E-3	-83.7132E-12	727.660E-3	-11.8475E-3	-83.7583E-12	745.186E-3	6.90452E-3
-2.33867E-3	-83.9756E-12	743.807E-3	-19.1202E-3	-83.9902E-12	747.647E-3	27.1012E-3
-2.34367E-3	-83.7946E-12	746.512E-3	-38.9161E-3	-84.0976E-12	737.086E-3	32.4106E-3
-2.34867E-3	-83.9720E-12	722.648E-3	-46.3647E-3	-84.3097E-12	728.090E-3	15.0289E-3
-2.35368E-3	-84.2491E-12	717.371E-3	-56.3563E-3	-84.4964E-12	730.077E-3	-3.04715E-3
-2.35868E-3	-84.3085E-12	735.256E-3	-40.6972E-3	-84.7183E-12	738.073E-3	-9.67978E-3
-2.36368E-3	-84.6277E-12	731.250E-3	-9.89259E-3	-84.7523E-12	739.877E-3	-15.4179E-3
-2.36868E-3	-84.5507E-12	721.800E-3	-4.92528E-3	-84.9302E-12	721.921E-3	-19.3466E-3
-2.37369E-3	-85.5910E-12	735.872E-3	-9.84854E-3	-84.9726E-12	702.634E-3	-15.2282E-3
-2.37869E-3	-85.4067E-12	731.633E-3	-14.1005E-3	-85.4223E-12	709.153E-3	-20.2601E-3
-2.38369E-3	-86.2188E-12	719.141E-3	-20.7168E-3	-85.5704E-12	724.695E-3	-24.4137E-3
-2.38869E-3	-86.2382E-12	730.796E-3	-17.6498E-3	-85.9411E-12	730.875E-3	-7.60405E-3
-2.39370E-3	-87.0887E-12	727.169E-3	-9.21044E-3	-86.2794E-12	727.848E-3	-1.51905E-3
-2.39870E-3	-87.4296E-12	711.621E-3	-3.69591E-3	-86.5394E-12	711.168E-3	-18.8643E-3
-2.40370E-3	-87.7499E-12	721.216E-3	-5.29905E-3	-87.0541E-12	698.920E-3	-33.5450E-3
-2.40870E-3	-87.7205E-12	742.624E-3	-11.7327E-3	-87.5476E-12	701.896E-3	-40.4321E-3
-2.41371E-3	-87.8601E-12	751.292E-3	-26.6093E-3	-87.8805E-12	709.192E-3	-40.7894E-3
-2.41871E-3	-88.2467E-12	740.147E-3	-40.8064E-3	-88.1009E-12	709.063E-3	-28.5665E-3
-2.42371E-3	-87.9935E-12	718.443E-3	-22.9947E-3	-88.5578E-12	703.569E-3	-15.5814E-3
-2.42871E-3	-88.3343E-12	711.344E-3	-8.45533E-3	-88.6252E-12	714.131E-3	-18.4276E-3
-2.43372E-3	-88.4077E-12	716.356E-3	-19.0985E-3	-88.8575E-12	730.655E-3	-17.9530E-3
-2.43872E-3	-88.7765E-12	714.912E-3	-8.85812E-3	-88.9763E-12	734.993E-3	-14.7189E-3
-2.44372E-3	-88.6072E-12	711.975E-3	6.84455E-3	-89.2391E-12	736.194E-3	-23.2281E-3
-2.44872E-3	-89.0351E-12	716.647E-3	2.67529E-3	-89.3869E-12	729.270E-3	-23.7949E-3
-2.45373E-3	-89.2472E-12	717.998E-3	2.89400E-3	-89.3226E-12	718.543E-3	-24.3839E-3
-2.45873E-3	-89.6559E-12	702.974E-3	9.69107E-3	-89.7063E-12	726.207E-3	-29.5514E-3
-2.46373E-3	-89.9163E-12	703.860E-3	7.16969E-3	-89.9460E-12	724.256E-3	-19.3971E-3
-2.46873E-3	-90.4363E-12	723.780E-3	7.79088E-3	-90.6206E-12	706.236E-3	-9.49145E-3
-2.47374E-3	-90.7990E-12	727.797E-3	3.10597E-3	-90.6190E-12	703.417E-3	-7.90676E-3
-2.47874E-3	-91.0716E-12	733.089E-3	-24.5692E-3	-91.2982E-12	712.991E-3	-5.93273E-3
-2.48374E-3	-91.7555E-12	741.725E-3	-28.9222E-3	-91.5467E-12	726.409E-3	-6.48772E-3
-2.48874E-3	-91.7746E-12	731.544E-3	-8.86807E-3	-91.8140E-12	729.254E-3	-14.4775E-3
-2.49375E-3	-91.9236E-12	723.897E-3	-9.22301E-3	-91.9901E-12	714.761E-3	-24.6793E-3
-2.49875E-3	-91.8721E-12	734.172E-3	-3.72328E-3	-92.0611E-12	708.233E-3	-25.9640E-3
-2.50375E-3	-91.9558E-12	726.726E-3	13.3830E-3	-92.7512E-12	709.825E-3	-24.5906E-3
-2.50875E-3	-92.1349E-12	704.819E-3	3.56206E-3	-92.5104E-12	702.632E-3	-16.9306E-3
-2.51376E-3	-92.0570E-12	701.195E-3	-15.5139E-3	-93.2299E-12	701.479E-3	-3.98533E-3
-2.51876E-3	-92.1131E-12	703.041E-3	-18.4601E-3	-92.4511E-12	700.923E-3	-60.1367E-6
-2.52376E-3	-92.2181E-12	706.129E-3	-12.5212E-3	-92.9481E-12	695.079E-3	-10.2975E-3
-2.52876E-3	-92.4681E-12	712.472E-3	-1.77409E-3	-92.6739E-12	708.488E-3	-21.5969E-3
-2.53377E-3	-92.4711E-12	703.279E-3	5.79283E-3	-93.2124E-12	731.869E-3	-28.1685E-3
-2.53877E-3	-92.8715E-12	700.960E-3	1.26927E-3	-92.8898E-12	743.562E-3	-28.8338E-3
-2.54377E-3	-93.2273E-12	720.086E-3	-9.21089E-3	-93.4311E-12	732.849E-3	-24.2848E-3
-2.54877E-3	-93.8804E-12	719.007E-3	-18.9685E-3	-93.5542E-12	708.557E-3	-29.5865E-3
-2.55378E-3	-94.1458E-12	704.057E-3	-25.0202E-3	-93.8638E-12	701.862E-3	-41.8157E-3
-2.55878E-3	-94.9072E-12	708.790E-3	-15.6653E-3	-94.2397E-12	702.310E-3	-35.5867E-3
-2.56378E-3	-95.3765E-12	710.661E-3	-1.87281E-3	-94.3351E-12	701.293E-3	-8.13709E-3
-2.56878E-3	-96.1490E-12	708.215E-3	-6.69794E-3	-94.8068E-12	714.596E-3	10.5208E-3
-2.57379E-3	-96.6258E-12	717.619E-3	-12.4484E-3	-95.1195E-12	709.422E-3	-1.55298E-3
-2.57879E-3	-96.7082E-12	708.327E-3	3.64847E-3	-95.5938E-12	684.817E-3	-23.9800E-3
-2.58379E-3	-97.3278E-12	690.689E-3	15.5012E-3	-95.9915E-12	683.309E-3	-31.9174E-3
-2.58879E-3	-97.1044E-12	702.425E-3	7.06473E-3	-96.1931E-12	695.457E-3	-39.6899E-3
-2.59380E-3	-97.4004E-12	719.132E-3	-512.975E-6	-96.1979E-12	697.620E-3	-46.5460E-3
-2.59880E-3	-96.9261E-12	718.916E-3	-1.16936E-3	-96.5871E-12	686.991E-3	-33.1728E-3
-2.60380E-3	-97.1450E-12	723.062E-3	-6.29995E-3	-96.6669E-12	684.046E-3	-21.3746E-3
-2.60880E-3	-97.3901E-12	730.059E-3	-10.7020E-3	-96.9240E-12	699.187E-3	-25.4649E-3
-2.61381E-3	-97.3787E-12	721.690E-3	-9.73682E-3	-97.0849E-12	696.462E-3	-33.0181E-3
-2.61881E-3	-97.3967E-12	712.107E-3	-19.8606E-3	-97.5309E-12	680.516E-3	-21.6920E-3
-2.62381E-3	-96.9711E-12	716.269E-3	-35.7974E-3	-97.4498E-12	683.500E-3	8.52049E-3
-2.62881E-3	-97.5613E-12	718.957E-3	-41.2871E-3	-97.6165E-12	694.423E-3	17.3151E-3
-2.63382E-3	-97.6640E-12	712.626E-3	-40.6704E-3	-97.8080E-12	707.248E-3	1.93483E-3
-2.63882E-3	-98.1816E-12	713.354E-3	-26.9099E-3	-98.4489E-12	715.565E-3	-5.42553E-3
-2.64382E-3	-98.4410E-12	702.136E-3	-10.9088E-3	-98.6899E-12	711.515E-3	-7.91733E-3
-2.64882E-3	-99.1360E-12	685.074E-3	-22.5940E-3	-98.6980E-12	709.797E-3	-13.9330E-3
-2.65383E-3	-99.5777E-12	694.093E-3	-28.3945E-3	-99.4053E-12	711.412E-3	-10.8399E-3
-2.65883E-3	-99.9824E-12	694.717E-3	-16.2083E-3	-99.6580E-12	715.949E-3	-6.06929E-3
-2.66383E-3	-100.322E-12	677.061E-3	-25.2414E-3	-100.681E-12	716.703E-3	-3.81014E-3
-2.66883E-3	-100.442E-12	673.663E-3	-39.0726E-3	-100.263E-12	707.377E-3	-6.24387E-3
-2.67384E-3	-100.840E-12	681.238E-3	-37.2890E-3	-101.212E-12	704.351E-3	-16.9309E-3
-2.67884E-3	-100.515E-12	687.870E-3	-33.4158E-3	-100.923E-12	712.434E-3	-26.3967E-3
-2.68384E-3	-100.966E-12	689.225E-3	-25.5373E-3	-101.506E-12	723.983E-3	-26.8090E-3
-2.68884E-3	-100.945E-12	683.980E-3	-17.5247E-3	-101.283E-12	723.765E-3	-22.1977E-3
-2.69385E-3	-100.680E-12	691.882E-3	-21.9113E-3	-101.493E-12	712.882E-3	-27.5629E-3
-2.69885E-3	-100.747E-12	710.232E-3	-22.4041E-3	-101.686E-12	709.151E-3	-34.1357E-3
-2.70385E-3	-100.792E-12	709.387E-3	-8.06961E-3	-101.616E-12	710.577E-3	-33.7829E-3
-2.70885E-3	-100.983E-12	700.876E-3	-10.9639E-3	-101.935E-12	696.998E-3	-27.8214E-3
-2.71386E-3	-101.097E-12	699.367E-3	-39.2511E-3	-101.946E-12	682.337E-3	-16.3969E-3
-2.71886E-3	-101.334E-12	683.941E-3	-38.0270E-3	-102.304E-12	683.409E-3	-14.3697E-3
-2.72386E-3	-101.708E-12	668.452E-3	-14.0514E-3	-102.318E-12	688.555E-3	-20.9272E-3
-2.72886E-3	-102.239E-12	682.632E-3	-13.2827E-3	-102.585E-12	692.989E-3	-17.5816E-3
-2.73387E-3	-102.259E-12	706.099E-3	-13.3548E-3	-103.164E-12	692.131E-3	-12.1952E-3
-2.73887E-3	-102.677E-12	700.350E-3	-17.4865E-3	-103.209E-12	683.690E-3	-11.0848E-3
-2.74387E-3	-102.986E-12	687.660E-3	-30.8679E-3	-103.916E-12	678.848E-3	-6.75895E-3
-2.74887E-3	-103.329E-12	695.798E-3	-29.5039E-3	-104.008E-12	681.954E-3	-1.47436E-3
-2.75388E-3	-103.322E-12	693.470E-3	-37.4351E-3	-104.590E-12	678.309E-3	-7.09332E-3
-2.75888E-3	-103.570E-12	672.893E-3	-51.1126E-3	-104.330E-12	674.645E-3	-19.0573E-3
-2.76388E-3	-103.642E-12	671.346E-3	-38.9298E-3	-104.710E-12	684.071E-3	-20.3044E-3
-2.76888E-3	-103.854E-12	682.739E-3	-28.3060E-3	-104.726E-12	683.788E-3	-18.9376E-3
-2.77389E-3	-103.804E-12	677.831E-3	-34.3301E-3	-105.035E-12	671.115E-3	-23.0969E-3
-2.77889E-3	-103.939E-12	665.530E-3	-34.7163E-3	-105.133E-12	668.232E-3	-33.7018E-3
-2.78389E-3	-104.388E-12	649.790E-3	-27.6748E-3	-105.020E-12	674.689E-3	-39.7369E-3
-2.78889E-3	-104.688E-12	645.474E-3	-14.4924E-3	-105.811E-12	677.084E-3	-23.2728E-3
-2.79390E-3	-105.231E-12	669.743E-3	-23.4546E-6	-105.307E-12	673.487E-3	-6.49378E-3
-2.79890E-3	-105.859E-12	691.540E-3	-4.96128E-3	-105.430E-12	670.766E-3	-11.5562E-3
-2.80390E-3	-106.347E-12	687.620E-3	-25.6571E-3	-105.293E-12	675.098E-3	-22.5230E-3
-2.80890E-3	-106.871E-12	687.318E-3	-41.9059E-3	-105.573E-12	684.873E-3	-21.4696E-3
-2.81391E-3	-107.640E-12	699.925E-3	-32.8753E-3	-105.655E-12	686.710E-3	-15.8844E-3
-2.81891E-3	-107.830E-12	698.893E-3	-17.9182E-3	-106.316E-12	687.197E-3	-19.6661E-3
-2.82391E-3	-108.381E-12	677.822E-3	-19.6899E-3	-106.435E-12	688.002E-3	-21.6484E-3
-2.82891E-3	-108.698E-12	666.661E-3	-18.8589E-3	-106.952E-12	687.946E-3	-24.3506E-3
-2.83392E-3	-109.374E-12	677.947E-3	-18.5480E-3	-107.256E-12	694.250E-3	-20.8410E-3
-2.83892E-3	-109.180E-12	696.802E-3	-19.1870E-3	-107.657E-12	698.064E-3	-1.92644E-3
-2.84392E-3	-108.904E-12	711.301E-3	-14.7009E-3	-107.863E-12	691.746E-3	2.05976E-3
-2.84892E-3	-108.618E-12	709.100E-3	-16.1836E-3	-107.960E-12	681.244E-3	-13.5128E-3
-2.85393E-3	-108.357E-12	701.624E-3	-21.0152E-3	-108.532E-12	681.215E-3	-15.4554E-3
-2.85893E-3	-108.300E-12	690.700E-3	-17.1136E-3	-108.734E-12	688.237E-3	-4.31261E-3
-2.86393E-3	-107.830E-12	675.628E-3	-14.3008E-3	-108.730E-12	692.165E-3	-1.76798E-3
-2.86893E-3	-108.013E-12	687.917E-3	-28.2546E-3	-108.964E-12	699.040E-3	-3.59267E-3
-2.87394E-3	-107.851E-12	708.005E-3	-33.8662E-3	-109.419E-12	703.181E-3	-2.12982E-3
-2.87894E-3	-108.074E-12	697.033E-3	-33.3993E-3	-109.609E-12	688.875E-3	-725.037E-6
-2.88394E-3	-108.654E-12	683.622E-3	-43.2226E-3	-109.246E-12	681.382E-3	-2.52947E-3
-2.88894E-3	-108.958E-12	686.929E-3	-36.7851E-3	-109.435E-12	704.017E-3	11.8790E-3
-2.89395E-3	-109.404E-12	689.834E-3	-21.4872E-3	-109.967E-12	719.038E-3	25.4320E-3
-2.89895E-3	-109.997E-12	689.929E-3	-29.7455E-3	-110.256E-12	712.827E-3	8.15992E-3
-2.90395E-3	-111.071E-12	691.657E-3	-40.0006E-3	-110.744E-12	708.072E-3	-5.82728E-3
-2.90895E-3	-111.631E-12	688.708E-3	-23.9331E-3	-111.315E-12	698.694E-3	-9.49233E-3
-2.91396E-3	-112.065E-12	689.252E-3	-8.74330E-3	-112.209E-12	690.562E-3	-10.9372E-3
-2.91896E-3	-112.472E-12	692.899E-3	-6.40031E-3	-112.577E-12	696.284E-3	-1.65094E-3
-2.92396E-3	-113.266E-12	677.175E-3	-5.14242E-3	-113.296E-12	697.253E-3	91.9451E-6
-2.92896E-3	-113.147E-12	666.819E-3	202.489E-6	-113.664E-12	689.903E-3	-11.9008E-3
-2.93397E-3	-113.220E-12	676.366E-3	11.6641E-3	-113.619E-12	706.793E-3	-15.4201E-3
-2.93897E-3	-112.727E-12	677.292E-3	6.78088E-3	-113.608E-12	724.721E-3	-11.4743E-3
-2.94397E-3	-111.875E-12	683.622E-3	-2.94380E-3	-113.471E-12	707.476E-3	-14.9190E-3
-2.94897E-3	-111.438E-12	698.817E-3	7.64363E-3	-114.056E-12	689.930E-3	-13.3290E-3
-2.95398E-3	-111.148E-12	694.377E-3	17.8159E-3	-113.614E-12	688.635E-3	-11.9787E-3
-2.95898E-3	-110.881E-12	678.507E-3	2.50087E-3	-113.785E-12	688.276E-3	-29.4129E-3
-2.96398E-3	-111.113E-12	667.033E-3	-22.2385E-3	-113.803E-12	695.005E-3	-32.6252E-3
-2.96898E-3	-110.725E-12	653.795E-3	-13.1084E-3	-114.480E-12	690.197E-3	-15.4828E-3
-2.97399E-3	-111.170E-12	653.182E-3	16.4043E-3	-114.041E-12	671.609E-3	-12.3870E-3
-2.97899E-3	-111.392E-12	670.443E-3	13.4491E-3	-114.063E-12	676.146E-3	-2.99281E-3
-2.98399E-3	-112.268E-12	666.844E-3	-26.7491E-3	-114.347E-12	670.341E-3	5.63811E-3
-2.98899E-3	-112.408E-12	654.178E-3	-53.1393E-3	-114.443E-12	654.052E-3	-14.9123E-3
-2.99400E-3	-113.108E-12	672.968E-3	-50.0019E-3	-114.796E-12	666.954E-3	-35.1162E-3
-2.99900E-3	-113.913E-12	690.067E-3	-44.0519E-3	-114.462E-12	678.837E-3	-26.8429E-3
-3.00400E-3	-114.937E-12	684.002E-3	-31.6421E-3	-115.178E-12	676.176E-3	-171.491E-6
-3.00900E-3	-115.612E-12	685.421E-3	-13.2686E-3	-115.264E-12	678.368E-3	7.64124E-3
-3.01401E-3	-116.097E-12	693.916E-3	1.30873E-3	-115.867E-12	684.222E-3	-6.56802E-3
-3.01901E-3	-116.770E-12	694.482E-3	7.97074E-3	-115.493E-12	685.787E-3	-21.1688E-3
-3.02401E-3	-116.692E-12	700.344E-3	-13.4688E-3	-115.869E-12	689.637E-3	-22.5295E-3
-3.02901E-3	-117.017E-12	699.221E-3	-42.2796E-3	-115.998E-12	696.182E-3	-14.1939E-3
-3.03402E-3	-116.670E-12	681.557E-3	-39.4403E-3	-116.177E-12	696.163E-3	-16.9003E-3
-3.03902E-3	-116.807E-12	685.800E-3	-21.7872E-3	-116.408E-12	693.882E-3	-14.8145E-3
-3.04402E-3	-116.531E-12	686.411E-3	261.544E-6	-116.242E-12	701.199E-3	4.04841E-3
-3.04902E-3	-116.762E-12	670.945E-3	9.23796E-3	-116.823E-12	705.421E-3	2.26926E-3
-3.05403E-3	-116.991E-12	664.504E-3	-10.9711E-3	-116.961E-12	688.828E-3	-14.3798E-3
-3.05903E-3	-117.232E-12	667.246E-3	-16.6858E-3	-117.405E-12	675.337E-3	-13.9368E-3
-3.06403E-3	-117.645E-12	674.298E-3	2.09634E-3	-117.350E-12	673.860E-3	-11.7064E-3
-3.06903E-3	-118.054E-12	678.610E-3	5.11592E-3	-117.471E-12	674.448E-3	-14.9172E-3
-3.07404E-3	-118.164E-12	687.721E-3	-8.44719E-3	-118.108E-12	679.867E-3	-17.5780E-3
-3.07904E-3	-118.555E-12	680.375E-3	-11.5872E-3	-118.408E-12	671.681E-3	-34.8952E-3
-3.08404E-3	-118.706E-12	661.568E-3	-15.9263E-3	-119.173E-12	657.357E-3	-47.7895E-3
-3.08904E-3	-119.584E-12	658.698E-3	-32.9253E-3	-119.435E-12	674.274E-3	-27.1010E-3
-3.09405E-3	-119.896E-12	669.156E-3	-40.0956E-3	-119.829E-12	709.023E-3	-4.24645E-3
-3.09905E-3	-120.135E-12	687.839E-3	-36.3928E-3	-120.116E-12	713.995E-3	-4.81491E-3
-3.10405E-3	-120.925E-12	697.342E-3	-31.0057E-3	-120.470E-12	687.315E-3	-16.5275E-3
-3.10905E-3	-121.005E-12	695.902E-3	-29.3380E-3	-120.851E-12	673.810E-3	-21.4905E-3
-3.11406E-3	-121.222E-12	688.596E-3	-31.9844E-3	-120.336E-12	678.723E-3	-24.7751E-3
-3.11906E-3	-121.050E-12	677.690E-3	-29.4680E-3	-120.755E-12	674.456E-3	-36.7140E-3
-3.12406E-3	-121.002E-12	681.389E-3	-28.2559E-3	-120.384E-12	669.575E-3	-46.8866E-3
-3.12906E-3	-120.780E-12	704.432E-3	-31.6697E-3	-120.782E-12	662.030E-3	-40.0969E-3
-3.13407E-3	-120.977E-12	721.860E-3	-35.2294E-3	-120.626E-12	664.041E-3	-2.48175E-3
-3.13907E-3	-121.342E-12	715.716E-3	-26.8642E-3	-120.786E-12	682.043E-3	15.9946E-3
-3.14407E-3	-121.687E-12	687.306E-3	-4.37149E-3	-121.158E-12	684.868E-3	-16.9119E-3
-3.14907E-3	-122.365E-12	666.547E-3	1.58016E-3	-121.539E-12	674.200E-3	-39.2698E-3
-3.15408E-3	-122.933E-12	671.658E-3	-5.74926E-3	-121.683E-12	664.697E-3	-31.8914E-3
-3.15908E-3	-123.770E-12	678.228E-3	-3.56816E-3	-122.040E-12	676.266E-3	-26.2711E-3
-3.16408E-3	-123.661E-12	692.626E-3	1.37269E-3	-122.397E-12	703.689E-3	-12.9284E-3
-3.16908E-3	-123.482E-12	716.475E-3	-3.48917E-3	-123.182E-12	711.332E-3	-2.00992E-3
-3.17409E-3	-123.868E-12	709.716E-3	-12.5399E-3	-123.268E-12	696.807E-3	-19.4393E-3
-3.17909E-3	-123.636E-12	684.025E-3	-18.2089E-3	-123.759E-12	668.844E-3	-27.3411E-3
-3.18409E-3	-123.388E-12	690.218E-3	-16.4379E-3	-123.937E-12	662.846E-3	-18.2491E-3
-3.18909E-3	-123.236E-12	698.454E-3	-21.3583E-3	-124.375E-12	672.602E-3	-23.1225E-3
-3.19410E-3	-123.283E-12	676.261E-3	-21.1980E-3	-123.853E-12	663.688E-3	-24.0987E-3
-3.19910E-3	-123.380E-12	669.737E-3	420.471E-6	-124.339E-12	673.712E-3	-16.0726E-3
-3.20410E-3	-122.931E-12	671.375E-3	6.88416E-3	-124.150E-12	692.106E-3	-16.1193E-3
-3.20910E-3	-122.426E-12	663.370E-3	-10.1022E-3	-124.280E-12	684.042E-3	-19.1099E-3
-3.21411E-3	-122.480E-12	678.386E-3	-23.0001E-3	-123.578E-12	666.586E-3	-34.2351E-3
-3.21911E-3	-122.615E-12	684.307E-3	-12.4114E-3	-123.826E-12	650.010E-3	-43.8024E-3
-3.22411E-3	-122.763E-12	665.167E-3	-8.15662E-3	-124.088E-12	646.699E-3	-31.5206E-3
-3.22911E-3	-123.281E-12	664.603E-3	-19.3768E-3	-123.798E-12	668.934E-3	-24.8618E-3
-3.23412E-3	-124.098E-12	672.621E-3	-12.0575E-3	-124.147E-12	696.176E-3	-30.0710E-3
-3.23912E-3	-125.195E-12	662.520E-3	-3.98253E-3	-124.551E-12	686.447E-3	-44.1710E-3
-3.24412E-3	-126.132E-12	648.656E-3	-4.35890E-3	-125.094E-12	668.798E-3	-41.5050E-3
-3.24912E-3	-127.113E-12	656.097E-3	-10.2783E-3	-125.636E-12	686.170E-3	-20.7047E-3
-3.25413E-3	-128.038E-12	667.921E-3	-28.0833E-3	-126.481E-12	690.903E-3	-16.9165E-3
-3.25913E-3	-128.568E-12	672.394E-3	-38.9789E-3	-126.978E-12	673.401E-3	-14.5289E-3
-3.26413E-3	-129.004E-12	685.564E-3	-37.6495E-3	-127.769E-12	679.060E-3	-6.50090E-3
-3.26913E-3	-128.808E-12	684.542E-3	-38.3514E-3	-127.945E-12	699.148E-3	-13.5938E-3
-3.27414E-3	-128.988E-12	671.460E-3	-43.2135E-3	-128.358E-12	697.644E-3	-17.5916E-3
-3.27914E-3	-128.726E-12	656.305E-3	-26.7911E-3	-129.143E-12	688.231E-3	-19.3399E-3
-3.28414E-3	-128.636E-12	635.289E-3	-7.27645E-3	-129.142E-12	678.850E-3	-23.0050E-3
-3.28914E-3	-128.294E-12	647.609E-3	5.12200E-3	-128.888E-12	674.221E-3	-13.2466E-3
-3.29415E-3	-127.652E-12	671.470E-3	24.6818E-3	-128.924E-12	687.863E-3	1.03067E-3
-3.29915E-3	-127.491E-12	673.208E-3	16.5518E-3	-128.920E-12	687.249E-3	-2.67050E-3
-3.30415E-3	-126.965E-12	685.279E-3	-16.0918E-3	-128.764E-12	674.396E-3	-26.3031E-3
-3.30915E-3	-126.725E-12	693.237E-3	-32.2654E-3	-128.413E-12	676.855E-3	-34.5069E-3
-3.31416E-3	-126.744E-12	673.770E-3	-35.6725E-3	-128.844E-12	681.885E-3	-25.0279E-3
-3.31916E-3	-127.227E-12	656.195E-3	-45.2454E-3	-128.999E-12	679.587E-3	-13.8347E-3
-3.32416E-3	-128.122E-12	660.956E-3	-49.2903E-3	-129.225E-12	674.637E-3	-834.516E-6
-3.32916E-3	-129.263E-12	677.190E-3	-34.7583E-3	-130.138E-12	675.167E-3	-10.6488E-3
-3.33417E-3	-130.402E-12	685.975E-3	-15.8341E-3	-130.582E-12	676.475E-3	-20.6307E-3
-3.33917E-3	-130.965E-12	690.404E-3	-7.33703E-3	-131.245E-12	676.965E-3	-2.81790E-3
-3.34417E-3	-132.032E-12	686.315E-3	-6.65965E-3	-131.661E-12	684.487E-3	729.501E-6
-3.34917E-3	-132.260E-12	676.785E-3	-13.1827E-3	-132.453E-12	678.206E-3	-5.16859E-3
-3.35418E-3	-133.166E-12	685.045E-3	-18.0817E-3	-132.759E-12	652.898E-3	-16.4678E-3
-3.35918E-3	-133.089E-12	689.964E-3	-5.95886E-3	-133.005E-12	653.433E-3	-33.6534E-3
-3.36418E-3	-133.126E-12	674.827E-3	-16.5580E-3	-133.046E-12	671.293E-3	-28.0805E-3
-3.36918E-3	-133.038E-12	672.420E-3	-39.6130E-3	-132.829E-12	670.377E-3	-18.3529E-3
-3.37419E-3	-132.618E-12	680.487E-3	-34.4293E-3	-133.021E-12	659.427E-3	-21.0569E-3
-3.37919E-3	-132.508E-12	666.054E-3	-37.4390E-3	-132.813E-12	647.818E-3	-31.0700E-3
-3.38419E-3	-131.858E-12	664.140E-3	-41.2279E-3	-133.341E-12	650.783E-3	-27.2825E-3
-3.38919E-3	-131.732E-12	674.826E-3	-33.9831E-3	-132.759E-12	679.199E-3	-11.1592E-3
-3.39420E-3	-131.134E-12	657.871E-3	-41.3134E-3	-133.200E-12	693.301E-3	-20.9402E-3
-3.39920E-3	-131.495E-12	650.942E-3	-39.2532E-3	-132.753E-12	672.259E-3	-26.7866E-3
-3.40420E-3	-131.590E-12	666.608E-3	-15.5750E-3	-133.157E-12	651.458E-3	-22.8787E-3
-3.40920E-3	-132.044E-12	660.788E-3	-7.61172E-3	-133.104E-12	649.753E-3	-38.0532E-3
-3.41421E-3	-132.417E-12	651.226E-3	-6.56942E-3	-133.198E-12	656.154E-3	-39.7096E-3
-3.41921E-3	-133.150E-12	667.814E-3	11.9090E-3	-133.904E-12	673.970E-3	-24.2745E-3
-3.42421E-3	-133.629E-12	676.780E-3	9.81458E-3	-134.112E-12	681.669E-3	-10.2588E-3
-3.42921E-3	-134.429E-12	670.657E-3	-8.74628E-3	-134.292E-12	667.869E-3	-982.710E-6
-3.43422E-3	-135.444E-12	666.518E-3	-11.3266E-3	-134.578E-12	667.091E-3	-2.40544E-3
-3.43922E-3	-135.589E-12	668.606E-3	-12.2138E-3	-135.200E-12	679.284E-3	-14.7501E-3
-3.44422E-3	-135.942E-12	688.778E-3	-24.0959E-3	-134.858E-12	677.072E-3	-36.6867E-3
-3.44922E-3	-136.232E-12	703.443E-3	-32.4624E-3	-135.771E-12	673.502E-3	-46.2631E-3
-3.45423E-3	-136.367E-12	683.530E-3	-24.9445E-3	-136.002E-12	678.752E-3	-21.6083E-3
-3.45923E-3	-136.391E-12	653.541E-3	-9.01903E-3	-136.015E-12	664.662E-3	-5.01912E-3
-3.46423E-3	-136.099E-12	645.281E-3	5.31092E-3	-136.106E-12	650.777E-3	-11.2620E-3
-3.46923E-3	-136.944E-12	639.405E-3	18.0384E-3	-136.324E-12	660.037E-3	-2.20347E-3
-3.47424E-3	-136.559E-12	627.052E-3	7.16782E-3	-136.480E-12	671.766E-3	8.34087E-3
-3.47924E-3	-136.680E-12	649.297E-3	-23.4144E-3	-136.489E-12	666.901E-3	2.13734E-3
-3.48424E-3	-136.899E-12	691.824E-3	-28.2509E-3	-136.590E-12	654.061E-3	-14.1313E-3
-3.48924E-3	-137.050E-12	706.726E-3	-7.58044E-3	-136.700E-12	641.310E-3	-42.1470E-3
-3.49425E-3	-137.991E-12	699.356E-3	-9.95208E-3	-137.138E-12	636.185E-3	-47.2466E-3
-3.49925E-3	-138.397E-12	677.869E-3	-34.0442E-3	-137.466E-12	650.589E-3	-23.4508E-3
-3.50425E-3	-139.438E-12	647.105E-3	-37.1744E-3	-137.777E-12	657.116E-3	-20.1840E-3
-3.50925E-3	-139.919E-12	632.955E-3	-26.4667E-3	-138.225E-12	651.775E-3	-25.2339E-3
-3.51426E-3	-140.171E-12	644.606E-3	-7.46975E-3	-138.838E-12	657.078E-3	-16.4341E-3
-3.51926E-3	-140.214E-12	669.228E-3	7.83637E-3	-138.901E-12	661.963E-3	-25.9702E-3
-3.52426E-3	-140.016E-12	688.337E-3	-8.13416E-3	-139.624E-12	647.443E-3	-31.7948E-3
-3.52926E-3	-140.346E-12	694.389E-3	-18.2707E-3	-140.264E-12	639.226E-3	-19.8116E-3
-3.53427E-3	-139.340E-12	681.257E-3	4.76816E-3	-140.401E-12	651.824E-3	-25.3109E-3
-3.53927E-3	-139.824E-12	657.105E-3	22.5670E-3	-139.900E-12	657.728E-3	-29.7255E-3
-3.54427E-3	-139.088E-12	645.977E-3	8.08915E-3	-140.144E-12	668.027E-3	-20.9360E-3
-3.54927E-3	-138.887E-12	640.286E-3	-25.3299E-3	-140.620E-12	677.245E-3	-1.78568E-3
-3.55428E-3	-138.727E-12	630.009E-3	-42.0233E-3	-140.095E-12	667.090E-3	5.07746E-3
-3.55928E-3	-138.422E-12	626.100E-3	-25.0417E-3	-140.042E-12	677.193E-3	-7.37741E-3
-3.56428E-3	-138.260E-12	631.557E-3	-19.1947E-3	-140.022E-12	695.868E-3	-1.51113E-3
-3.56928E-3	-138.195E-12	649.204E-3	-32.6249E-3	-140.593E-12	680.790E-3	11.7923E-3
-3.57429E-3	-138.786E-12	683.626E-3	-36.8894E-3	-140.430E-12	662.648E-3	-5.58370E-3
-3.57929E-3	-139.388E-12	699.202E-3	-32.3769E-3	-140.621E-12	671.830E-3	-41.4413E-3
-3.58429E-3	-140.653E-12	688.980E-3	-20.2625E-3	-141.085E-12	680.768E-3	-54.6312E-3
-3.58929E-3	-141.257E-12	693.846E-3	-26.1288E-3	-141.363E-12	670.885E-3	-44.0277E-3
-3.59430E-3	-142.350E-12	702.070E-3	-36.0448E-3	-142.363E-12	657.870E-3	-30.3019E-3
-3.59930E-3	-143.457E-12	682.461E-3	-26.5311E-3	-142.473E-12	654.596E-3	-22.7111E-3
-3.60430E-3	-144.049E-12	649.901E-3	-24.9689E-3	-143.602E-12	659.534E-3	-28.6370E-3
-3.60930E-3	-144.374E-12	640.779E-3	-27.9138E-3	-143.022E-12	669.803E-3	-33.0541E-3
-3.61431E-3	-144.070E-12	661.352E-3	-26.6371E-3	-143.595E-12	686.317E-3	-11.2000E-3
-3.61931E-3	-144.082E-12	680.798E-3	-27.1060E-3	-143.381E-12	696.978E-3	3.65761E-3
-3.62431E-3	-143.666E-12	669.074E-3	-26.5663E-3	-142.816E-12	687.236E-3	-17.4702E-3
-3.62931E-3	-143.644E-12	657.789E-3	-42.3534E-3	-142.388E-12	658.059E-3	-26.0907E-3
-3.63432E-3	-143.109E-12	677.904E-3	-61.7076E-3	-142.300E-12	644.618E-3	-14.1045E-3
-3.63932E-3	-143.251E-12	677.914E-3	-47.4426E-3	-141.825E-12	658.695E-3	-8.47021E-3
-3.64432E-3	-142.508E-12	659.063E-3	-25.1098E-3	-141.753E-12	655.175E-3	-14.5029E-3
-3.64932E-3	-142.745E-12	669.412E-3	-33.4668E-3	-141.792E-12	646.014E-3	-28.2653E-3
-3.65433E-3	-142.801E-12	673.949E-3	-46.2508E-3	-142.001E-12	656.591E-3	-35.5841E-3
-3.65933E-3	-143.182E-12	653.854E-3	-39.9287E-3	-142.066E-12	658.904E-3	-30.1092E-3
-3.66433E-3	-143.288E-12	645.834E-3	-33.8546E-3	-142.303E-12	650.576E-3	-5.91249E-3
-3.66933E-3	-144.572E-12	641.968E-3	-31.3208E-3	-142.794E-12	645.212E-3	16.3946E-3
-3.67434E-3	-144.965E-12	642.597E-3	-25.6543E-3	-143.923E-12	646.284E-3	15.1414E-3
-3.67934E-3	-146.092E-12	665.038E-3	-20.7252E-3	-144.771E-12	648.858E-3	2.30448E-3
-3.68434E-3	-147.064E-12	684.556E-3	-15.8964E-3	-145.690E-12	651.318E-3	1.17461E-3
-3.68934E-3	-148.028E-12	682.504E-3	-12.7987E-3	-146.616E-12	659.744E-3	-215.070E-6
-3.69435E-3	-148.510E-12	670.885E-3	-10.6530E-3	-147.373E-12	673.012E-3	-10.3105E-3
-3.69935E-3	-148.353E-12	664.262E-3	-21.6438E-3	-147.823E-12	673.037E-3	-14.9531E-3
-3.70435E-3	-149.049E-12	661.064E-3	-36.2454E-3	-148.292E-12	656.569E-3	-27.6629E-3
-3.70935E-3	-149.120E-12	669.046E-3	-31.3019E-3	-148.552E-12	640.182E-3	-37.0180E-3
-3.71436E-3	-148.913E-12	678.691E-3	-21.6475E-3	-148.514E-12	641.741E-3	-17.8723E-3
-3.71936E-3	-148.727E-12	662.486E-3	-14.9923E-3	-147.949E-12	659.187E-3	7.62531E-3
-3.72436E-3	-148.758E-12	647.584E-3	-8.57683E-3	-148.117E-12	663.685E-3	16.7172E-3
-3.72936E-3	-147.988E-12	668.166E-3	-2.86147E-3	-147.684E-12	654.694E-3	13.0912E-3
-3.73437E-3	-148.025E-12	672.831E-3	-8.82437E-3	-147.571E-12	663.531E-3	-17.5468E-3
-3.73937E-3	-147.412E-12	648.530E-3	-21.9209E-3	-147.461E-12	673.382E-3	-52.2081E-3
-3.74437E-3	-147.687E-12	645.999E-3	-13.8414E-3	-148.235E-12	656.357E-3	-53.4950E-3
-3.74937E-3	-147.411E-12	657.716E-3	2.53115E-3	-148.370E-12	644.220E-3	-53.9517E-3
-3.75438E-3	-147.974E-12	679.200E-3	-4.02332E-3	-148.162E-12	655.061E-3	-55.2179E-3
-3.75938E-3	-148.759E-12	701.164E-3	-10.9703E-3	-148.821E-12	675.462E-3	-34.7407E-3
-3.76438E-3	-149.198E-12	701.650E-3	-13.7356E-3	-149.665E-12	696.624E-3	-15.9434E-3
-3.76938E-3	-149.527E-12	689.084E-3	-41.0802E-3	-150.538E-12	690.946E-3	4.32563E-3
-3.77439E-3	-150.119E-12	665.992E-3	-59.1801E-3	-151.223E-12	668.635E-3	19.6356E-3
-3.77939E-3	-151.041E-12	638.981E-3	-37.5540E-3	-152.311E-12	656.411E-3	-3.53850E-3
-3.78439E-3	-151.080E-12	635.439E-3	-17.3888E-3	-152.626E-12	640.792E-3	-34.3160E-3
-3.78939E-3	-151.683E-12	660.427E-3	-11.5656E-3	-152.647E-12	635.743E-3	-29.7117E-3
-3.79440E-3	-151.027E-12	665.326E-3	-7.18536E-3	-152.646E-12	665.247E-3	-5.48245E-3
-3.79940E-3	-151.492E-12	642.826E-3	-13.3541E-3	-152.501E-12	691.467E-3	-4.62225E-3
-3.80440E-3	-151.183E-12	625.729E-3	-24.1651E-3	-152.368E-12	666.905E-3	-19.2906E-3
-3.80940E-3	-151.091E-12	626.809E-3	-21.1852E-3	-152.051E-12	644.880E-3	-29.4016E-3
-3.81441E-3	-150.829E-12	639.345E-3	-15.7686E-3	-151.825E-12	647.509E-3	-48.7903E-3
-3.81941E-3	-150.654E-12	653.430E-3	-37.0005E-3	-151.357E-12	631.981E-3	-52.4594E-3
-3.82441E-3	-150.549E-12	663.531E-3	-56.8623E-3	-151.548E-12	608.176E-3	-21.4172E-3
-3.82941E-3	-150.207E-12	647.475E-3	-51.5697E-3	-151.082E-12	605.814E-3	-11.6575E-3
-3.83442E-3	-150.570E-12	627.746E-3	-47.5383E-3	-151.445E-12	633.313E-3	-29.8664E-3
-3.83942E-3	-150.769E-12	648.990E-3	-38.4470E-3	-150.953E-12	649.582E-3	-47.1698E-3
-3.84442E-3	-151.559E-12	680.739E-3	-30.7277E-3	-151.603E-12	640.655E-3	-69.4965E-3
-3.84942E-3	-151.841E-12	680.611E-3	-34.9747E-3	-151.504E-12	635.934E-3	-67.6369E-3
-3.85443E-3	-152.707E-12	656.642E-3	-28.0612E-3	-152.172E-12	644.003E-3	-47.3480E-3
-3.85943E-3	-153.463E-12	643.080E-3	-19.4659E-3	-152.779E-12	658.217E-3	-43.4851E-3
-3.86443E-3	-154.043E-12	648.164E-3	-11.1678E-3	-153.662E-12	659.085E-3	-45.1005E-3
-3.86943E-3	-154.482E-12	643.404E-3	2.55540E-3	-154.008E-12	649.022E-3	-30.8270E-3
-3.87444E-3	-155.594E-12	624.884E-3	3.45824E-3	-154.569E-12	649.258E-3	-10.9017E-3
-3.87944E-3	-155.217E-12	614.630E-3	-875.689E-6	-154.649E-12	654.433E-3	-4.15176E-3
-3.88444E-3	-154.872E-12	612.636E-3	12.6767E-3	-155.128E-12	670.170E-3	-8.52318E-3
-3.88944E-3	-155.188E-12	612.422E-3	26.5788E-3	-154.619E-12	683.478E-3	-13.2211E-3
-3.89445E-3	-154.482E-12	617.278E-3	13.8488E-3	-155.213E-12	660.924E-3	-13.7542E-3
-3.89945E-3	-154.860E-12	625.198E-3	-7.02002E-3	-155.272E-12	642.012E-3	-4.79128E-3
-3.90445E-3	-153.935E-12	629.226E-3	-19.4660E-3	-154.769E-12	648.184E-3	-2.11053E-3
-3.90945E-3	-154.389E-12	630.890E-3	-18.4575E-3	-154.939E-12	649.230E-3	-8.41336E-3
-3.91446E-3	-154.176E-12	647.954E-3	-11.3048E-3	-154.798E-12	653.359E-3	-3.54814E-3
-3.91946E-3	-154.460E-12	678.652E-3	-31.2965E-3	-155.297E-12	652.249E-3	2.50071E-3
-3.92446E-3	-154.535E-12	686.144E-3	-51.9822E-3	-155.437E-12	644.635E-3	-1.64955E-3
-3.92946E-3	-155.582E-12	674.328E-3	-41.7980E-3	-156.181E-12	649.777E-3	-9.09304E-3
-3.93447E-3	-156.420E-12	667.054E-3	-24.5505E-3	-156.541E-12	674.127E-3	-25.8437E-3
-3.93947E-3	-157.464E-12	656.335E-3	-12.4176E-3	-156.962E-12	689.655E-3	-40.9807E-3
-3.94447E-3	-158.831E-12	642.046E-3	-1.61713E-3	-157.403E-12	675.860E-3	-31.0242E-3
-3.94947E-3	-159.216E-12	641.656E-3	13.7051E-3	-158.039E-12	660.625E-3	-13.8725E-3
-3.95448E-3	-160.521E-12	644.071E-3	23.8151E-3	-158.764E-12	647.005E-3	-19.7350E-3
-3.95948E-3	-160.322E-12	634.710E-3	16.3818E-3	-159.010E-12	638.681E-3	-39.2398E-3
-3.96448E-3	-160.988E-12	633.507E-3	-1.08372E-3	-159.534E-12	642.639E-3	-46.4549E-3
-3.96948E-3	-160.985E-12	646.764E-3	-22.2303E-3	-159.468E-12	658.758E-3	-54.3747E-3
-3.97449E-3	-160.792E-12	669.721E-3	-21.5025E-3	-159.977E-12	671.363E-3	-38.0465E-3
-3.97949E-3	-160.218E-12	671.041E-3	9.07512E-3	-159.526E-12	668.435E-3	3.17781E-3
-3.98449E-3	-160.069E-12	652.929E-3	31.0868E-3	-159.886E-12	674.504E-3	1.45474E-3
-3.98949E-3	-159.432E-12	644.719E-3	33.5625E-3	-158.883E-12	676.907E-3	-25.0993E-3
-3.99450E-3	-159.099E-12	654.605E-3	11.2992E-3	-159.394E-12	678.924E-3	-35.3420E-3
-3.99950E-3	-158.720E-12	668.889E-3	-28.2310E-3	-159.220E-12	697.770E-3	-32.5783E-3
-4.00450E-3	-158.656E-12	657.524E-3	-49.6445E-3	-159.415E-12	693.782E-3	-19.3829E-3
-4.00950E-3	-158.851E-12	642.826E-3	-39.9731E-3	-159.307E-12	669.688E-3	-3.29453E-3
-4.01451E-3	-159.431E-12	649.527E-3	-27.8472E-3	-159.709E-12	651.451E-3	5.76607E-3
-4.01951E-3	-159.469E-12	670.935E-3	-31.5822E-3	-159.993E-12	632.969E-3	9.98142E-3
-4.02451E-3	-160.280E-12	683.209E-3	-26.8098E-3	-160.468E-12	634.899E-3	14.9500E-3
-4.02951E-3	-161.079E-12	667.675E-3	-16.8141E-3	-160.380E-12	644.630E-3	-2.71078E-3
-4.03452E-3	-161.587E-12	658.457E-3	-28.6805E-3	-161.159E-12	637.474E-3	-31.3672E-3
-4.03952E-3	-162.389E-12	663.255E-3	-37.8073E-3	-161.372E-12	646.452E-3	-42.4948E-3
-4.04452E-3	-162.895E-12	650.890E-3	-18.8173E-3	-161.437E-12	665.689E-3	-45.5813E-3
-4.04952E-3	-163.089E-12	638.338E-3	-2.21969E-3	-161.604E-12	666.199E-3	-30.9253E-3
-4.05453E-3	-163.211E-12	632.438E-3	-17.6551E-3	-161.797E-12	657.833E-3	4.04005E-3
-4.05953E-3	-163.225E-12	625.705E-3	-30.8103E-3	-161.443E-12	647.985E-3	13.5305E-3
-4.06453E-3	-162.925E-12	639.645E-3	-17.0936E-3	-161.514E-12	644.144E-3	-16.5714E-3
-4.06953E-3	-162.746E-12	664.680E-3	-29.1063E-3	-161.587E-12	657.398E-3	-23.5982E-3
-4.07454E-3	-162.702E-12	684.316E-3	-51.9429E-3	-161.347E-12	667.374E-3	-7.22435E-3
-4.07954E-3	-162.467E-12	682.670E-3	-32.0789E-3	-161.457E-12	660.429E-3	-30.7221E-3
-4.08454E-3	-162.368E-12	665.902E-3	532.060E-6	-161.619E-12	648.891E-3	-44.5903E-3
-4.08954E-3	-162.543E-12	663.872E-3	10.4746E-3	-161.819E-12	642.905E-3	-14.6842E-3
-4.09455E-3	-162.835E-12	659.180E-3	-2.09480E-3	-162.388E-12	637.461E-3	156.938E-6
-4.09955E-3	-163.326E-12	643.572E-3	-27.6015E-3	-163.032E-12	626.612E-3	2.69241E-3
-4.10455E-3	-163.799E-12	631.239E-3	-45.9512E-3	-163.816E-12	638.911E-3	-6.81236E-3
-4.10955E-3	-164.624E-12	643.691E-3	-55.1779E-3	-164.649E-12	665.556E-3	-41.8834E-3
-4.11456E-3	-164.652E-12	684.897E-3	-53.7441E-3	-164.933E-12	671.894E-3	-47.5393E-3
-4.11956E-3	-165.343E-12	700.497E-3	-34.5797E-3	-165.814E-12	682.294E-3	-18.3279E-3
-4.12456E-3	-166.024E-12	674.100E-3	-4.19804E-3	-166.631E-12	689.760E-3	-22.3461E-3
-4.12956E-3	-165.951E-12	664.745E-3	356.576E-6	-166.929E-12	668.163E-3	-40.3098E-3
-4.13457E-3	-165.890E-12	680.489E-3	-10.1783E-3	-167.493E-12	653.139E-3	-34.1009E-3
-4.13957E-3	-165.619E-12	671.640E-3	-11.1681E-3	-167.301E-12	658.792E-3	-30.6858E-3
-4.14457E-3	-165.471E-12	654.175E-3	-30.6803E-3	-167.486E-12	665.880E-3	-24.2460E-3
-4.14957E-3	-165.059E-12	654.235E-3	-44.6285E-3	-167.047E-12	661.620E-3	-6.55871E-3
-4.15458E-3	-165.497E-12	652.330E-3	-38.5365E-3	-167.100E-12	653.359E-3	-8.59738E-3
-4.15958E-3	-165.301E-12	652.779E-3	-20.7412E-3	-166.678E-12	640.023E-3	-19.8425E-3
-4.16458E-3	-165.795E-12	654.122E-3	17.9702E-3	-166.185E-12	636.443E-3	-12.4291E-3
-4.16958E-3	-166.036E-12	644.235E-3	27.2186E-3	-166.203E-12	651.011E-3	939.454E-6
-4.17459E-3	-166.596E-12	633.860E-3	-9.49400E-3	-166.533E-12	648.089E-3	-1.99247E-3
-4.17959E-3	-166.646E-12	630.151E-3	-26.4840E-3	-167.153E-12	649.042E-3	-10.0058E-3
-4.18459E-3	-167.772E-12	637.372E-3	-10.7296E-3	-167.618E-12	664.483E-3	-19.7578E-3
-4.18959E-3	-167.912E-12	649.788E-3	-14.1662E-3	-168.358E-12	661.771E-3	-37.9398E-3
-4.19460E-3	-169.142E-12	652.631E-3	-37.6792E-3	-168.507E-12	645.019E-3	-33.3161E-3
-4.19960E-3	-170.310E-12	649.817E-3	-42.5187E-3	-169.443E-12	642.282E-3	-17.8108E-3
-4.20460E-3	-171.761E-12	642.982E-3	-35.4492E-3	-169.867E-12	654.099E-3	-26.7370E-3
-4.20960E-3	-172.064E-12	635.910E-3	-28.5996E-3	-170.664E-12	646.657E-3	-46.3102E-3
-4.21461E-3	-172.069E-12	637.578E-3	-25.2610E-3	-171.407E-12	633.363E-3	-46.7516E-3
-4.21961E-3	-172.384E-12	645.583E-3	-18.2233E-3	-171.294E-12	637.603E-3	-42.9598E-3
-4.22461E-3	-172.458E-12	665.081E-3	-12.8536E-3	-171.511E-12	625.659E-3	-42.5862E-3
-4.22961E-3	-171.718E-12	673.399E-3	-14.5902E-3	-171.285E-12	619.299E-3	-30.3056E-3
-4.23462E-3	-170.943E-12	655.402E-3	-9.46388E-3	-170.635E-12	638.516E-3	-32.3171E-3
-4.23962E-3	-170.405E-12	652.649E-3	-17.3182E-3	-169.737E-12	645.010E-3	-34.2305E-3
-4.24462E-3	-169.629E-12	674.145E-3	-31.0653E-3	-168.933E-12	639.732E-3	-14.0562E-3
-4.24962E-3	-169.143E-12	687.693E-3	-40.4684E-3	-168.459E-12	632.531E-3	-5.79691E-3
-4.25463E-3	-169.100E-12	681.852E-3	-40.4634E-3	-167.946E-12	617.003E-3	-17.8125E-3
-4.25963E-3	-169.365E-12	664.683E-3	-12.6672E-3	-168.122E-12	627.138E-3	-17.1787E-3
-4.26463E-3	-169.807E-12	648.869E-3	16.2331E-3	-167.828E-12	665.057E-3	-3.56303E-3
-4.26963E-3	-170.660E-12	655.790E-3	11.0546E-3	-168.788E-12	665.746E-3	-5.22059E-3
-4.27464E-3	-171.115E-12	662.772E-3	-8.25503E-3	-169.391E-12	646.889E-3	-10.9195E-3
-4.27964E-3	-171.949E-12	646.705E-3	-3.62871E-3	-170.252E-12	659.538E-3	-7.66382E-3
-4.28464E-3	-173.085E-12	643.353E-3	6.46184E-3	-171.292E-12	663.211E-3	-8.29518E-3
-4.28964E-3	-173.521E-12	646.222E-3	-12.0933E-3	-172.028E-12	652.807E-3	-25.3822E-3
-4.29465E-3	-174.746E-12	642.271E-3	-47.0348E-3	-173.105E-12	654.996E-3	-49.5165E-3
-4.29965E-3	-175.562E-12	657.353E-3	-60.3754E-3	-173.648E-12	651.266E-3	-59.8600E-3
-4.30465E-3	-176.161E-12	680.253E-3	-47.5741E-3	-174.951E-12	650.547E-3	-49.1850E-3
-4.30965E-3	-175.782E-12	682.985E-3	-32.6217E-3	-175.080E-12	675.269E-3	-24.5957E-3
-4.31466E-3	-176.606E-12	678.021E-3	-33.9105E-3	-175.333E-12	685.724E-3	607.997E-6
-4.31966E-3	-176.044E-12	665.112E-3	-42.6037E-3	-175.500E-12	641.477E-3	-962.089E-6
-4.32466E-3	-175.114E-12	645.583E-3	-37.5059E-3	-174.845E-12	615.472E-3	-13.0896E-3
-4.32966E-3	-174.854E-12	654.972E-3	-38.0263E-3	-174.864E-12	643.830E-3	-7.67664E-3
-4.33467E-3	-174.158E-12	667.744E-3	-40.2298E-3	-174.318E-12	660.396E-3	-9.12973E-3
-4.33967E-3	-174.198E-12	660.856E-3	-24.3685E-3	-174.057E-12	646.727E-3	-21.7022E-3
-4.34467E-3	-172.831E-12	664.687E-3	180.951E-6	-173.412E-12	633.503E-3	-21.8939E-3
-4.34967E-3	-173.607E-12	672.431E-3	14.3477E-3	-173.892E-12	654.681E-3	-18.4609E-3
-4.35468E-3	-172.762E-12	658.202E-3	-3.61346E-3	-174.205E-12	693.093E-3	-19.1439E-3
-4.35968E-3	-173.730E-12	644.124E-3	-24.6085E-3	-174.974E-12	697.260E-3	-25.1966E-3
-4.36468E-3	-173.383E-12	647.160E-3	-18.0167E-3	-176.057E-12	665.354E-3	-30.8453E-3
-4.36968E-3	-174.443E-12	651.165E-3	-3.41987E-3	-176.797E-12	655.750E-3	-17.5617E-3
-4.37469E-3	-175.461E-12	649.925E-3	8.27574E-3	-177.376E-12	670.116E-3	-10.1846E-3
-4.37969E-3	-176.044E-12	652.174E-3	6.05882E-3	-177.958E-12	649.789E-3	-26.4860E-3
-4.38469E-3	-177.273E-12	651.311E-3	-2.94799E-3	-179.096E-12	626.889E-3	-36.0817E-3
-4.38969E-3	-177.798E-12	642.675E-3	-4.28459E-3	-179.544E-12	632.397E-3	-30.7338E-3
-4.39470E-3	-179.235E-12	649.161E-3	-18.2107E-3	-180.178E-12	643.229E-3	-32.8043E-3
-4.39970E-3	-179.020E-12	651.444E-3	-22.0805E-3	-180.521E-12	653.712E-3	-24.5157E-3
-4.40470E-3	-179.548E-12	634.831E-3	-13.9948E-3	-180.597E-12	667.934E-3	5.71022E-3
-4.40970E-3	-179.339E-12	627.435E-3	-19.4008E-3	-180.238E-12	661.958E-3	16.7242E-3
-4.41471E-3	-179.223E-12	628.187E-3	-23.9557E-3	-180.029E-12	627.099E-3	-7.76719E-3
-4.41971E-3	-179.126E-12	632.240E-3	-37.6606E-3	-178.943E-12	619.376E-3	-35.3386E-3
-4.42471E-3	-178.420E-12	644.179E-3	-51.7529E-3	-178.206E-12	626.412E-3	-29.2289E-3
-4.42971E-3	-178.462E-12	669.165E-3	-46.2667E-3	-178.560E-12	627.822E-3	-355.277E-6
-4.43472E-3	-177.598E-12	693.212E-3	-39.6288E-3	-178.130E-12	646.753E-3	3.87810E-3
-4.43972E-3	-177.985E-12	696.826E-3	-37.3665E-3	-178.385E-12	652.806E-3	-20.5006E-3
-4.44472E-3	-177.552E-12	687.284E-3	-24.7952E-3	-178.601E-12	650.338E-3	-24.6570E-3
-4.44972E-3	-178.699E-12	677.413E-3	-23.4093E-3	-178.346E-12	656.455E-3	-20.8895E-3
-4.45473E-3	-178.247E-12	666.073E-3	-42.3668E-3	-178.636E-12	663.053E-3	-46.0411E-3
-4.45973E-3	-179.327E-12	643.659E-3	-47.8054E-3	-179.413E-12	670.330E-3	-58.5421E-3
-4.46473E-3	-179.315E-12	625.113E-3	-38.2195E-3	-179.515E-12	669.444E-3	-43.3575E-3
-4.46973E-3	-180.279E-12	630.593E-3	-40.1623E-3	-179.860E-12	649.705E-3	-31.4379E-3
-4.47474E-3	-180.534E-12	641.010E-3	-47.6885E-3	-180.458E-12	623.032E-3	-13.3268E-3
-4.47974E-3	-181.086E-12	645.090E-3	-28.1662E-3	-180.049E-12	629.370E-3	3.81819E-3
-4.48474E-3	-181.632E-12	656.706E-3	-1.76289E-3	-180.465E-12	652.166E-3	-7.40226E-3
-4.48974E-3	-181.985E-12	671.456E-3	2.29032E-3	-180.042E-12	664.169E-3	-17.3625E-3
-4.49475E-3	-181.980E-12	678.661E-3	-2.61298E-3	-180.166E-12	672.337E-3	-15.9191E-3
-4.49975E-3	-182.235E-12	679.172E-3	1.44405E-3	-180.383E-12	669.488E-3	-35.3848E-3
-4.50475E-3	-181.896E-12	675.753E-3	-6.48766E-3	-180.462E-12	662.501E-3	-43.5944E-3
-4.50975E-3	-181.739E-12	670.226E-3	-27.3046E-3	-179.761E-12	664.227E-3	-11.9991E-3
-4.51476E-3	-181.832E-12	678.460E-3	-20.9970E-3	-180.200E-12	660.618E-3	-10.6527E-3
-4.51976E-3	-182.169E-12	686.676E-3	-450.091E-6	-180.386E-12	642.081E-3	-41.2601E-3
-4.52476E-3	-182.944E-12	681.099E-3	15.3307E-3	-180.421E-12	640.861E-3	-43.1849E-3
-4.52976E-3	-182.949E-12	670.169E-3	15.5822E-3	-180.934E-12	657.074E-3	-35.0353E-3
-4.53477E-3	-183.434E-12	658.061E-3	-10.3180E-3	-181.835E-12	644.910E-3	-38.1865E-3
-4.53977E-3	-183.595E-12	652.677E-3	-35.1646E-3	-182.741E-12	640.148E-3	-32.5029E-3
-4.54477E-3	-184.691E-12	643.258E-3	-39.4059E-3	-183.229E-12	666.347E-3	-27.1787E-3
-4.54977E-3	-185.063E-12	632.115E-3	-29.8031E-3	-184.162E-12	666.265E-3	-28.6793E-3
-4.55478E-3	-185.990E-12	632.808E-3	-24.8816E-3	-184.870E-12	653.906E-3	-17.8742E-3
-4.55978E-3	-185.999E-12	635.943E-3	-24.0603E-3	-185.167E-12	679.178E-3	-4.82170E-3
-4.56478E-3	-185.948E-12	646.067E-3	-22.4222E-3	-185.751E-12	698.669E-3	12.4081E-3
-4.56978E-3	-186.080E-12	647.043E-3	-7.57964E-3	-185.506E-12	681.521E-3	31.9429E-3
-4.57479E-3	-185.421E-12	632.374E-3	11.2865E-3	-185.481E-12	665.201E-3	23.6349E-3
-4.57979E-3	-184.798E-12	637.442E-3	-2.02007E-3	-185.147E-12	669.360E-3	-21.6994E-3
-4.58479E-3	-184.951E-12	648.930E-3	-6.47350E-3	-185.243E-12	668.501E-3	-34.5475E-3
-4.58979E-3	-184.736E-12	645.900E-3	-1.04274E-3	-184.348E-12	651.485E-3	-15.1990E-3
-4.59480E-3	-184.181E-12	651.014E-3	-19.0516E-3	-184.972E-12	627.960E-3	-22.9765E-3
-4.59980E-3	-184.118E-12	664.235E-3	-9.19920E-3	-184.510E-12	615.212E-3	-15.7316E-3
-4.60480E-3	-184.262E-12	665.194E-3	21.7948E-3	-184.970E-12	642.823E-3	-9.13817E-3
-4.60980E-3	-185.349E-12	667.291E-3	9.41634E-3	-185.212E-12	651.980E-3	-40.9691E-3
-4.61481E-3	-185.122E-12	680.331E-3	-9.95743E-3	-185.678E-12	630.020E-3	-42.5262E-3
-4.61981E-3	-185.728E-12	675.006E-3	-1.36326E-3	-186.678E-12	642.498E-3	-12.4943E-3
-4.62481E-3	-186.430E-12	654.575E-3	-12.9252E-3	-187.344E-12	665.806E-3	-5.29613E-3
-4.62981E-3	-187.568E-12	655.260E-3	-20.6261E-3	-188.857E-12	663.602E-3	-411.360E-6
-4.63482E-3	-188.170E-12	661.005E-3	-9.50733E-3	-188.869E-12	653.254E-3	7.73896E-3
-4.63982E-3	-189.384E-12	660.892E-3	-20.3354E-3	-190.024E-12	660.032E-3	-14.7015E-3
-4.64482E-3	-189.490E-12	671.727E-3	-24.9605E-3	-190.340E-12	672.128E-3	-52.1391E-3
-4.64982E-3	-190.003E-12	676.138E-3	-16.4175E-3	-191.161E-12	675.493E-3	-53.6365E-3
-4.65483E-3	-190.149E-12	662.508E-3	-9.58289E-3	-190.802E-12	669.664E-3	-26.1089E-3
-4.65983E-3	-189.821E-12	662.569E-3	4.00613E-3	-190.723E-12	647.435E-3	-8.68715E-3
-4.66483E-3	-189.834E-12	682.013E-3	18.9478E-3	-190.511E-12	642.269E-3	-215.647E-6
-4.66983E-3	-189.459E-12	698.014E-3	16.9839E-3	-189.750E-12	654.089E-3	-12.9233E-3
-4.67484E-3	-188.929E-12	713.404E-3	-5.61765E-3	-188.844E-12	648.852E-3	-23.6168E-3
-4.67984E-3	-188.565E-12	713.367E-3	-20.1431E-3	-188.509E-12	639.019E-3	-24.4860E-3
-4.68484E-3	-188.281E-12	671.496E-3	-18.1575E-3	-188.512E-12	650.313E-3	-64.3918E-3
-4.68984E-3	-187.617E-12	648.487E-3	-3.52180E-3	-187.999E-12	663.175E-3	-84.7859E-3
-4.69485E-3	-187.334E-12	675.110E-3	-2.02920E-3	-187.645E-12	662.158E-3	-49.1161E-3
-4.69985E-3	-188.423E-12	684.211E-3	-15.7574E-3	-187.833E-12	650.047E-3	-8.92017E-3
-4.70485E-3	-188.881E-12	661.199E-3	-16.3364E-3	-188.567E-12	625.771E-3	-2.52116E-3
-4.70985E-3	-189.739E-12	644.342E-3	-9.64191E-3	-189.186E-12	623.671E-3	-36.0696E-3
-4.71486E-3	-189.928E-12	651.093E-3	-8.83654E-3	-189.966E-12	658.707E-3	-56.9801E-3
-4.71986E-3	-191.573E-12	663.633E-3	-9.92254E-3	-191.458E-12	691.970E-3	-45.3141E-3
-4.72486E-3	-192.064E-12	659.334E-3	-17.1830E-3	-192.669E-12	676.071E-3	-30.8807E-3
-4.72986E-3	-193.462E-12	620.726E-3	-31.6881E-3	-192.765E-12	649.574E-3	-25.3741E-3
-4.73487E-3	-193.846E-12	608.512E-3	-26.3888E-3	-193.680E-12	648.518E-3	-21.0775E-3
-4.73987E-3	-195.113E-12	663.933E-3	6.24482E-3	-194.527E-12	650.724E-3	-10.0285E-3
-4.74487E-3	-194.354E-12	694.265E-3	25.2711E-3	-194.284E-12	669.028E-3	-695.007E-6
-4.74988E-3	-194.664E-12	658.396E-3	6.32876E-3	-194.405E-12	677.381E-3	-2.66784E-3
-4.75488E-3	-194.977E-12	620.298E-3	-9.35011E-3	-194.028E-12	673.040E-3	-2.09765E-3
-4.75988E-3	-194.302E-12	629.397E-3	1.16391E-3	-194.244E-12	676.911E-3	5.58653E-3
-4.76488E-3	-193.508E-12	658.956E-3	2.97599E-3	-193.738E-12	669.203E-3	-14.9873E-3
-4.76988E-3	-193.231E-12	675.033E-3	-21.3123E-3	-193.191E-12	670.977E-3	-36.3842E-3
-4.77489E-3	-193.144E-12	678.722E-3	-38.0173E-3	-192.255E-12	674.403E-3	-7.13229E-3
-4.77989E-3	-192.259E-12	662.442E-3	-41.5920E-3	-192.300E-12	661.889E-3	25.4982E-3
-4.78489E-3	-192.679E-12	638.836E-3	-54.1443E-3	-192.200E-12	647.451E-3	16.1329E-3
-4.78989E-3	-192.987E-12	604.100E-3	-56.7027E-3	-192.083E-12	643.789E-3	-422.058E-6
-4.79490E-3	-194.253E-12	602.288E-3	-50.9944E-3	-192.692E-12	665.702E-3	963.370E-6
-4.79990E-3	-193.774E-12	665.060E-3	-37.1420E-3	-193.113E-12	692.930E-3	-6.11856E-3
-4.80490E-3	-195.084E-12	687.972E-3	-10.4347E-3	-194.130E-12	693.298E-3	-19.6203E-3
-4.80990E-3	-195.781E-12	650.048E-3	3.52920E-3	-195.440E-12	679.485E-3	-30.6172E-3
-4.81491E-3	-196.517E-12	653.408E-3	-7.86699E-3	-196.026E-12	665.938E-3	-29.5334E-3
-4.81991E-3	-197.237E-12	680.378E-3	-28.3594E-3	-196.660E-12	654.784E-3	-8.68896E-3
-4.82491E-3	-197.966E-12	679.148E-3	-32.3969E-3	-197.528E-12	665.553E-3	8.35413E-3
-4.82991E-3	-197.766E-12	688.757E-3	-28.6515E-3	-198.077E-12	685.945E-3	4.07116E-3
-4.83492E-3	-197.718E-12	685.384E-3	-13.1329E-3	-198.270E-12	676.461E-3	-14.0622E-3
-4.83992E-3	-197.978E-12	654.456E-3	17.1651E-3	-197.697E-12	659.580E-3	-33.7654E-3
-4.84492E-3	-197.802E-12	656.954E-3	9.34984E-3	-197.331E-12	663.301E-3	-34.0890E-3
-4.84992E-3	-197.816E-12	680.398E-3	-23.1628E-3	-197.231E-12	667.469E-3	-17.1055E-3
-4.85493E-3	-197.067E-12	668.367E-3	-33.9424E-3	-197.278E-12	655.157E-3	-28.3593E-3
-4.85993E-3	-197.483E-12	639.547E-3	-43.5330E-3	-196.546E-12	633.370E-3	-59.5805E-3
-4.86493E-3	-196.875E-12	649.452E-3	-47.6619E-3	-196.280E-12	638.304E-3	-52.2703E-3
-4.86993E-3	-196.408E-12	669.719E-3	-29.1438E-3	-196.850E-12	664.619E-3	-16.6716E-3
-4.87494E-3	-196.474E-12	652.593E-3	-25.2546E-3	-196.611E-12	662.929E-3	9.58694E-3
-4.87994E-3	-196.633E-12	631.951E-3	-37.4394E-3	-196.393E-12	649.750E-3	7.44412E-3
-4.88494E-3	-197.087E-12	629.034E-3	-28.0121E-3	-196.690E-12	650.795E-3	-21.5540E-3
-4.88995E-3	-197.257E-12	624.141E-3	-29.2865E-3	-197.500E-12	649.999E-3	-40.5004E-3
-4.89495E-3	-198.531E-12	644.670E-3	-39.0129E-3	-197.905E-12	640.465E-3	-23.5653E-3
-4.89995E-3	-199.065E-12	662.044E-3	-23.7640E-3	-198.828E-12	643.654E-3	1.49433E-3
-4.90495E-3	-200.503E-12	645.371E-3	-16.9856E-3	-199.807E-12	653.383E-3	-9.08028E-3
-4.90995E-3	-200.783E-12	655.237E-3	-25.6599E-3	-199.807E-12	657.129E-3	-14.3038E-3
-4.91496E-3	-201.443E-12	674.055E-3	-19.8957E-3	-200.882E-12	668.934E-3	-1.99167E-3
-4.91996E-3	-202.259E-12	675.732E-3	-14.8824E-3	-200.357E-12	654.023E-3	-4.46622E-3
-4.92496E-3	-201.870E-12	686.690E-3	-29.4919E-3	-200.951E-12	623.103E-3	-10.5628E-3
-4.92996E-3	-201.920E-12	692.725E-3	-37.2929E-3	-200.004E-12	636.498E-3	-17.2457E-3
-4.93497E-3	-201.773E-12	673.835E-3	-39.4493E-3	-200.576E-12	667.400E-3	-17.7189E-3
-4.93997E-3	-202.033E-12	655.375E-3	-29.9682E-3	-200.062E-12	670.099E-3	-15.3357E-3
-4.94497E-3	-201.016E-12	639.668E-3	4.89002E-3	-200.317E-12	666.469E-3	-20.1659E-3
-4.94997E-3	-201.313E-12	633.117E-3	12.1498E-3	-199.922E-12	676.614E-3	-23.5751E-3
-4.95498E-3	-201.232E-12	637.771E-3	-10.5435E-3	-199.906E-12	679.218E-3	-19.9065E-3
-4.95998E-3	-201.183E-12	632.026E-3	-10.7025E-3	-200.252E-12	674.466E-3	-2.45181E-3
-4.96498E-3	-200.901E-12	635.410E-3	-17.9669E-3	-200.827E-12	675.479E-3	7.82236E-3
-4.96998E-3	-201.270E-12	658.574E-3	-33.7062E-3	-202.201E-12	677.125E-3	-4.38477E-3
-4.97499E-3	-202.158E-12	682.763E-3	-13.1204E-3	-202.786E-12	678.017E-3	-2.69233E-3
-4.97999E-3	-203.250E-12	663.505E-3	6.90478E-3	-204.145E-12	689.555E-3	3.77950E-3
-4.98499E-3	-203.634E-12	635.985E-3	5.52543E-3	-204.381E-12	683.839E-3	-23.8747E-3
-4.98999E-3	-204.281E-12	656.558E-3	-7.78044E-3	-205.331E-12	662.139E-3	-39.3175E-3
-4.99500E-3	-204.924E-12	682.549E-3	-41.7576E-3	-205.890E-12	682.197E-3	-42.9623E-3
-5.00000E-3	-205.259E-12	702.846E-3	-75.1915E-3	-205.941E-12	712.219E-3	-69.8172E-3
