Experiment	bias spectroscopy	
Date	19.01.2016 20:51:28	
User		
X (m)	49.4905E-9	
Y (m)	256.744E-9	
Z (m)	-132.601E-9	
Z offset (m)	0E+0	
Settling time (s)	200E-6	
Integration time (s)	5E-3	
Z-Ctrl hold	TRUE	
Final Z (m)	N/A	
Filter type	None	
Order		
Cutoff frq		
Comment01	MnPc/Pb(111)	
Comment02	dz =00pm	
Comment03	7 Sweeps	
Comment04	MagField =0.T	
Comment05	Divider 1:10	
Comment06	Setpoint:5mV,200 pA	
Comment07	Lockin: 50uVrms,5ms,5mV	
Comment08	Gain:9; 912Hz modulation	
Comment09	T=1.06K	
Bias>Bias (V)	5E-3	
Bias>Calibration (V/V)	81.475E-3	
Bias>Offset (V)	1.046E-3	
Bias Spectroscopy>Sweep Start (V)	5E-3	
Bias Spectroscopy>Sweep End (V)	-5E-3	
Bias Spectroscopy>Num Pixel	2000	
Bias Spectroscopy>Z Avg time (s)	500E-3	
Bias Spectroscopy>Z offset (m)	0E+0	
Bias Spectroscopy>1st Settling time (s)	500E-3	
Bias Spectroscopy>Settling time (s)	200E-6	
Bias Spectroscopy>Integration time (s)	5E-3	
Bias Spectroscopy>End Settling time (s)	500E-3	
Bias Spectroscopy>Z control time (s)	500E-3	
Bias Spectroscopy>Max Slew rate (V/s)	Inf	
Bias Spectroscopy>backward sweep	TRUE	
Bias Spectroscopy>Z-controller hold	TRUE	
Bias Spectroscopy>Number of sweeps	7	
Bias Spectroscopy>Channels	Current (A);X% LockIn (V);Y% LockIn (V)	
Bias Spectroscopy>Reset Bias	TRUE	
Bias Spectroscopy>Record final Z	FALSE	
Bias Spectroscopy>Lock-In run	FALSE	
Bias Spectroscopy>Sweep mode	Linear	
Bias Spectroscopy>MultiLine Settings : Segment Start (V), Segment End (V), Settling (s), Integration (s), Steps (xn)	100E-3,3.3E-3,100E-6,10E-3,2500;3.3E-3,-3.3E-3,100E-6,10E-3,10;-3.3E-3,-100E-3,100E-6,10E-3,2500	
Current>Current (A)	200.055E-12	
Current>Calibration (A/V)	999.99900E-12	
Current>Offset (A)	-455.429E-15	
Current>Gain	LN 10^9	
Z-Controller>Z (m)	-132.599E-9	
Z-Controller>Controller name	log Current	
Z-Controller>Controller status	ON	
Z-Controller>Setpoint	200E-12	
Z-Controller>Setpoint unit	A	
Z-Controller>P gain	2.96994E-12	
Z-Controller>I gain	67.0321E-9	
Z-Controller>Time const (s)	44.3062E-6	
Z-Controller>TipLift (m)	0E+0	
Z-Controller>Switch off delay (s)	50E-3	
Current (A)	199.986E-12	
Z (m)	-132.599E-9	

[DATA]
Bias calc (V)	Current (A)	X% LockIn (V)	Y% LockIn (V)	Current [bwd] (A)	X% LockIn [bwd] (V)	Y% LockIn [bwd] (V)
5.00000E-3	202.535E-12	622.780E-3	-8.35700E-3	204.852E-12	598.132E-3	-29.0344E-3
4.99500E-3	202.647E-12	648.278E-3	-15.4373E-3	203.102E-12	618.897E-3	-27.7131E-3
4.98999E-3	200.382E-12	647.704E-3	-22.3239E-3	202.658E-12	629.637E-3	-27.4716E-3
4.98499E-3	200.036E-12	621.176E-3	-9.85183E-3	200.514E-12	600.539E-3	-9.11462E-3
4.97999E-3	200.255E-12	607.132E-3	12.2227E-3	199.050E-12	565.137E-3	23.3585E-3
4.97499E-3	201.454E-12	616.708E-3	16.2454E-3	197.981E-12	603.924E-3	26.0853E-3
4.96998E-3	200.838E-12	639.092E-3	-10.0842E-3	198.229E-12	665.179E-3	-6.90562E-3
4.96498E-3	200.135E-12	634.620E-3	-44.0430E-3	196.606E-12	649.718E-3	-30.3602E-3
4.95998E-3	200.322E-12	637.467E-3	-61.0319E-3	195.198E-12	607.562E-3	-33.5392E-3
4.95498E-3	201.315E-12	669.866E-3	-54.3191E-3	196.048E-12	604.465E-3	-14.7297E-3
4.94997E-3	202.366E-12	666.916E-3	-63.0243E-3	196.466E-12	605.659E-3	8.01478E-3
4.94497E-3	201.097E-12	630.771E-3	-74.5791E-3	196.817E-12	610.143E-3	19.8659E-3
4.93997E-3	200.459E-12	627.024E-3	-36.4753E-3	196.381E-12	644.889E-3	15.7189E-3
4.93497E-3	201.030E-12	641.560E-3	10.9828E-3	197.921E-12	659.712E-3	1.84877E-3
4.92996E-3	203.967E-12	645.978E-3	4.10161E-3	198.135E-12	633.094E-3	-1.08458E-3
4.92496E-3	199.452E-12	649.627E-3	-11.9320E-3	199.684E-12	619.317E-3	-14.5586E-3
4.91996E-3	197.952E-12	643.200E-3	-9.84420E-3	199.175E-12	633.836E-3	-25.4183E-3
4.91496E-3	198.366E-12	627.802E-3	-37.0263E-3	199.296E-12	650.365E-3	-15.8465E-3
4.90995E-3	200.405E-12	615.208E-3	-58.8380E-3	198.915E-12	630.129E-3	-5.21821E-3
4.90495E-3	197.495E-12	607.854E-3	-42.9091E-3	199.405E-12	605.146E-3	11.1564E-3
4.89995E-3	194.240E-12	604.254E-3	-43.3013E-3	199.298E-12	621.159E-3	7.85693E-3
4.89495E-3	195.703E-12	603.181E-3	-60.8189E-3	197.150E-12	653.017E-3	-18.5239E-3
4.88995E-3	196.575E-12	591.715E-3	-29.3539E-3	196.716E-12	653.625E-3	-33.7803E-3
4.88494E-3	196.885E-12	574.657E-3	14.0805E-3	196.760E-12	613.743E-3	-27.3299E-3
4.87994E-3	193.180E-12	589.984E-3	-5.19432E-3	198.131E-12	602.218E-3	9.61945E-3
4.87494E-3	193.850E-12	631.260E-3	-28.5376E-3	196.031E-12	626.245E-3	35.1650E-3
4.86993E-3	195.276E-12	644.579E-3	-20.3844E-3	196.011E-12	627.661E-3	-2.00005E-3
4.86493E-3	196.573E-12	639.877E-3	-19.7744E-3	195.407E-12	627.941E-3	-37.9300E-3
4.85993E-3	195.651E-12	637.306E-3	-17.9511E-3	195.602E-12	645.086E-3	-11.8655E-3
4.85493E-3	194.639E-12	626.213E-3	-14.8284E-3	194.837E-12	652.232E-3	27.8434E-3
4.84992E-3	195.646E-12	618.590E-3	-30.7345E-3	194.881E-12	665.369E-3	11.7692E-3
4.84492E-3	196.199E-12	632.037E-3	-45.4229E-3	194.773E-12	668.174E-3	-29.4032E-3
4.83992E-3	197.309E-12	643.571E-3	-43.2991E-3	194.770E-12	649.099E-3	-39.1147E-3
4.83492E-3	194.805E-12	622.670E-3	-32.9571E-3	194.593E-12	633.131E-3	-36.7270E-3
4.82991E-3	195.792E-12	606.291E-3	-28.8840E-3	193.839E-12	610.468E-3	-29.9662E-3
4.82491E-3	197.016E-12	616.012E-3	-27.2969E-3	192.118E-12	618.919E-3	-10.4745E-3
4.81991E-3	197.701E-12	639.627E-3	-16.6662E-3	191.851E-12	636.211E-3	4.72993E-3
4.81491E-3	195.363E-12	667.015E-3	-11.7346E-3	192.285E-12	620.891E-3	3.78360E-3
4.80990E-3	193.153E-12	658.480E-3	-15.3714E-3	192.578E-12	617.055E-3	435.748E-6
4.80490E-3	192.927E-12	636.080E-3	-36.3008E-3	191.030E-12	611.527E-3	-816.982E-6
4.79990E-3	192.638E-12	652.275E-3	-56.1535E-3	190.545E-12	594.450E-3	-2.23029E-3
4.79490E-3	191.810E-12	656.652E-3	-44.2558E-3	190.746E-12	591.983E-3	-14.0665E-3
4.78989E-3	191.018E-12	633.012E-3	-20.8034E-3	192.614E-12	603.288E-3	-25.0834E-3
4.78489E-3	191.103E-12	628.964E-3	94.3252E-6	193.204E-12	638.352E-3	-21.3438E-3
4.77989E-3	189.473E-12	633.169E-3	11.9372E-3	193.279E-12	661.351E-3	-23.8213E-3
4.77489E-3	190.359E-12	637.273E-3	10.0297E-3	193.748E-12	648.856E-3	-11.1241E-3
4.76988E-3	189.970E-12	638.069E-3	7.10345E-3	194.570E-12	638.713E-3	17.0360E-3
4.76488E-3	190.179E-12	622.696E-3	-3.78955E-3	195.153E-12	645.942E-3	28.8324E-3
4.75988E-3	189.081E-12	597.394E-3	-28.0102E-3	195.989E-12	641.136E-3	36.5262E-3
4.75488E-3	189.072E-12	580.796E-3	-49.9703E-3	196.504E-12	592.898E-3	37.7776E-3
4.74988E-3	189.322E-12	578.215E-3	-63.6344E-3	195.001E-12	542.523E-3	21.2793E-3
4.74487E-3	191.043E-12	585.710E-3	-53.0807E-3	193.439E-12	556.125E-3	9.00674E-3
4.73987E-3	191.155E-12	617.429E-3	-27.5290E-3	192.118E-12	608.809E-3	-7.98563E-3
4.73487E-3	190.955E-12	645.327E-3	-19.2794E-3	192.990E-12	645.332E-3	-28.7033E-3
4.72986E-3	191.272E-12	628.213E-3	-26.3522E-3	191.612E-12	648.719E-3	-23.5561E-3
4.72486E-3	191.505E-12	613.499E-3	-35.2769E-3	188.518E-12	623.122E-3	4.49098E-3
4.71986E-3	193.318E-12	625.178E-3	-26.5481E-3	186.282E-12	601.369E-3	12.6254E-3
4.71486E-3	192.397E-12	619.751E-3	-8.85679E-3	186.834E-12	602.542E-3	-10.8987E-3
4.70985E-3	191.711E-12	616.821E-3	-24.2633E-3	187.189E-12	604.867E-3	-19.6646E-3
4.70485E-3	191.036E-12	625.714E-3	-48.3287E-3	186.249E-12	611.820E-3	-9.11163E-3
4.69985E-3	190.830E-12	630.982E-3	-60.1477E-3	185.632E-12	620.501E-3	-175.851E-6
4.69485E-3	189.610E-12	651.064E-3	-59.5363E-3	186.870E-12	607.651E-3	-4.92896E-3
4.68984E-3	187.023E-12	672.044E-3	-16.2749E-3	190.179E-12	616.080E-3	-23.1162E-3
4.68484E-3	184.669E-12	659.761E-3	10.8145E-3	191.433E-12	648.904E-3	-37.1859E-3
4.67984E-3	184.717E-12	642.947E-3	-5.17829E-3	190.552E-12	666.238E-3	-37.3661E-3
4.67484E-3	185.153E-12	644.688E-3	-20.6439E-3	191.150E-12	669.885E-3	-25.1759E-3
4.66983E-3	184.190E-12	639.026E-3	-24.6053E-3	193.338E-12	647.169E-3	-15.3457E-3
4.66483E-3	182.666E-12	626.528E-3	-18.0833E-3	195.953E-12	612.858E-3	-19.0707E-3
4.65983E-3	183.856E-12	593.884E-3	-8.99601E-3	193.084E-12	603.891E-3	-23.4483E-3
4.65483E-3	185.111E-12	572.121E-3	5.74925E-3	189.655E-12	618.682E-3	-16.6258E-3
4.64982E-3	186.274E-12	600.350E-3	19.9797E-3	188.658E-12	649.263E-3	-18.6912E-3
4.64482E-3	185.947E-12	638.063E-3	3.18250E-3	189.172E-12	657.365E-3	-27.7629E-3
4.63982E-3	186.433E-12	650.612E-3	-13.1982E-3	187.471E-12	630.934E-3	-19.5296E-3
4.63482E-3	188.304E-12	644.644E-3	-21.0722E-3	183.755E-12	608.710E-3	-18.2215E-3
4.62981E-3	190.534E-12	630.630E-3	-41.7167E-3	182.363E-12	597.225E-3	-33.2435E-3
4.62481E-3	189.900E-12	606.760E-3	-26.9857E-3	183.317E-12	605.252E-3	-25.1169E-3
4.61981E-3	188.522E-12	591.219E-3	1.39031E-3	184.273E-12	623.543E-3	-15.3729E-3
4.61481E-3	188.458E-12	585.922E-3	-12.8143E-3	181.671E-12	629.178E-3	-21.3218E-3
4.60980E-3	188.692E-12	580.000E-3	-34.2305E-3	180.979E-12	621.955E-3	-24.9738E-3
4.60480E-3	188.056E-12	587.470E-3	-36.6032E-3	183.677E-12	603.825E-3	-24.3677E-3
4.59980E-3	184.754E-12	620.290E-3	-35.6523E-3	186.365E-12	598.163E-3	-1.92904E-3
4.59480E-3	183.589E-12	640.255E-3	-30.7474E-3	187.034E-12	635.595E-3	11.0904E-3
4.58979E-3	181.866E-12	622.525E-3	-32.1816E-3	186.127E-12	684.516E-3	-13.2197E-3
4.58479E-3	181.071E-12	604.918E-3	-48.3393E-3	188.086E-12	691.110E-3	-35.9678E-3
4.57979E-3	179.394E-12	609.572E-3	-51.4084E-3	188.879E-12	685.768E-3	-46.5565E-3
4.57479E-3	179.360E-12	610.342E-3	-24.1300E-3	189.047E-12	679.155E-3	-43.9541E-3
4.56978E-3	179.826E-12	602.797E-3	841.187E-6	187.594E-12	652.319E-3	-21.2671E-3
4.56478E-3	180.487E-12	613.587E-3	-9.82525E-3	186.397E-12	628.085E-3	2.15492E-3
4.55978E-3	181.680E-12	633.179E-3	-32.0540E-3	187.365E-12	619.032E-3	8.94037E-3
4.55478E-3	181.498E-12	639.499E-3	-42.0114E-3	186.145E-12	618.612E-3	6.24299E-3
4.54977E-3	182.875E-12	631.216E-3	-27.0033E-3	184.917E-12	604.732E-3	-3.80724E-3
4.54477E-3	182.428E-12	622.613E-3	-12.8187E-3	181.161E-12	596.982E-3	-20.2253E-3
4.53977E-3	183.277E-12	625.874E-3	-14.0822E-3	179.950E-12	613.300E-3	-22.9765E-3
4.53477E-3	184.629E-12	626.247E-3	-3.46242E-3	179.556E-12	626.244E-3	-2.48048E-3
4.52976E-3	185.564E-12	601.849E-3	9.44230E-3	180.235E-12	643.274E-3	8.45394E-3
4.52476E-3	185.476E-12	599.306E-3	14.6378E-3	177.703E-12	665.330E-3	-5.42830E-3
4.51976E-3	183.535E-12	634.199E-3	17.2799E-3	177.712E-12	657.218E-3	-11.9094E-3
4.51476E-3	184.479E-12	642.765E-3	21.8159E-3	178.805E-12	632.915E-3	-13.0962E-3
4.50975E-3	184.765E-12	623.914E-3	28.9220E-3	180.585E-12	624.436E-3	-26.8980E-3
4.50475E-3	183.138E-12	621.405E-3	12.3860E-3	181.359E-12	612.442E-3	-44.2656E-3
4.49975E-3	180.246E-12	626.350E-3	-17.8234E-3	180.645E-12	596.412E-3	-38.6799E-3
4.49475E-3	179.103E-12	604.183E-3	-28.1738E-3	181.344E-12	591.966E-3	-26.5030E-3
4.48974E-3	179.830E-12	596.298E-3	-24.1910E-3	181.623E-12	607.596E-3	-30.7810E-3
4.48474E-3	178.756E-12	644.889E-3	-13.0731E-3	181.778E-12	645.666E-3	-36.1518E-3
4.47974E-3	177.403E-12	679.562E-3	-13.9626E-3	180.600E-12	667.667E-3	-32.2309E-3
4.47474E-3	175.254E-12	659.528E-3	-27.8916E-3	180.912E-12	652.676E-3	-10.6343E-3
4.46973E-3	174.818E-12	625.902E-3	-28.1242E-3	180.257E-12	620.276E-3	4.55048E-3
4.46473E-3	175.485E-12	605.427E-3	-20.2335E-3	180.028E-12	592.362E-3	-8.23500E-3
4.45973E-3	174.958E-12	622.450E-3	-23.6266E-3	179.246E-12	595.496E-3	-10.5942E-3
4.45473E-3	175.653E-12	645.290E-3	-22.9427E-3	178.010E-12	612.034E-3	-3.42280E-3
4.44972E-3	175.581E-12	642.230E-3	-13.3025E-3	177.675E-12	612.610E-3	-19.3434E-3
4.44472E-3	175.562E-12	639.194E-3	-26.8670E-3	176.163E-12	612.859E-3	-35.0386E-3
4.43972E-3	176.074E-12	639.290E-3	-30.7698E-3	176.060E-12	623.622E-3	-24.1595E-3
4.43472E-3	176.362E-12	638.503E-3	-3.80734E-3	175.114E-12	651.141E-3	11.8480E-3
4.42971E-3	176.661E-12	625.685E-3	5.95827E-3	175.072E-12	676.141E-3	30.9094E-3
4.42471E-3	177.079E-12	605.764E-3	-16.4468E-3	177.297E-12	655.776E-3	9.90126E-3
4.41971E-3	178.651E-12	592.516E-3	-32.7922E-3	178.422E-12	620.266E-3	-5.56050E-3
4.41471E-3	177.855E-12	585.678E-3	-20.9283E-3	178.232E-12	621.641E-3	-15.4462E-3
4.40970E-3	177.088E-12	596.539E-3	-13.5627E-3	177.423E-12	629.960E-3	-38.6836E-3
4.40470E-3	177.270E-12	624.616E-3	-19.4428E-3	177.466E-12	620.506E-3	-50.2380E-3
4.39970E-3	177.812E-12	652.043E-3	-11.1301E-3	177.839E-12	613.632E-3	-43.8360E-3
4.39470E-3	176.695E-12	659.352E-3	6.31169E-3	179.055E-12	613.465E-3	-21.9715E-3
4.38969E-3	175.224E-12	655.810E-3	-5.27108E-3	177.014E-12	622.582E-3	-11.0655E-3
4.38469E-3	175.471E-12	661.841E-3	-37.9964E-3	175.976E-12	631.503E-3	-23.6306E-3
4.37969E-3	174.503E-12	679.412E-3	-42.6955E-3	175.028E-12	627.924E-3	-28.2131E-3
4.37469E-3	173.504E-12	674.078E-3	-28.7134E-3	175.578E-12	636.235E-3	-29.2918E-3
4.36968E-3	171.733E-12	633.240E-3	-45.8125E-3	175.652E-12	642.350E-3	-21.2503E-3
4.36468E-3	172.699E-12	622.350E-3	-66.1793E-3	175.371E-12	624.942E-3	-9.53149E-3
4.35968E-3	172.028E-12	650.505E-3	-61.2696E-3	175.030E-12	613.633E-3	-22.2794E-3
4.35468E-3	170.309E-12	659.218E-3	-64.6090E-3	175.454E-12	627.632E-3	-34.4476E-3
4.34967E-3	169.619E-12	642.582E-3	-62.2247E-3	175.850E-12	645.819E-3	-39.2441E-3
4.34467E-3	170.659E-12	619.210E-3	-51.1246E-3	175.030E-12	634.959E-3	-38.8372E-3
4.33967E-3	171.097E-12	612.840E-3	-49.0910E-3	176.074E-12	622.983E-3	-13.8949E-3
4.33467E-3	169.651E-12	614.710E-3	-26.0982E-3	177.367E-12	640.064E-3	783.273E-6
4.32966E-3	169.921E-12	625.738E-3	-7.46221E-3	177.136E-12	657.990E-3	-24.0137E-3
4.32466E-3	171.715E-12	644.493E-3	-29.8494E-3	176.154E-12	659.036E-3	-37.9812E-3
4.31966E-3	172.511E-12	633.413E-3	-57.7663E-3	174.218E-12	637.826E-3	-22.6479E-3
4.31466E-3	171.905E-12	614.438E-3	-66.2441E-3	174.189E-12	614.409E-3	2.25653E-3
4.30965E-3	172.353E-12	617.669E-3	-54.9047E-3	172.358E-12	608.169E-3	385.158E-6
4.30465E-3	174.216E-12	622.648E-3	-39.5802E-3	171.092E-12	605.021E-3	-22.6601E-3
4.29965E-3	174.097E-12	623.035E-3	-37.7247E-3	169.848E-12	612.054E-3	-25.4967E-3
4.29465E-3	173.566E-12	628.189E-3	-42.2005E-3	170.283E-12	628.424E-3	-39.2699E-3
4.28964E-3	173.021E-12	628.989E-3	-30.3930E-3	169.378E-12	632.052E-3	-53.7315E-3
4.28464E-3	173.615E-12	616.727E-3	2.08684E-3	167.376E-12	638.168E-3	-32.9825E-3
4.27964E-3	173.467E-12	600.641E-3	8.71737E-3	167.558E-12	647.197E-3	-8.59964E-3
4.27464E-3	172.466E-12	616.282E-3	-4.20171E-3	167.701E-12	644.107E-3	6.38349E-3
4.26963E-3	170.617E-12	653.028E-3	6.27836E-3	169.272E-12	653.308E-3	11.8230E-3
4.26463E-3	168.713E-12	663.462E-3	14.8131E-3	168.700E-12	667.419E-3	-9.39093E-3
4.25963E-3	168.452E-12	650.894E-3	-2.83074E-3	170.318E-12	663.707E-3	-37.8995E-3
4.25463E-3	167.875E-12	633.563E-3	-14.0698E-3	171.899E-12	649.912E-3	-39.4586E-3
4.24962E-3	166.563E-12	626.798E-3	4.52843E-3	171.634E-12	632.320E-3	-25.5574E-3
4.24462E-3	166.584E-12	635.634E-3	9.98602E-3	171.651E-12	617.542E-3	-14.9026E-3
4.23962E-3	166.314E-12	631.598E-3	-8.56528E-3	171.535E-12	609.871E-3	2.70323E-3
4.23462E-3	166.368E-12	607.376E-3	-25.9362E-3	171.467E-12	624.404E-3	18.3839E-3
4.22961E-3	165.690E-12	590.804E-3	-31.0911E-3	171.538E-12	638.596E-3	9.99323E-3
4.22461E-3	168.338E-12	589.071E-3	-18.3523E-3	169.897E-12	620.368E-3	-9.02895E-3
4.21961E-3	168.726E-12	613.524E-3	-21.2022E-3	168.328E-12	610.552E-3	-28.1768E-3
4.21461E-3	169.842E-12	648.221E-3	-29.3480E-3	166.557E-12	612.113E-3	-44.3536E-3
4.20960E-3	169.693E-12	644.754E-3	-11.2205E-3	166.478E-12	597.123E-3	-23.0521E-3
4.20460E-3	171.387E-12	638.516E-3	-3.75534E-3	163.830E-12	586.997E-3	10.3818E-3
4.19960E-3	173.091E-12	657.804E-3	-17.4934E-3	162.754E-12	593.320E-3	7.43808E-3
4.19460E-3	171.621E-12	661.943E-3	-24.0709E-3	162.380E-12	614.122E-3	-7.86656E-3
4.18959E-3	171.517E-12	650.083E-3	-6.84816E-3	164.292E-12	637.110E-3	-20.0454E-3
4.18459E-3	169.959E-12	653.654E-3	987.532E-6	162.989E-12	627.843E-3	-30.2803E-3
4.17959E-3	169.647E-12	656.508E-3	-20.3822E-3	163.042E-12	616.789E-3	-23.6216E-3
4.17459E-3	168.516E-12	635.710E-3	-29.5676E-3	163.829E-12	630.949E-3	-4.85758E-3
4.16958E-3	165.947E-12	619.657E-3	-27.6936E-3	167.184E-12	629.094E-3	-4.32840E-3
4.16458E-3	163.530E-12	630.066E-3	-22.3199E-3	168.564E-12	619.122E-3	-29.0673E-3
4.15958E-3	162.508E-12	647.531E-3	-16.0583E-3	167.809E-12	625.282E-3	-55.2625E-3
4.15458E-3	163.035E-12	647.281E-3	-9.09120E-3	167.956E-12	631.387E-3	-66.2604E-3
4.14957E-3	161.087E-12	626.311E-3	415.214E-6	169.423E-12	625.345E-3	-49.6607E-3
4.14457E-3	160.185E-12	612.063E-3	-1.70894E-3	169.953E-12	625.266E-3	-16.7382E-3
4.13957E-3	160.033E-12	631.124E-3	-6.12190E-3	167.201E-12	632.621E-3	-6.30478E-3
4.13457E-3	161.509E-12	650.899E-3	-11.8446E-3	166.748E-12	621.495E-3	-30.0002E-3
4.12956E-3	163.561E-12	648.509E-3	-25.3634E-3	165.307E-12	601.840E-3	-50.3795E-3
4.12456E-3	163.765E-12	646.322E-3	-47.8203E-3	164.467E-12	597.225E-3	-31.9229E-3
4.11956E-3	164.315E-12	647.794E-3	-72.0002E-3	162.454E-12	597.340E-3	-4.21088E-3
4.11456E-3	164.520E-12	642.115E-3	-60.6673E-3	160.033E-12	602.430E-3	18.5326E-3
4.10955E-3	167.777E-12	633.764E-3	-13.2385E-3	159.878E-12	615.540E-3	41.2845E-3
4.10455E-3	168.151E-12	617.410E-3	7.90832E-3	159.827E-12	625.411E-3	33.2262E-3
4.09955E-3	168.383E-12	603.324E-3	-594.674E-6	159.847E-12	638.222E-3	6.18808E-3
4.09455E-3	166.121E-12	603.082E-3	-2.14079E-3	159.174E-12	632.165E-3	-12.3443E-3
4.08954E-3	167.273E-12	609.018E-3	-1.92671E-3	160.645E-12	605.964E-3	-24.5130E-3
4.08454E-3	165.528E-12	637.641E-3	-158.787E-6	162.474E-12	606.909E-3	-27.9893E-3
4.07954E-3	164.419E-12	653.827E-3	-2.20283E-3	163.103E-12	627.404E-3	-15.1318E-3
4.07454E-3	162.368E-12	643.869E-3	-20.9548E-3	163.564E-12	630.074E-3	9.32577E-3
4.06953E-3	162.558E-12	630.232E-3	-44.9508E-3	164.117E-12	631.325E-3	6.34161E-3
4.06453E-3	162.678E-12	611.378E-3	-45.4449E-3	165.881E-12	631.696E-3	-20.7245E-3
4.05953E-3	161.022E-12	619.533E-3	-30.8268E-3	166.608E-12	625.337E-3	-26.9189E-3
4.05453E-3	160.385E-12	656.878E-3	-11.1579E-3	165.317E-12	635.768E-3	-23.6691E-3
4.04952E-3	158.481E-12	681.230E-3	14.2072E-3	164.138E-12	630.418E-3	-20.2115E-3
4.04452E-3	159.528E-12	679.278E-3	18.1765E-3	164.371E-12	614.383E-3	1.74495E-3
4.03952E-3	158.981E-12	657.864E-3	3.09801E-3	164.307E-12	621.062E-3	16.4570E-3
4.03452E-3	159.309E-12	632.175E-3	-1.14498E-3	160.787E-12	611.078E-3	4.62152E-3
4.02951E-3	158.439E-12	620.490E-3	1.89749E-3	159.498E-12	611.322E-3	-7.80268E-3
4.02451E-3	160.189E-12	634.018E-3	2.54914E-3	159.842E-12	639.712E-3	-10.5076E-3
4.01951E-3	160.785E-12	649.104E-3	14.1168E-3	160.379E-12	627.875E-3	-9.09947E-3
4.01451E-3	157.546E-12	638.594E-3	11.4225E-3	157.866E-12	587.055E-3	-7.35162E-3
4.00950E-3	158.561E-12	629.058E-3	-6.62080E-3	156.417E-12	583.504E-3	-13.4512E-3
4.00450E-3	159.011E-12	617.011E-3	-4.78379E-3	157.791E-12	620.327E-3	-34.5169E-3
3.99950E-3	160.376E-12	588.232E-3	-2.26673E-3	159.545E-12	645.046E-3	-58.2614E-3
3.99450E-3	159.023E-12	586.600E-3	-7.38470E-3	159.148E-12	641.362E-3	-65.3189E-3
3.98949E-3	159.510E-12	620.861E-3	-6.58541E-3	158.356E-12	629.167E-3	-34.9113E-3
3.98449E-3	159.607E-12	645.566E-3	-12.9914E-3	158.116E-12	626.221E-3	3.92942E-3
3.97949E-3	160.781E-12	660.735E-3	-11.8699E-3	160.261E-12	638.719E-3	-5.20521E-3
3.97449E-3	160.766E-12	670.507E-3	149.029E-6	160.215E-12	651.741E-3	-25.0664E-3
3.96948E-3	159.568E-12	662.441E-3	-9.80685E-3	160.114E-12	655.007E-3	-28.1957E-3
3.96448E-3	158.870E-12	660.134E-3	-36.7728E-3	158.387E-12	640.802E-3	-39.4638E-3
3.95948E-3	160.138E-12	668.858E-3	-42.4251E-3	159.954E-12	622.872E-3	-36.6532E-3
3.95448E-3	160.287E-12	669.204E-3	-29.1968E-3	159.924E-12	635.985E-3	-18.4404E-3
3.94947E-3	157.920E-12	665.900E-3	-19.8756E-3	158.980E-12	660.588E-3	-7.25814E-3
3.94447E-3	156.656E-12	652.931E-3	-14.8990E-3	157.312E-12	655.798E-3	-11.7567E-3
3.93947E-3	156.226E-12	644.193E-3	-5.49029E-3	157.702E-12	633.573E-3	-33.3407E-3
3.93447E-3	156.651E-12	652.456E-3	4.52797E-3	158.257E-12	615.809E-3	-58.1211E-3
3.92946E-3	154.956E-12	645.311E-3	-8.16313E-3	157.508E-12	616.071E-3	-66.1969E-3
3.92446E-3	152.682E-12	640.353E-3	-18.5206E-3	156.330E-12	632.504E-3	-33.1002E-3
3.91946E-3	153.079E-12	634.537E-3	-4.32744E-3	156.297E-12	646.045E-3	5.75867E-3
3.91446E-3	153.364E-12	613.227E-3	-3.22079E-3	158.117E-12	641.257E-3	4.82132E-3
3.90945E-3	152.381E-12	608.168E-3	-31.4609E-3	157.696E-12	627.870E-3	-7.97688E-3
3.90445E-3	151.846E-12	610.431E-3	-56.6326E-3	156.697E-12	627.263E-3	-17.9508E-3
3.89945E-3	152.419E-12	619.344E-3	-46.0969E-3	156.205E-12	633.532E-3	-27.1314E-3
3.89445E-3	152.698E-12	636.852E-3	-10.3060E-3	155.823E-12	631.247E-3	-12.7235E-3
3.88944E-3	154.270E-12	640.862E-3	-10.0595E-3	156.717E-12	624.286E-3	-5.26330E-3
3.88444E-3	154.750E-12	634.825E-3	-41.4488E-3	156.043E-12	623.900E-3	-26.8399E-3
3.87944E-3	155.118E-12	628.072E-3	-54.6925E-3	156.364E-12	624.437E-3	-34.5258E-3
3.87444E-3	155.567E-12	645.545E-3	-49.9354E-3	155.322E-12	632.764E-3	-14.3046E-3
3.86943E-3	157.250E-12	677.350E-3	-45.2060E-3	154.308E-12	652.256E-3	15.5375E-3
3.86443E-3	157.116E-12	670.419E-3	-42.4852E-3	154.139E-12	662.245E-3	15.4056E-3
3.85943E-3	155.045E-12	643.992E-3	-33.3223E-3	154.764E-12	643.173E-3	-15.9910E-3
3.85443E-3	154.770E-12	627.902E-3	-32.4769E-3	155.554E-12	619.634E-3	-28.0471E-3
3.84942E-3	154.590E-12	619.809E-3	-32.4866E-3	153.779E-12	615.380E-3	-17.6249E-3
3.84442E-3	154.518E-12	636.566E-3	-21.0524E-3	154.788E-12	611.808E-3	-13.1705E-3
3.83942E-3	152.518E-12	626.417E-3	-23.9234E-3	155.347E-12	611.880E-3	-24.9490E-3
3.83442E-3	151.489E-12	607.669E-3	-28.9417E-3	156.458E-12	629.919E-3	-26.7459E-3
3.82941E-3	150.898E-12	629.584E-3	-18.7472E-3	156.056E-12	662.208E-3	-10.1033E-3
3.82441E-3	149.480E-12	643.830E-3	-10.5319E-3	156.624E-12	692.864E-3	247.977E-6
3.81941E-3	147.774E-12	655.230E-3	-3.70991E-3	157.137E-12	694.711E-3	-5.21788E-3
3.81441E-3	148.131E-12	661.186E-3	-185.485E-6	156.423E-12	662.610E-3	-30.7763E-3
3.80940E-3	148.773E-12	651.744E-3	-7.16157E-3	153.999E-12	637.839E-3	-48.7015E-3
3.80440E-3	148.629E-12	655.376E-3	-26.0939E-3	153.168E-12	644.218E-3	-45.2372E-3
3.79940E-3	148.619E-12	655.566E-3	-33.2702E-3	152.362E-12	639.501E-3	-43.6929E-3
3.79440E-3	149.709E-12	631.515E-3	-16.0007E-3	151.512E-12	613.044E-3	-24.8688E-3
3.78939E-3	150.946E-12	608.946E-3	-7.14525E-3	150.702E-12	608.174E-3	-8.80323E-3
3.78439E-3	151.664E-12	623.272E-3	-14.7064E-3	149.095E-12	611.885E-3	-22.3108E-3
3.77939E-3	152.308E-12	653.544E-3	-37.2353E-3	148.779E-12	606.520E-3	-34.6993E-3
3.77439E-3	152.084E-12	654.579E-3	-55.1853E-3	148.513E-12	621.928E-3	-28.9104E-3
3.76938E-3	152.243E-12	638.291E-3	-49.4934E-3	147.393E-12	635.580E-3	-12.5803E-3
3.76438E-3	151.927E-12	633.983E-3	-22.3691E-3	147.371E-12	635.647E-3	-3.58628E-3
3.75938E-3	151.441E-12	631.582E-3	1.30103E-3	147.299E-12	649.360E-3	-11.9589E-3
3.75438E-3	149.629E-12	631.499E-3	-15.3919E-3	149.232E-12	659.030E-3	-23.3746E-3
3.74937E-3	148.094E-12	637.549E-3	-29.1415E-3	149.553E-12	659.824E-3	-27.2789E-3
3.74437E-3	147.164E-12	634.280E-3	-25.0537E-3	150.008E-12	644.465E-3	-35.8349E-3
3.73937E-3	146.867E-12	619.785E-3	-23.3457E-3	149.827E-12	627.829E-3	-32.3361E-3
3.73437E-3	145.172E-12	620.704E-3	-4.34692E-3	151.232E-12	634.398E-3	-20.3169E-3
3.72936E-3	144.232E-12	638.351E-3	16.4472E-3	151.829E-12	632.092E-3	-25.0097E-3
3.72436E-3	143.779E-12	641.138E-3	25.5207E-3	151.007E-12	633.221E-3	-26.2631E-3
3.71936E-3	144.601E-12	635.009E-3	18.8592E-3	150.713E-12	642.254E-3	-10.1405E-3
3.71436E-3	145.602E-12	633.428E-3	-7.70277E-3	150.069E-12	640.465E-3	3.20094E-3
3.70935E-3	145.196E-12	631.696E-3	-18.8117E-3	150.574E-12	634.700E-3	2.06135E-3
3.70435E-3	146.565E-12	631.241E-3	1.91460E-3	148.899E-12	628.729E-3	4.57890E-3
3.69935E-3	146.262E-12	643.746E-3	-3.59571E-3	146.540E-12	633.472E-3	4.94339E-3
3.69435E-3	147.691E-12	667.034E-3	-41.0166E-3	145.444E-12	630.818E-3	-12.6994E-3
3.68934E-3	148.562E-12	666.907E-3	-41.5648E-3	144.364E-12	616.666E-3	-28.3619E-3
3.68434E-3	149.162E-12	652.583E-3	-13.7019E-3	143.748E-12	610.509E-3	-29.9319E-3
3.67934E-3	148.004E-12	649.778E-3	-9.46606E-3	142.154E-12	609.624E-3	-28.5255E-3
3.67434E-3	148.691E-12	644.359E-3	-12.0977E-3	142.323E-12	622.762E-3	-32.1509E-3
3.66933E-3	148.891E-12	640.820E-3	-10.7322E-3	142.571E-12	637.941E-3	-37.3481E-3
3.66433E-3	148.030E-12	645.524E-3	-13.7960E-3	143.123E-12	637.836E-3	-44.9575E-3
3.65933E-3	146.939E-12	640.822E-3	-7.95647E-3	143.338E-12	647.676E-3	-34.4144E-3
3.65433E-3	145.115E-12	634.748E-3	-19.1990E-3	143.534E-12	670.663E-3	-11.8333E-3
3.64932E-3	145.009E-12	642.593E-3	-49.3520E-3	143.957E-12	673.241E-3	-11.6467E-3
3.64432E-3	144.105E-12	646.800E-3	-48.6469E-3	145.279E-12	667.544E-3	-21.8416E-3
3.63932E-3	144.150E-12	642.357E-3	-22.8007E-3	147.034E-12	661.591E-3	-26.5329E-3
3.63432E-3	142.374E-12	648.067E-3	-15.5421E-3	146.921E-12	653.320E-3	-36.8771E-3
3.62931E-3	141.710E-12	653.265E-3	-20.2043E-3	147.196E-12	669.435E-3	-41.8491E-3
3.62431E-3	141.776E-12	625.158E-3	-20.7100E-3	147.225E-12	681.884E-3	-27.2137E-3
3.61931E-3	142.716E-12	600.000E-3	-4.14275E-3	147.705E-12	665.045E-3	-16.5845E-3
3.61431E-3	141.859E-12	604.745E-3	7.74161E-3	146.458E-12	647.390E-3	-5.90430E-3
3.60930E-3	140.898E-12	607.357E-3	272.914E-6	145.473E-12	635.390E-3	20.8760E-3
3.60430E-3	142.258E-12	603.028E-3	8.30760E-3	144.832E-12	627.809E-3	25.5401E-3
3.59930E-3	142.774E-12	611.897E-3	10.3317E-3	144.554E-12	628.522E-3	1.76841E-3
3.59430E-3	142.624E-12	632.039E-3	-11.9271E-3	142.999E-12	635.701E-3	-11.8317E-3
3.58929E-3	141.523E-12	635.024E-3	-16.5344E-3	140.852E-12	641.398E-3	-7.27139E-3
3.58429E-3	143.225E-12	623.793E-3	-14.6091E-3	140.559E-12	621.007E-3	-9.71388E-3
3.57929E-3	144.961E-12	624.119E-3	-26.7755E-3	139.258E-12	599.467E-3	-19.9886E-3
3.57429E-3	143.658E-12	628.145E-3	-28.3550E-3	138.792E-12	610.577E-3	-14.8319E-3
3.56928E-3	142.197E-12	633.814E-3	-14.1864E-3	138.759E-12	622.187E-3	-14.4124E-3
3.56428E-3	141.666E-12	653.396E-3	-4.59935E-3	139.652E-12	623.065E-3	-15.9030E-3
3.55928E-3	142.777E-12	664.239E-3	-141.707E-6	139.310E-12	635.684E-3	1.30183E-3
3.55428E-3	141.830E-12	656.363E-3	11.9385E-3	139.100E-12	647.997E-3	-2.64126E-3
3.54927E-3	140.934E-12	653.210E-3	28.4597E-3	139.627E-12	652.723E-3	-19.5127E-3
3.54427E-3	139.533E-12	640.785E-3	22.4959E-3	140.345E-12	669.252E-3	-11.8714E-3
3.53927E-3	140.032E-12	630.589E-3	-3.20432E-3	141.240E-12	675.085E-3	-5.47200E-3
3.53427E-3	140.042E-12	629.043E-3	-17.4704E-3	140.835E-12	655.870E-3	-2.35386E-3
3.52926E-3	140.549E-12	624.720E-3	-25.0468E-3	140.245E-12	634.120E-3	4.66246E-3
3.52426E-3	139.325E-12	631.625E-3	-20.3725E-3	140.034E-12	624.514E-3	5.65671E-3
3.51926E-3	139.328E-12	649.968E-3	-5.40820E-3	140.434E-12	631.676E-3	7.30246E-3
3.51426E-3	138.376E-12	674.150E-3	2.88273E-3	140.201E-12	636.444E-3	11.5281E-3
3.50925E-3	138.233E-12	679.439E-3	1.82582E-3	139.568E-12	630.136E-3	5.09476E-3
3.50425E-3	138.620E-12	657.428E-3	-1.56482E-3	138.161E-12	637.301E-3	-18.6038E-3
3.49925E-3	138.108E-12	640.092E-3	-6.12361E-3	137.920E-12	644.154E-3	-37.2023E-3
3.49425E-3	137.445E-12	643.574E-3	-30.2275E-3	137.563E-12	631.294E-3	-37.2906E-3
3.48924E-3	137.203E-12	650.311E-3	-37.1438E-3	136.899E-12	618.217E-3	-26.3970E-3
3.48424E-3	138.090E-12	652.365E-3	-16.9933E-3	136.769E-12	619.660E-3	-9.06591E-3
3.47924E-3	138.272E-12	651.225E-3	461.548E-6	136.465E-12	632.168E-3	-4.95062E-3
3.47424E-3	137.571E-12	654.618E-3	9.30947E-3	136.416E-12	640.186E-3	-13.6711E-3
3.46923E-3	137.197E-12	658.685E-3	-11.8279E-3	136.261E-12	643.977E-3	-15.8217E-3
3.46423E-3	137.597E-12	670.095E-3	-35.1997E-3	134.859E-12	647.934E-3	-21.8152E-3
3.45923E-3	137.509E-12	678.907E-3	-27.9870E-3	134.788E-12	646.423E-3	-21.2799E-3
3.45423E-3	137.744E-12	656.900E-3	-21.0914E-3	134.622E-12	634.933E-3	-6.23108E-3
3.44922E-3	137.663E-12	632.838E-3	-24.8724E-3	134.822E-12	629.707E-3	-9.32571E-3
3.44422E-3	138.878E-12	628.847E-3	-18.2893E-3	134.025E-12	633.563E-3	-21.1253E-3
3.43922E-3	138.447E-12	632.659E-3	-11.5694E-3	134.694E-12	630.773E-3	-29.5745E-3
3.43422E-3	136.841E-12	643.136E-3	-1.76994E-3	133.876E-12	629.405E-3	-33.9169E-3
3.42921E-3	134.795E-12	657.410E-3	2.80842E-3	134.316E-12	636.857E-3	-33.0820E-3
3.42421E-3	135.064E-12	660.044E-3	-11.3292E-3	133.372E-12	662.077E-3	-27.0239E-3
3.41921E-3	135.827E-12	656.893E-3	-21.8198E-3	132.942E-12	678.750E-3	-7.51389E-3
3.41421E-3	134.136E-12	656.260E-3	-12.6625E-3	132.624E-12	653.610E-3	-2.78489E-3
3.40920E-3	132.289E-12	644.267E-3	-376.805E-6	133.282E-12	630.831E-3	-10.8486E-3
3.40420E-3	131.363E-12	627.893E-3	34.5632E-6	132.459E-12	644.037E-3	-14.0260E-3
3.39920E-3	132.074E-12	626.089E-3	-11.0191E-3	132.431E-12	651.836E-3	-26.6270E-3
3.39420E-3	132.562E-12	630.306E-3	-33.3544E-3	132.598E-12	639.663E-3	-43.6586E-3
3.38919E-3	132.106E-12	644.025E-3	-40.7804E-3	133.296E-12	640.451E-3	-46.0839E-3
3.38419E-3	131.973E-12	647.486E-3	-28.7496E-3	132.692E-12	636.499E-3	-44.3329E-3
3.37919E-3	132.339E-12	624.707E-3	-26.6495E-3	131.718E-12	617.241E-3	-40.0604E-3
3.37419E-3	133.540E-12	619.465E-3	-34.9346E-3	130.982E-12	616.785E-3	-24.3348E-3
3.36918E-3	132.868E-12	637.949E-3	-21.3995E-3	131.494E-12	619.613E-3	-16.4450E-3
3.36418E-3	134.097E-12	659.671E-3	3.97594E-3	130.013E-12	607.587E-3	-21.7718E-3
3.35918E-3	134.266E-12	671.161E-3	5.12292E-3	129.332E-12	604.718E-3	-13.7733E-3
3.35418E-3	135.125E-12	669.735E-3	3.00810E-3	128.649E-12	625.865E-3	-5.67828E-3
3.34917E-3	133.648E-12	668.183E-3	13.0388E-3	128.979E-12	654.250E-3	-30.4421E-3
3.34417E-3	132.768E-12	668.645E-3	1.25930E-3	129.226E-12	649.876E-3	-33.7663E-3
3.33917E-3	133.168E-12	675.189E-3	-19.6008E-3	128.734E-12	617.824E-3	-4.86491E-3
3.33417E-3	132.701E-12	678.506E-3	-18.2303E-3	128.095E-12	609.388E-3	3.34293E-3
3.32916E-3	131.716E-12	669.521E-3	-24.1874E-3	128.816E-12	624.821E-3	-13.8619E-3
3.32416E-3	130.798E-12	665.957E-3	-32.8741E-3	129.318E-12	640.708E-3	-35.6963E-3
3.31916E-3	129.810E-12	668.632E-3	-24.3919E-3	129.929E-12	646.535E-3	-51.7530E-3
3.31416E-3	128.663E-12	666.944E-3	-30.4556E-3	129.695E-12	645.259E-3	-42.1534E-3
3.30915E-3	127.126E-12	665.058E-3	-45.9946E-3	130.432E-12	657.456E-3	-4.21595E-3
3.30415E-3	126.880E-12	651.343E-3	-46.6865E-3	131.062E-12	652.599E-3	8.14714E-3
3.29915E-3	127.658E-12	635.260E-3	-33.7419E-3	131.560E-12	636.892E-3	-8.31758E-3
3.29415E-3	128.050E-12	638.928E-3	-21.6353E-3	130.647E-12	634.388E-3	-20.0344E-3
3.28914E-3	127.099E-12	643.149E-3	-12.7403E-3	130.889E-12	627.569E-3	-23.6808E-3
3.28414E-3	127.182E-12	639.822E-3	-6.14398E-3	130.650E-12	615.474E-3	-18.9342E-3
3.27914E-3	128.908E-12	643.933E-3	-16.8873E-3	130.191E-12	618.973E-3	-22.5954E-3
3.27414E-3	129.933E-12	645.094E-3	-27.0083E-3	129.302E-12	642.877E-3	-38.1966E-3
3.26913E-3	128.901E-12	637.685E-3	-9.43619E-3	129.618E-12	655.772E-3	-55.1744E-3
3.26413E-3	128.486E-12	632.163E-3	204.468E-6	127.957E-12	654.372E-3	-58.8500E-3
3.25913E-3	129.592E-12	650.073E-3	-14.3025E-3	126.944E-12	644.631E-3	-36.8972E-3
3.25413E-3	131.383E-12	669.166E-3	-19.9747E-3	126.370E-12	624.760E-3	-13.2117E-3
3.24912E-3	131.339E-12	656.423E-3	-13.2174E-3	125.423E-12	636.162E-3	4.10966E-3
3.24412E-3	129.964E-12	649.181E-3	1.98552E-3	124.595E-12	663.400E-3	12.9060E-3
3.23912E-3	129.064E-12	651.710E-3	-3.84167E-3	124.484E-12	645.340E-3	14.0686E-3
3.23412E-3	129.571E-12	655.777E-3	-33.6088E-3	125.549E-12	612.856E-3	14.3580E-3
3.22911E-3	129.049E-12	669.056E-3	-26.9171E-3	125.546E-12	625.409E-3	-5.88842E-3
3.22411E-3	126.933E-12	672.933E-3	10.1729E-3	126.535E-12	651.486E-3	-30.5921E-3
3.21911E-3	125.511E-12	653.314E-3	19.9959E-3	127.190E-12	645.182E-3	-35.5011E-3
3.21411E-3	124.984E-12	628.718E-3	-1.29178E-3	129.053E-12	640.677E-3	-21.3932E-3
3.20910E-3	124.888E-12	621.551E-3	-15.5035E-3	129.209E-12	645.766E-3	-1.06588E-3
3.20410E-3	123.633E-12	626.238E-3	-11.4879E-3	128.148E-12	653.854E-3	3.22210E-3
3.19910E-3	122.301E-12	631.494E-3	-19.3055E-3	128.491E-12	664.128E-3	-4.36391E-3
3.19410E-3	123.083E-12	621.550E-3	-35.8982E-3	128.905E-12	654.108E-3	-11.9734E-3
3.18909E-3	122.827E-12	605.465E-3	-26.6180E-3	127.970E-12	645.106E-3	-13.7922E-3
3.18409E-3	122.372E-12	602.127E-3	-1.67685E-3	126.757E-12	654.203E-3	-14.2811E-3
3.17909E-3	122.342E-12	608.707E-3	12.0596E-3	125.514E-12	663.039E-3	-13.6327E-3
3.17409E-3	123.273E-12	615.789E-3	5.46629E-3	125.059E-12	670.550E-3	-2.43922E-3
3.16908E-3	123.710E-12	635.645E-3	-3.27622E-3	123.154E-12	668.953E-3	8.92947E-3
3.16408E-3	123.643E-12	668.591E-3	10.9288E-3	121.874E-12	658.761E-3	10.3206E-3
3.15908E-3	123.964E-12	677.366E-3	18.1721E-3	121.287E-12	658.409E-3	1.55985E-3
3.15408E-3	124.178E-12	656.514E-3	8.60141E-3	121.098E-12	660.321E-3	-7.04626E-3
3.14907E-3	124.643E-12	633.939E-3	13.6390E-3	119.932E-12	648.983E-3	-9.10046E-3
3.14407E-3	125.062E-12	630.171E-3	24.8142E-3	119.502E-12	643.002E-3	-16.4905E-3
3.13907E-3	124.106E-12	652.891E-3	9.68844E-3	120.369E-12	658.186E-3	-23.9776E-3
3.13407E-3	124.227E-12	683.760E-3	-15.0051E-3	120.649E-12	666.828E-3	-24.4652E-3
3.12906E-3	123.438E-12	681.438E-3	-15.6633E-3	121.516E-12	655.256E-3	-33.9818E-3
3.12406E-3	123.522E-12	656.112E-3	-17.4609E-3	121.020E-12	661.637E-3	-47.7136E-3
3.11906E-3	122.085E-12	645.720E-3	-17.4413E-3	121.684E-12	680.683E-3	-46.4617E-3
3.11406E-3	121.106E-12	651.084E-3	-7.41602E-3	122.773E-12	673.465E-3	-37.3757E-3
3.10905E-3	120.476E-12	657.385E-3	-21.6217E-3	123.480E-12	656.947E-3	-28.0850E-3
3.10405E-3	121.972E-12	662.162E-3	-35.5731E-3	122.967E-12	642.650E-3	-23.8524E-3
3.09905E-3	120.552E-12	662.350E-3	-18.3284E-3	121.570E-12	627.210E-3	-15.4572E-3
3.09405E-3	118.237E-12	655.731E-3	-15.9349E-3	121.209E-12	640.922E-3	523.664E-6
3.08904E-3	117.733E-12	656.012E-3	-26.6730E-3	120.464E-12	663.984E-3	-6.26089E-3
3.08404E-3	118.931E-12	654.516E-3	-17.5722E-3	120.120E-12	656.425E-3	-16.8100E-3
3.07904E-3	119.322E-12	637.921E-3	-22.3527E-3	117.928E-12	638.678E-3	-10.8178E-3
3.07404E-3	117.632E-12	627.846E-3	-35.7726E-3	117.130E-12	625.231E-3	-7.60563E-3
3.06903E-3	117.473E-12	625.191E-3	-24.5925E-3	117.002E-12	628.478E-3	-9.84068E-3
3.06403E-3	118.528E-12	622.032E-3	-103.158E-6	117.191E-12	648.841E-3	-6.88266E-3
3.05903E-3	119.941E-12	634.090E-3	4.36575E-3	116.134E-12	646.949E-3	2.58087E-3
3.05403E-3	119.672E-12	649.586E-3	-22.3434E-3	115.216E-12	619.210E-3	1.85890E-3
3.04902E-3	120.313E-12	671.297E-3	-43.1408E-3	116.101E-12	625.194E-3	-14.1543E-3
3.04402E-3	119.894E-12	698.035E-3	-43.6054E-3	115.344E-12	658.581E-3	-24.5045E-3
3.03902E-3	120.383E-12	697.187E-3	-33.4264E-3	116.385E-12	678.501E-3	-13.9174E-3
3.03402E-3	121.027E-12	667.658E-3	-18.7270E-3	117.244E-12	706.025E-3	-3.95483E-3
3.02901E-3	120.209E-12	656.377E-3	-20.6716E-3	117.520E-12	737.666E-3	-21.8498E-3
3.02401E-3	119.409E-12	676.180E-3	-38.7285E-3	117.108E-12	716.814E-3	-42.3561E-3
3.01901E-3	119.216E-12	683.283E-3	-41.4737E-3	118.611E-12	673.811E-3	-45.3337E-3
3.01401E-3	118.507E-12	687.580E-3	-20.0536E-3	118.665E-12	665.909E-3	-50.9774E-3
3.00900E-3	117.161E-12	690.850E-3	2.70623E-3	117.516E-12	659.771E-3	-47.0731E-3
3.00400E-3	116.222E-12	677.939E-3	8.19842E-3	117.345E-12	656.298E-3	-21.9432E-3
2.99900E-3	115.755E-12	669.881E-3	-1.04444E-3	117.093E-12	673.770E-3	-8.99956E-3
2.99400E-3	115.886E-12	668.984E-3	-1.94001E-3	117.967E-12	674.552E-3	-6.11621E-3
2.98899E-3	114.492E-12	670.372E-3	5.42324E-3	116.235E-12	657.738E-3	-7.65806E-3
2.98399E-3	113.824E-12	669.527E-3	-3.18984E-3	116.090E-12	657.269E-3	-17.1464E-3
2.97899E-3	114.411E-12	668.937E-3	-11.1847E-3	115.251E-12	664.301E-3	-24.1850E-3
2.97399E-3	114.782E-12	676.769E-3	-14.0709E-3	116.442E-12	672.112E-3	-29.8648E-3
2.96898E-3	114.332E-12	686.610E-3	-37.8249E-3	115.956E-12	682.652E-3	-17.4228E-3
2.96398E-3	114.180E-12	680.985E-3	-48.1672E-3	115.124E-12	688.819E-3	2.61455E-3
2.95898E-3	114.873E-12	664.795E-3	-31.5633E-3	114.203E-12	681.500E-3	4.36908E-3
2.95398E-3	115.678E-12	657.591E-3	-24.1979E-3	114.673E-12	667.259E-3	-5.42054E-3
2.94897E-3	115.380E-12	644.857E-3	-21.0596E-3	116.441E-12	662.633E-3	-14.9265E-3
2.94397E-3	115.504E-12	624.845E-3	-11.5027E-3	115.455E-12	666.125E-3	-15.3239E-3
2.93897E-3	116.372E-12	634.316E-3	-16.0370E-3	113.678E-12	687.759E-3	-13.2998E-3
2.93397E-3	115.358E-12	666.396E-3	-16.2940E-3	112.811E-12	700.908E-3	-19.7329E-3
2.92896E-3	115.296E-12	677.574E-3	-7.03327E-3	114.859E-12	672.039E-3	-27.5042E-3
2.92396E-3	116.249E-12	678.372E-3	-27.9122E-3	115.120E-12	649.858E-3	-30.0897E-3
2.91896E-3	116.115E-12	690.410E-3	-50.5202E-3	113.677E-12	652.984E-3	-30.2306E-3
2.91396E-3	115.210E-12	698.615E-3	-40.4042E-3	112.110E-12	646.198E-3	-22.2347E-3
2.90895E-3	113.481E-12	701.249E-3	-32.5604E-3	112.904E-12	644.631E-3	-1.12034E-3
2.90395E-3	114.782E-12	688.939E-3	-43.6460E-3	113.156E-12	657.323E-3	10.3302E-3
2.89895E-3	114.128E-12	663.516E-3	-58.0065E-3	112.257E-12	658.663E-3	-837.332E-6
2.89395E-3	113.392E-12	651.260E-3	-49.7823E-3	111.230E-12	664.355E-3	-13.5661E-3
2.88894E-3	110.984E-12	653.769E-3	-15.2933E-3	111.766E-12	677.818E-3	-14.1354E-3
2.88394E-3	111.128E-12	658.927E-3	-966.884E-6	113.041E-12	668.502E-3	-5.26781E-3
2.87894E-3	111.006E-12	656.594E-3	-8.86414E-3	112.587E-12	651.964E-3	-2.43126E-3
2.87394E-3	110.445E-12	665.503E-3	-15.1204E-3	111.776E-12	648.452E-3	-22.1770E-3
2.86893E-3	109.181E-12	682.559E-3	-15.9571E-3	111.564E-12	647.436E-3	-35.3134E-3
2.86393E-3	107.569E-12	682.354E-3	-17.6792E-3	111.651E-12	650.307E-3	-24.5282E-3
2.85893E-3	108.496E-12	669.606E-3	-26.0408E-3	111.028E-12	644.379E-3	-19.0684E-3
2.85393E-3	108.962E-12	647.609E-3	-26.9363E-3	109.473E-12	623.263E-3	-32.3077E-3
2.84892E-3	109.427E-12	638.854E-3	-26.5269E-3	108.699E-12	621.675E-3	-37.2787E-3
2.84392E-3	108.882E-12	657.596E-3	-38.6336E-3	107.837E-12	631.391E-3	-21.2040E-3
2.83892E-3	108.511E-12	679.865E-3	-41.3892E-3	107.995E-12	635.000E-3	-15.8482E-3
2.83392E-3	110.146E-12	683.315E-3	-23.9810E-3	107.114E-12	644.687E-3	-24.1803E-3
2.82891E-3	110.280E-12	674.749E-3	-20.5182E-3	106.302E-12	655.125E-3	-28.4427E-3
2.82391E-3	110.004E-12	687.479E-3	-39.8719E-3	105.064E-12	659.054E-3	-28.3358E-3
2.81891E-3	108.842E-12	691.776E-3	-45.1839E-3	105.504E-12	647.559E-3	-19.2427E-3
2.81391E-3	109.784E-12	666.683E-3	-39.7203E-3	105.969E-12	631.939E-3	-6.10605E-3
2.80890E-3	109.952E-12	665.934E-3	-36.8271E-3	105.611E-12	636.075E-3	-2.17157E-3
2.80390E-3	109.829E-12	682.832E-3	-27.4678E-3	105.568E-12	639.521E-3	-8.59678E-3
2.79890E-3	108.163E-12	684.975E-3	-32.6373E-3	105.846E-12	640.831E-3	-20.4422E-3
2.79390E-3	107.910E-12	670.669E-3	-54.6718E-3	107.464E-12	657.705E-3	-45.4816E-3
2.78889E-3	107.192E-12	645.446E-3	-50.1522E-3	107.435E-12	671.689E-3	-59.3520E-3
2.78389E-3	106.171E-12	637.044E-3	-34.1434E-3	107.779E-12	684.804E-3	-30.3868E-3
2.77889E-3	105.571E-12	656.201E-3	-31.4937E-3	107.552E-12	693.930E-3	-19.7780E-3
2.77389E-3	104.757E-12	670.342E-3	-21.0494E-3	108.694E-12	690.837E-3	-48.5490E-3
2.76888E-3	104.194E-12	658.867E-3	-11.1746E-3	108.105E-12	690.137E-3	-51.1989E-3
2.76388E-3	103.205E-12	652.303E-3	-3.23746E-3	107.367E-12	685.194E-3	-27.6337E-3
2.75888E-3	103.625E-12	658.280E-3	25.6206E-3	106.319E-12	679.376E-3	-10.4000E-3
2.75388E-3	103.575E-12	656.341E-3	33.1486E-3	105.238E-12	674.105E-3	-3.65373E-3
2.74887E-3	103.505E-12	659.504E-3	-11.4840E-3	104.599E-12	661.589E-3	-2.94761E-3
2.74387E-3	103.491E-12	666.114E-3	-44.3512E-3	104.425E-12	657.625E-3	-955.741E-6
2.73887E-3	104.024E-12	664.908E-3	-38.3467E-3	103.193E-12	659.450E-3	-9.28622E-3
2.73387E-3	104.663E-12	658.554E-3	-23.1713E-3	102.230E-12	664.921E-3	-19.5483E-3
2.72886E-3	104.533E-12	656.506E-3	-1.84556E-3	101.441E-12	661.353E-3	-13.9383E-3
2.72386E-3	104.748E-12	666.935E-3	9.54055E-3	101.677E-12	645.925E-3	-6.93456E-3
2.71886E-3	104.991E-12	678.521E-3	680.847E-6	101.466E-12	645.244E-3	-17.4982E-3
2.71386E-3	105.122E-12	671.624E-3	3.72776E-3	101.512E-12	653.845E-3	-34.2584E-3
2.70885E-3	104.732E-12	648.849E-3	6.78148E-3	102.144E-12	666.450E-3	-21.0615E-3
2.70385E-3	104.533E-12	649.713E-3	-7.28145E-3	103.231E-12	681.146E-3	5.28983E-3
2.69885E-3	103.785E-12	672.884E-3	-20.1493E-3	103.536E-12	679.047E-3	1.25878E-3
2.69385E-3	103.561E-12	672.823E-3	-21.9732E-3	104.017E-12	667.424E-3	-8.62600E-3
2.68884E-3	103.452E-12	655.536E-3	-22.1021E-3	104.570E-12	678.644E-3	-7.91078E-3
2.68384E-3	102.431E-12	645.414E-3	-30.4297E-3	105.065E-12	705.791E-3	-9.01107E-3
2.67884E-3	101.589E-12	649.528E-3	-28.3393E-3	105.540E-12	706.120E-3	-1.63557E-3
2.67384E-3	101.172E-12	668.092E-3	-10.3626E-3	105.394E-12	679.470E-3	2.89559E-3
2.66883E-3	101.471E-12	678.904E-3	-615.985E-6	104.631E-12	658.331E-3	-13.8575E-3
2.66383E-3	101.369E-12	669.011E-3	-13.1810E-3	103.613E-12	651.801E-3	-26.8323E-3
2.65883E-3	100.887E-12	662.353E-3	-11.5013E-3	102.712E-12	650.355E-3	-23.1956E-3
2.65383E-3	100.193E-12	679.228E-3	9.78862E-3	101.706E-12	650.721E-3	-17.9205E-3
2.64882E-3	99.8390E-12	686.244E-3	11.4708E-3	100.926E-12	653.833E-3	-12.2838E-3
2.64382E-3	100.508E-12	662.279E-3	4.52613E-3	100.134E-12	660.984E-3	-16.4303E-3
2.63882E-3	100.890E-12	653.300E-3	2.74262E-3	99.6361E-12	670.032E-3	-26.8544E-3
2.63382E-3	101.019E-12	669.948E-3	-681.510E-6	99.0170E-12	680.428E-3	-26.8677E-3
2.62881E-3	100.518E-12	674.700E-3	-4.68354E-3	97.7086E-12	692.733E-3	-23.0897E-3
2.62381E-3	100.444E-12	670.835E-3	-11.7083E-3	97.5056E-12	691.047E-3	-17.8673E-3
2.61881E-3	100.435E-12	677.362E-3	-19.8286E-3	98.3353E-12	676.412E-3	-20.0215E-3
2.61381E-3	100.741E-12	669.838E-3	-24.8226E-3	98.9540E-12	683.254E-3	-25.3315E-3
2.60880E-3	100.359E-12	650.112E-3	-24.6677E-3	98.6194E-12	703.684E-3	-15.9551E-3
2.60380E-3	99.3004E-12	662.339E-3	-18.3321E-3	98.9331E-12	705.654E-3	361.337E-6
2.59880E-3	98.9312E-12	674.459E-3	-13.4094E-3	99.9025E-12	703.757E-3	-847.246E-6
2.59380E-3	98.8988E-12	659.845E-3	-18.3880E-3	101.526E-12	707.468E-3	-35.7465E-3
2.58879E-3	99.8165E-12	659.188E-3	-17.3473E-3	100.837E-12	713.568E-3	-52.6649E-3
2.58379E-3	99.2956E-12	669.191E-3	-6.82315E-3	100.233E-12	709.851E-3	-33.8465E-3
2.57879E-3	97.5530E-12	681.908E-3	-12.6271E-3	100.359E-12	684.752E-3	-31.0930E-3
2.57379E-3	96.8431E-12	693.473E-3	-29.4513E-3	99.9217E-12	658.297E-3	-35.1800E-3
2.56878E-3	97.4511E-12	677.990E-3	-39.4110E-3	98.9386E-12	656.064E-3	-37.9683E-3
2.56378E-3	98.1124E-12	667.004E-3	-39.0110E-3	98.1679E-12	674.281E-3	-37.3495E-3
2.55878E-3	96.2511E-12	678.216E-3	-25.6845E-3	98.3609E-12	688.868E-3	-23.7420E-3
2.55378E-3	95.3706E-12	670.921E-3	-18.2612E-3	97.2847E-12	691.264E-3	-5.92955E-3
2.54877E-3	95.8979E-12	656.646E-3	-27.4681E-3	95.7343E-12	684.030E-3	-3.21885E-3
2.54377E-3	97.2087E-12	650.411E-3	-25.2420E-3	94.5187E-12	673.297E-3	-14.6340E-3
2.53877E-3	96.2979E-12	646.083E-3	-28.7693E-3	94.4486E-12	663.061E-3	1.66389E-3
2.53377E-3	94.8944E-12	660.049E-3	-49.2453E-3	93.8855E-12	662.730E-3	20.9125E-3
2.52876E-3	95.0998E-12	669.638E-3	-46.8741E-3	92.7508E-12	668.916E-3	5.38157E-3
2.52376E-3	95.8846E-12	668.912E-3	-24.4075E-3	93.4750E-12	668.875E-3	-15.7107E-3
2.51876E-3	95.7840E-12	683.695E-3	-13.8139E-3	93.5526E-12	674.572E-3	-26.6327E-3
2.51376E-3	94.0182E-12	696.102E-3	-16.3831E-3	93.4436E-12	686.898E-3	-36.1267E-3
2.50875E-3	94.2517E-12	688.300E-3	-18.0940E-3	92.7621E-12	696.175E-3	-30.5057E-3
2.50375E-3	95.0431E-12	672.816E-3	-19.7059E-3	93.2620E-12	708.906E-3	-15.1560E-3
2.49875E-3	94.8773E-12	668.096E-3	-22.5856E-3	93.3843E-12	711.165E-3	-14.4889E-3
2.49375E-3	93.9742E-12	679.692E-3	-17.6260E-3	94.2803E-12	686.549E-3	-14.5993E-3
2.48874E-3	94.0253E-12	686.975E-3	-8.18795E-3	93.8453E-12	668.975E-3	-13.6324E-3
2.48374E-3	94.2083E-12	687.452E-3	-1.46059E-3	93.5623E-12	688.181E-3	-17.8418E-3
2.47874E-3	93.9752E-12	690.978E-3	10.9322E-3	93.2670E-12	709.909E-3	-18.8503E-3
2.47374E-3	93.0690E-12	686.303E-3	4.58781E-3	93.5603E-12	707.105E-3	-10.9975E-3
2.46873E-3	91.8530E-12	682.424E-3	-28.8587E-3	94.2499E-12	707.672E-3	-3.15320E-3
2.46373E-3	91.5209E-12	676.478E-3	-43.9701E-3	93.1248E-12	713.482E-3	-12.5522E-3
2.45873E-3	91.6744E-12	666.685E-3	-35.3139E-3	92.7164E-12	711.805E-3	-8.95370E-3
2.45373E-3	90.9142E-12	678.020E-3	-17.1519E-3	91.9267E-12	710.789E-3	1.68119E-3
2.44872E-3	89.8909E-12	690.931E-3	-6.05322E-3	93.2873E-12	714.369E-3	-3.68951E-3
2.44372E-3	89.7865E-12	679.377E-3	-17.8273E-3	92.7378E-12	716.549E-3	-5.03489E-3
2.43872E-3	89.8969E-12	666.760E-3	-31.7828E-3	91.7503E-12	708.815E-3	-11.1800E-3
2.43372E-3	89.0660E-12	661.911E-3	-35.4978E-3	90.5605E-12	696.475E-3	-8.60758E-3
2.42871E-3	89.6079E-12	668.442E-3	-38.3450E-3	90.7846E-12	684.462E-3	9.53367E-3
2.42371E-3	89.1974E-12	686.100E-3	-32.6827E-3	90.8635E-12	685.857E-3	11.2633E-3
2.41871E-3	88.7959E-12	689.039E-3	-15.2347E-3	90.0293E-12	695.335E-3	-6.63831E-3
2.41371E-3	88.6949E-12	682.743E-3	-13.0046E-3	88.9775E-12	706.015E-3	-21.2412E-3
2.40870E-3	90.1441E-12	681.147E-3	-14.4880E-3	89.6495E-12	712.775E-3	-32.7794E-3
2.40370E-3	89.5530E-12	677.769E-3	-4.15641E-3	90.0845E-12	697.657E-3	-30.7049E-3
2.39870E-3	88.7016E-12	670.443E-3	-5.12037E-3	89.3572E-12	680.488E-3	-10.7995E-3
2.39370E-3	88.4757E-12	665.604E-3	-19.6763E-3	88.4295E-12	681.510E-3	-13.0038E-3
2.38869E-3	89.3632E-12	665.367E-3	-25.4002E-3	89.0171E-12	689.651E-3	-27.0703E-3
2.38369E-3	89.2347E-12	667.483E-3	-18.5962E-3	89.6697E-12	698.795E-3	-19.3492E-3
2.37869E-3	88.0271E-12	672.330E-3	-13.3560E-3	89.5202E-12	709.334E-3	-6.23691E-3
2.37369E-3	87.6066E-12	682.199E-3	-13.9551E-3	88.6193E-12	704.983E-3	-15.9333E-3
2.36868E-3	87.6443E-12	692.223E-3	-23.8991E-3	88.9273E-12	689.952E-3	-32.5206E-3
2.36368E-3	87.1878E-12	688.223E-3	-36.9656E-3	89.3284E-12	696.214E-3	-30.7155E-3
2.35868E-3	86.6223E-12	681.307E-3	-40.9363E-3	88.8443E-12	726.828E-3	-29.6912E-3
2.35368E-3	86.1150E-12	684.837E-3	-21.8577E-3	88.6151E-12	745.034E-3	-35.9824E-3
2.34867E-3	85.7716E-12	693.584E-3	-1.45361E-3	88.2434E-12	728.177E-3	-39.0615E-3
2.34367E-3	85.6033E-12	699.892E-3	-6.91557E-3	88.7526E-12	707.803E-3	-34.5337E-3
2.33867E-3	85.3395E-12	697.867E-3	-19.7812E-3	88.1521E-12	703.699E-3	-26.5178E-3
2.33367E-3	84.9442E-12	686.568E-3	-24.4229E-3	86.9019E-12	693.473E-3	-12.7758E-3
2.32866E-3	85.1460E-12	676.842E-3	-12.1999E-3	85.8662E-12	681.074E-3	13.2938E-3
2.32366E-3	85.6213E-12	679.503E-3	6.08008E-3	85.5231E-12	663.905E-3	25.9467E-3
2.31866E-3	86.0933E-12	690.592E-3	5.40847E-3	84.7687E-12	650.011E-3	9.64250E-3
2.31366E-3	86.0326E-12	700.041E-3	-13.9285E-3	83.9130E-12	672.586E-3	-21.0530E-3
2.30865E-3	85.7370E-12	700.899E-3	-16.7254E-3	83.6984E-12	696.518E-3	-35.1658E-3
2.30365E-3	85.8619E-12	699.359E-3	-2.07268E-3	82.7226E-12	700.626E-3	-25.2261E-3
2.29865E-3	86.0111E-12	703.990E-3	-6.84210E-3	82.8413E-12	698.694E-3	-19.3381E-3
2.29365E-3	86.0904E-12	711.243E-3	-20.3969E-3	82.9596E-12	685.546E-3	-26.9078E-3
2.28864E-3	85.4163E-12	714.928E-3	-21.4778E-3	83.7964E-12	686.840E-3	-31.0848E-3
2.28364E-3	84.5871E-12	722.650E-3	-16.2434E-3	83.4132E-12	709.711E-3	-28.3280E-3
2.27864E-3	84.3962E-12	718.872E-3	-10.0308E-3	82.8412E-12	719.302E-3	-8.57359E-3
2.27364E-3	84.0114E-12	703.770E-3	-15.8114E-3	82.8734E-12	712.162E-3	11.8984E-3
2.26863E-3	83.3290E-12	702.140E-3	-27.6154E-3	83.7719E-12	697.372E-3	-1.02679E-3
2.26363E-3	83.2143E-12	701.139E-3	-24.1504E-3	84.2455E-12	688.696E-3	-11.6736E-3
2.25863E-3	82.2228E-12	700.576E-3	-21.3676E-3	83.2369E-12	711.257E-3	6.23997E-3
2.25363E-3	81.7777E-12	711.456E-3	-15.0774E-3	83.7822E-12	745.809E-3	10.9927E-3
2.24862E-3	81.4286E-12	713.261E-3	-11.8953E-3	83.7191E-12	742.140E-3	-9.46163E-3
2.24362E-3	81.1079E-12	700.470E-3	-35.1697E-3	84.0474E-12	696.853E-3	-14.0096E-3
2.23862E-3	80.6911E-12	695.919E-3	-49.2789E-3	82.6552E-12	676.221E-3	677.247E-6
2.23362E-3	81.0222E-12	692.277E-3	-24.6537E-3	82.0986E-12	696.190E-3	9.57663E-3
2.22861E-3	81.0598E-12	679.359E-3	-1.75252E-3	81.1215E-12	702.599E-3	10.6948E-3
2.22361E-3	81.5339E-12	677.219E-3	-9.98498E-3	80.7206E-12	695.587E-3	8.62971E-3
2.21861E-3	81.3034E-12	701.153E-3	-26.4863E-3	79.6793E-12	693.527E-3	2.37526E-3
2.21361E-3	81.0080E-12	728.604E-3	-25.4165E-3	78.3345E-12	678.838E-3	-6.13633E-3
2.20860E-3	80.9124E-12	724.055E-3	-15.7315E-3	78.0922E-12	669.894E-3	-19.0642E-3
2.20360E-3	80.8614E-12	711.952E-3	-13.6422E-3	77.8723E-12	686.250E-3	-27.4253E-3
2.19860E-3	80.7839E-12	713.388E-3	-6.12199E-3	77.8749E-12	705.410E-3	-14.1856E-3
2.19360E-3	80.4529E-12	708.523E-3	-16.2805E-3	77.2204E-12	717.503E-3	109.192E-6
2.18859E-3	80.3845E-12	702.406E-3	-41.2894E-3	77.5870E-12	719.596E-3	-16.7330E-3
2.18359E-3	79.7956E-12	697.207E-3	-42.5022E-3	77.5114E-12	702.295E-3	-38.1501E-3
2.17859E-3	79.9110E-12	690.674E-3	-26.4789E-3	77.8167E-12	698.412E-3	-32.8550E-3
2.17359E-3	79.0597E-12	698.018E-3	-12.3333E-3	78.4387E-12	724.304E-3	-20.6395E-3
2.16858E-3	78.9507E-12	715.930E-3	-16.0653E-3	78.3463E-12	732.332E-3	-16.2105E-3
2.16358E-3	78.4482E-12	722.765E-3	-29.4848E-3	78.9179E-12	725.034E-3	-22.6487E-3
2.15858E-3	77.8409E-12	713.486E-3	-25.7946E-3	78.7425E-12	733.462E-3	-36.4464E-3
2.15358E-3	77.4002E-12	703.533E-3	-4.92995E-3	79.5159E-12	738.242E-3	-37.8918E-3
2.14857E-3	76.2186E-12	698.900E-3	14.1495E-3	79.0272E-12	729.523E-3	-28.8712E-3
2.14357E-3	77.0400E-12	702.783E-3	16.1844E-3	78.7639E-12	722.114E-3	-18.5558E-3
2.13857E-3	76.4553E-12	711.450E-3	3.15677E-3	78.0100E-12	719.713E-3	-6.85005E-3
2.13357E-3	76.3892E-12	722.938E-3	-15.8382E-3	77.7595E-12	719.680E-3	-5.25087E-3
2.12856E-3	75.6599E-12	727.970E-3	-26.7004E-3	77.0886E-12	725.386E-3	-15.0921E-3
2.12356E-3	75.9985E-12	719.287E-3	-28.2424E-3	76.1491E-12	726.148E-3	-23.9840E-3
2.11856E-3	75.9916E-12	716.399E-3	-31.1504E-3	75.5875E-12	702.661E-3	-25.3861E-3
2.11356E-3	75.4550E-12	729.733E-3	-30.7801E-3	74.5409E-12	679.639E-3	-22.1153E-3
2.10855E-3	75.1542E-12	743.241E-3	-33.6449E-3	74.2026E-12	688.029E-3	-17.3170E-3
2.10355E-3	75.3862E-12	732.713E-3	-38.3107E-3	73.9619E-12	706.166E-3	-8.08700E-3
2.09855E-3	75.7762E-12	719.656E-3	-32.0762E-3	74.1862E-12	718.470E-3	-1.01988E-3
2.09355E-3	75.3544E-12	724.337E-3	-26.5034E-3	73.8825E-12	722.455E-3	-4.81129E-3
2.08854E-3	75.2075E-12	729.714E-3	-20.8743E-3	73.7941E-12	713.385E-3	-10.3300E-3
2.08354E-3	75.3416E-12	732.966E-3	-11.8928E-3	74.6553E-12	723.460E-3	-12.9089E-3
2.07854E-3	75.5408E-12	733.470E-3	-824.934E-6	74.9097E-12	742.564E-3	-18.0069E-3
2.07354E-3	75.4212E-12	730.875E-3	4.37077E-3	74.8088E-12	747.832E-3	-24.0318E-3
2.06853E-3	74.4070E-12	738.951E-3	-1.85238E-3	74.4790E-12	750.861E-3	-20.8794E-3
2.06353E-3	74.0344E-12	750.100E-3	1.10409E-3	75.4370E-12	742.621E-3	-17.0528E-3
2.05853E-3	73.5669E-12	738.215E-3	2.49214E-3	75.1941E-12	734.402E-3	-29.2539E-3
2.05353E-3	72.8377E-12	718.327E-3	-8.71639E-3	75.1198E-12	740.926E-3	-30.0871E-3
2.04852E-3	72.5196E-12	728.782E-3	-6.31643E-3	74.1137E-12	742.027E-3	-8.36152E-3
2.04352E-3	72.4809E-12	751.881E-3	8.30559E-3	74.3072E-12	734.261E-3	-3.37828E-3
2.03852E-3	71.7893E-12	757.361E-3	9.10021E-3	73.4007E-12	734.517E-3	-17.1861E-3
2.03352E-3	71.4882E-12	756.839E-3	-14.9008E-3	72.9684E-12	741.486E-3	-25.5582E-3
2.02851E-3	71.2916E-12	745.192E-3	-33.0449E-3	72.2108E-12	747.497E-3	-21.1595E-3
2.02351E-3	71.5550E-12	728.298E-3	-17.5691E-3	71.6669E-12	747.342E-3	-12.5537E-3
2.01851E-3	71.1982E-12	729.619E-3	-5.05446E-3	71.3195E-12	737.815E-3	-6.43213E-3
2.01351E-3	70.1057E-12	732.437E-3	-15.5754E-3	70.6308E-12	734.935E-3	-6.71620E-3
2.00850E-3	70.5796E-12	726.514E-3	-22.2487E-3	70.2033E-12	737.811E-3	-12.9470E-3
2.00350E-3	70.6251E-12	736.908E-3	-13.4500E-3	69.6458E-12	736.586E-3	-12.7286E-3
1.99850E-3	70.0593E-12	766.166E-3	-17.9423E-3	69.6705E-12	749.763E-3	-18.1925E-3
1.99350E-3	69.7132E-12	781.463E-3	-46.4725E-3	69.7533E-12	766.894E-3	-25.4293E-3
1.98849E-3	69.8767E-12	780.472E-3	-53.0879E-3	69.5131E-12	761.484E-3	-23.9909E-3
1.98349E-3	70.2643E-12	775.505E-3	-33.8315E-3	69.6312E-12	744.624E-3	-30.1030E-3
1.97849E-3	70.4811E-12	759.000E-3	-30.5230E-3	69.7209E-12	744.338E-3	-34.1114E-3
1.97349E-3	69.8543E-12	761.087E-3	-33.6894E-3	69.5433E-12	765.333E-3	-23.4670E-3
1.96848E-3	69.0638E-12	783.289E-3	-22.5568E-3	68.8927E-12	775.499E-3	-8.20161E-3
1.96348E-3	69.2153E-12	780.484E-3	-14.2064E-3	69.1169E-12	762.112E-3	-174.002E-6
1.95848E-3	69.1957E-12	770.522E-3	-13.6057E-3	69.4510E-12	762.495E-3	-8.98117E-3
1.95348E-3	68.9284E-12	766.822E-3	-13.5245E-3	68.9842E-12	776.246E-3	-29.3058E-3
1.94847E-3	67.5069E-12	762.672E-3	-13.5806E-3	68.4135E-12	769.721E-3	-35.6448E-3
1.94347E-3	67.0702E-12	768.563E-3	-9.89144E-3	68.5043E-12	765.395E-3	-16.2455E-3
1.93847E-3	67.6307E-12	772.495E-3	-4.11006E-3	68.3800E-12	770.353E-3	-13.6490E-3
1.93347E-3	66.7705E-12	772.832E-3	-4.94294E-3	67.9802E-12	769.410E-3	-31.8857E-3
1.92846E-3	65.8117E-12	773.612E-3	-12.6797E-3	67.4960E-12	776.318E-3	-30.0467E-3
1.92346E-3	65.2430E-12	759.782E-3	-13.0438E-3	67.1393E-12	782.518E-3	-23.5563E-3
1.91846E-3	65.4165E-12	738.933E-3	-7.43506E-3	66.2336E-12	773.458E-3	-25.3327E-3
1.91346E-3	65.2544E-12	745.361E-3	-18.3595E-3	65.7832E-12	768.305E-3	-16.4946E-3
1.90845E-3	64.7967E-12	764.844E-3	-29.7491E-3	65.3826E-12	775.640E-3	-6.10400E-3
1.90345E-3	64.5065E-12	759.411E-3	-22.5665E-3	65.7509E-12	784.595E-3	-6.87232E-3
1.89845E-3	64.6854E-12	743.387E-3	-19.7464E-3	65.0489E-12	788.706E-3	-4.14292E-3
1.89345E-3	65.1537E-12	745.891E-3	-20.7860E-3	64.3079E-12	784.789E-3	-2.95300E-3
1.88844E-3	64.4165E-12	765.889E-3	-13.7493E-3	64.4921E-12	774.572E-3	-7.17686E-3
1.88344E-3	64.0704E-12	788.322E-3	-15.0903E-3	64.5282E-12	774.502E-3	-8.21620E-3
1.87844E-3	64.2709E-12	800.399E-3	-22.1380E-3	63.8553E-12	793.326E-3	-21.2594E-3
1.87344E-3	64.4418E-12	798.059E-3	-14.8096E-3	62.9053E-12	811.681E-3	-37.2513E-3
1.86843E-3	64.3720E-12	797.124E-3	-11.2643E-3	63.3314E-12	815.609E-3	-30.3117E-3
1.86343E-3	63.3835E-12	803.076E-3	-19.7611E-3	63.4771E-12	809.346E-3	-17.2810E-3
1.85843E-3	63.3560E-12	801.140E-3	-26.4659E-3	63.4408E-12	803.343E-3	-9.05112E-3
1.85343E-3	63.3550E-12	793.952E-3	-24.7739E-3	62.7889E-12	805.756E-3	-5.46492E-3
1.84842E-3	62.9783E-12	802.811E-3	-16.9083E-3	62.9329E-12	818.255E-3	-8.86584E-3
1.84342E-3	62.0917E-12	813.554E-3	-17.0291E-3	63.5262E-12	831.062E-3	-10.4597E-3
1.83842E-3	61.7944E-12	804.732E-3	-19.8053E-3	63.7367E-12	834.394E-3	-16.0962E-3
1.83342E-3	61.1958E-12	792.261E-3	-18.7173E-3	63.8893E-12	839.526E-3	-12.8625E-3
1.82841E-3	60.9500E-12	782.573E-3	-11.7342E-3	63.1365E-12	848.629E-3	-9.07705E-3
1.82341E-3	60.0236E-12	783.118E-3	-5.71832E-3	62.9351E-12	852.767E-3	-14.5493E-3
1.81841E-3	59.4551E-12	802.145E-3	-15.8421E-3	62.4274E-12	839.571E-3	-3.19687E-3
1.81341E-3	59.4551E-12	816.914E-3	-28.0086E-3	62.4549E-12	808.613E-3	3.59460E-3
1.80840E-3	59.4300E-12	821.625E-3	-30.5520E-3	61.5156E-12	802.378E-3	-16.7918E-3
1.80340E-3	59.2942E-12	830.698E-3	-38.9371E-3	60.9537E-12	838.841E-3	-41.4023E-3
1.79840E-3	58.3352E-12	836.420E-3	-37.5018E-3	59.9963E-12	851.684E-3	-42.8541E-3
1.79340E-3	58.6932E-12	821.206E-3	-13.0544E-3	60.4157E-12	825.415E-3	-26.2500E-3
1.78839E-3	58.7616E-12	801.368E-3	1.65679E-3	59.9295E-12	822.723E-3	-20.9964E-3
1.78339E-3	59.4369E-12	800.382E-3	-3.54160E-3	58.7339E-12	839.825E-3	-23.9269E-3
1.77839E-3	59.1257E-12	814.180E-3	-22.0807E-3	57.8037E-12	846.181E-3	-12.7787E-3
1.77339E-3	59.1400E-12	832.057E-3	-32.9009E-3	57.5153E-12	851.853E-3	-1.46642E-3
1.76838E-3	59.7184E-12	840.287E-3	-20.5059E-3	58.2548E-12	852.135E-3	-14.6906E-3
1.76338E-3	59.9212E-12	841.553E-3	-9.28100E-3	57.8874E-12	850.673E-3	-31.7683E-3
1.75838E-3	59.3628E-12	858.548E-3	-5.86081E-3	57.2942E-12	857.992E-3	-39.8954E-3
1.75338E-3	58.2680E-12	877.498E-3	-8.30807E-3	56.9044E-12	863.589E-3	-44.6335E-3
1.74837E-3	58.5189E-12	865.720E-3	-18.9615E-3	57.7586E-12	868.078E-3	-34.3091E-3
1.74337E-3	58.2845E-12	851.489E-3	-29.9524E-3	57.6741E-12	877.267E-3	-12.8363E-3
1.73837E-3	57.7521E-12	856.500E-3	-33.2627E-3	57.3600E-12	897.373E-3	-6.48376E-3
1.73337E-3	56.6396E-12	862.354E-3	-26.1300E-3	57.0918E-12	904.677E-3	-15.3073E-3
1.72836E-3	56.2237E-12	857.203E-3	-17.9919E-3	57.0837E-12	886.752E-3	-13.8674E-3
1.72336E-3	55.9334E-12	845.451E-3	-21.1684E-3	57.3907E-12	877.515E-3	-9.83526E-3
1.71836E-3	55.2511E-12	860.558E-3	-27.1858E-3	56.4912E-12	874.472E-3	-11.7386E-3
1.71336E-3	54.6158E-12	886.369E-3	-27.2683E-3	56.0800E-12	872.760E-3	-5.73776E-3
1.70835E-3	53.8233E-12	895.249E-3	-24.2681E-3	55.4830E-12	872.341E-3	3.39956E-3
1.70335E-3	54.0845E-12	886.073E-3	-16.4164E-3	54.8533E-12	860.704E-3	4.83211E-3
1.69835E-3	53.6991E-12	864.168E-3	-13.5697E-3	53.9900E-12	861.459E-3	2.25657E-3
1.69335E-3	53.9866E-12	858.965E-3	-22.6605E-3	53.3652E-12	876.976E-3	-4.19509E-3
1.68834E-3	53.4241E-12	875.040E-3	-22.8074E-3	52.5684E-12	868.429E-3	-22.2993E-3
1.68334E-3	52.6984E-12	894.614E-3	-15.5168E-3	51.8720E-12	858.871E-3	-37.4606E-3
1.67834E-3	52.6943E-12	893.126E-3	-16.4422E-3	51.5361E-12	884.502E-3	-35.6834E-3
1.67334E-3	52.9860E-12	883.849E-3	-22.3086E-3	51.2413E-12	912.060E-3	-23.9871E-3
1.66833E-3	53.0214E-12	890.499E-3	-22.7194E-3	51.6488E-12	918.043E-3	-11.4644E-3
1.66333E-3	52.4914E-12	904.627E-3	-11.5884E-3	51.1585E-12	916.552E-3	-3.13307E-3
1.65833E-3	52.3371E-12	914.782E-3	-10.7419E-3	50.8149E-12	913.078E-3	-9.13152E-3
1.65333E-3	52.0288E-12	914.014E-3	-18.4917E-3	50.8983E-12	910.538E-3	-30.3523E-3
1.64832E-3	52.2329E-12	915.624E-3	-13.2739E-3	51.0818E-12	921.501E-3	-31.3803E-3
1.64332E-3	51.5664E-12	916.574E-3	-10.3192E-3	51.3178E-12	929.285E-3	-3.59834E-3
1.63832E-3	51.1131E-12	911.477E-3	-19.4332E-3	51.0468E-12	930.559E-3	17.3701E-3
1.63332E-3	50.8254E-12	916.752E-3	-20.2650E-3	51.3076E-12	945.852E-3	9.33929E-3
1.62831E-3	50.4008E-12	934.630E-3	-2.43734E-3	51.4576E-12	966.906E-3	-21.3647E-3
1.62331E-3	49.8022E-12	939.902E-3	5.94302E-3	50.9118E-12	972.424E-3	-36.2719E-3
1.61831E-3	49.0443E-12	923.951E-3	-10.7063E-3	50.2610E-12	963.272E-3	-21.9688E-3
1.61331E-3	48.9636E-12	919.851E-3	-23.8362E-3	49.8821E-12	954.792E-3	-7.46041E-3
1.60830E-3	48.8511E-12	924.462E-3	-17.6013E-3	49.3561E-12	948.336E-3	-15.5855E-3
1.60330E-3	48.3794E-12	921.436E-3	-20.5205E-3	48.6392E-12	955.198E-3	-31.1183E-3
1.59830E-3	47.9224E-12	934.085E-3	-33.2149E-3	48.2924E-12	970.246E-3	-33.1918E-3
1.59330E-3	47.6711E-12	950.553E-3	-28.1678E-3	47.8221E-12	970.074E-3	-26.7891E-3
1.58829E-3	47.6409E-12	950.975E-3	-9.36973E-3	47.5661E-12	969.292E-3	-17.9710E-3
1.58329E-3	47.2532E-12	952.673E-3	1.17912E-3	47.1159E-12	963.488E-3	-21.8474E-3
1.57829E-3	47.0197E-12	958.861E-3	-3.21524E-3	46.3424E-12	939.198E-3	-42.1450E-3
1.57329E-3	46.7298E-12	964.343E-3	-10.4989E-3	45.8549E-12	945.862E-3	-41.9453E-3
1.56828E-3	46.5845E-12	969.129E-3	-13.3033E-3	45.3006E-12	979.686E-3	-19.0652E-3
1.56328E-3	46.0012E-12	966.462E-3	-1.00020E-3	45.4335E-12	982.694E-3	-5.55205E-3
1.55828E-3	45.5263E-12	960.408E-3	12.0867E-3	45.4512E-12	974.335E-3	-13.8809E-3
1.55328E-3	45.1925E-12	958.068E-3	-2.25493E-3	45.2598E-12	989.921E-3	-37.1748E-3
1.54827E-3	44.9921E-12	971.254E-3	-25.5111E-3	45.0182E-12	999.435E-3	-41.9230E-3
1.54327E-3	44.6552E-12	991.043E-3	-24.1457E-3	44.9003E-12	985.923E-3	-20.1073E-3
1.53827E-3	43.8738E-12	995.953E-3	-6.44098E-3	45.2598E-12	980.457E-3	-4.89231E-3
1.53327E-3	43.6480E-12	986.665E-3	-871.904E-6	44.9658E-12	989.204E-3	-9.93293E-3
1.52826E-3	43.6799E-12	968.669E-3	-13.5667E-3	44.3404E-12	999.538E-3	-18.9836E-3
1.52326E-3	43.5553E-12	961.375E-3	-27.1169E-3	44.2110E-12	1.00516E+0	-20.8695E-3
1.51826E-3	43.1360E-12	970.661E-3	-21.0292E-3	44.5256E-12	1.00113E+0	-21.9118E-3
1.51326E-3	42.5082E-12	982.031E-3	-5.11285E-3	43.6519E-12	998.414E-3	-22.3933E-3
1.50825E-3	42.2648E-12	999.431E-3	-7.12199E-3	42.6901E-12	1.00646E+0	-22.1274E-3
1.50325E-3	41.9251E-12	1.00647E+0	-15.6761E-3	42.1505E-12	1.00287E+0	-24.9689E-3
1.49825E-3	41.9334E-12	1.00017E+0	-17.1423E-3	41.9210E-12	983.653E-3	-24.2919E-3
1.49325E-3	41.2723E-12	1.00037E+0	-20.2391E-3	41.6479E-12	978.086E-3	-17.9725E-3
1.48824E-3	40.7849E-12	1.00344E+0	-21.7237E-3	40.6823E-12	980.219E-3	-15.0615E-3
1.48324E-3	40.2691E-12	1.01003E+0	-20.2207E-3	39.9982E-12	976.260E-3	-16.5477E-3
1.47824E-3	40.1194E-12	1.01366E+0	-16.7574E-3	39.8769E-12	979.489E-3	-14.8485E-3
1.47324E-3	39.7300E-12	1.00365E+0	-13.9686E-3	40.0457E-12	988.464E-3	-10.9599E-3
1.46823E-3	39.3769E-12	988.001E-3	-14.8455E-3	39.4002E-12	989.994E-3	-8.09434E-3
1.46323E-3	39.2155E-12	984.082E-3	-14.4979E-3	38.7577E-12	988.459E-3	-9.70389E-3
1.45823E-3	38.9987E-12	987.666E-3	-5.70483E-3	38.3434E-12	982.565E-3	-17.3673E-3
1.45323E-3	38.7401E-12	994.612E-3	-668.815E-6	38.4275E-12	981.658E-3	-20.6979E-3
1.44822E-3	38.3147E-12	1.00361E+0	-14.2829E-3	38.2013E-12	991.176E-3	-17.5408E-3
1.44322E-3	38.4851E-12	999.189E-3	-24.5916E-3	37.7417E-12	986.621E-3	-17.8128E-3
1.43822E-3	38.3891E-12	984.538E-3	-5.89340E-3	37.7012E-12	972.514E-3	-20.7744E-3
1.43322E-3	38.2037E-12	984.824E-3	6.61847E-3	37.3595E-12	961.728E-3	-16.9780E-3
1.42821E-3	37.7203E-12	1.00537E+0	-12.3644E-3	37.5158E-12	963.025E-3	-15.4000E-3
1.42321E-3	37.1434E-12	1.01560E+0	-25.6330E-3	37.0450E-12	969.887E-3	-28.4257E-3
1.41821E-3	36.8327E-12	1.00020E+0	-29.6749E-3	36.4980E-12	967.879E-3	-36.2473E-3
1.41321E-3	36.1203E-12	979.469E-3	-35.5696E-3	35.9559E-12	965.227E-3	-21.6076E-3
1.40820E-3	35.7370E-12	965.986E-3	-28.6656E-3	35.8819E-12	949.857E-3	-2.82458E-3
1.40320E-3	35.1872E-12	952.033E-3	-9.17216E-3	35.5705E-12	926.736E-3	6.88754E-3
1.39820E-3	34.9235E-12	945.126E-3	-4.98005E-3	34.9922E-12	919.260E-3	1.06074E-3
1.39320E-3	34.6471E-12	947.279E-3	-16.6623E-3	34.2920E-12	918.456E-3	-7.97997E-3
1.38819E-3	34.3956E-12	944.244E-3	-14.3639E-3	34.1376E-12	917.199E-3	-5.39097E-3
1.38319E-3	33.6160E-12	943.523E-3	1.99728E-3	33.9303E-12	914.612E-3	-11.1872E-3
1.37819E-3	33.2577E-12	947.665E-3	10.3225E-3	33.5846E-12	908.420E-3	-21.7490E-3
1.37319E-3	33.5121E-12	937.676E-3	-5.23038E-3	32.8742E-12	904.064E-3	-30.0211E-3
1.36818E-3	33.4178E-12	926.803E-3	-14.2398E-3	32.7260E-12	901.172E-3	-37.5718E-3
1.36318E-3	32.8791E-12	930.474E-3	4.93353E-3	32.7192E-12	891.570E-3	-27.0524E-3
1.35818E-3	32.5160E-12	933.516E-3	14.1816E-3	32.4367E-12	873.817E-3	-3.17384E-3
1.35318E-3	32.7393E-12	920.637E-3	-863.875E-6	31.8622E-12	858.929E-3	8.64954E-3
1.34817E-3	32.9611E-12	898.168E-3	-9.56159E-3	31.5984E-12	841.892E-3	-3.39009E-3
1.34317E-3	32.3715E-12	885.297E-3	-10.4566E-3	31.3878E-12	829.849E-3	-21.7183E-3
1.33817E-3	31.8068E-12	885.367E-3	-10.9234E-3	31.1062E-12	842.551E-3	-24.7724E-3
1.33317E-3	31.6742E-12	884.598E-3	-688.677E-6	30.8249E-12	846.439E-3	-25.2900E-3
1.32816E-3	31.5497E-12	879.794E-3	-7.13564E-3	30.5244E-12	819.333E-3	-34.5924E-3
1.32316E-3	31.0965E-12	875.141E-3	-27.7913E-3	30.4446E-12	803.510E-3	-38.7745E-3
1.31816E-3	30.3792E-12	863.403E-3	-16.9255E-3	30.3158E-12	815.721E-3	-38.0799E-3
1.31316E-3	30.2698E-12	840.272E-3	5.56763E-3	30.1005E-12	818.483E-3	-34.2453E-3
1.30815E-3	29.7483E-12	821.563E-3	-1.93563E-3	29.8635E-12	805.847E-3	-23.1237E-3
1.30315E-3	29.4798E-12	821.800E-3	-25.5034E-3	29.6885E-12	795.542E-3	-9.39919E-3
1.29815E-3	29.0778E-12	822.857E-3	-31.6318E-3	29.3439E-12	773.229E-3	-1.43695E-3
1.29315E-3	28.6181E-12	810.240E-3	-15.1955E-3	29.1930E-12	754.273E-3	-9.59093E-3
1.28814E-3	28.2434E-12	787.842E-3	-2.81300E-3	28.9765E-12	755.201E-3	-17.8260E-3
1.28314E-3	28.2428E-12	762.178E-3	-4.96498E-3	28.7688E-12	737.218E-3	-12.7061E-3
1.27814E-3	28.1794E-12	749.299E-3	-10.9769E-3	28.4768E-12	698.542E-3	-11.2007E-3
1.27314E-3	27.8012E-12	745.447E-3	-12.8145E-3	28.2262E-12	670.250E-3	-16.6030E-3
1.26813E-3	27.3297E-12	735.160E-3	-10.5080E-3	28.0347E-12	652.041E-3	-9.86185E-3
1.26313E-3	27.3373E-12	715.651E-3	-20.0866E-3	27.5418E-12	638.317E-3	8.69379E-3
1.25813E-3	27.5708E-12	699.819E-3	-34.0054E-3	27.1114E-12	632.965E-3	13.4807E-3
1.25313E-3	27.3769E-12	692.784E-3	-29.7330E-3	26.7915E-12	621.451E-3	-2.06936E-3
1.24812E-3	26.6790E-12	684.418E-3	-28.8482E-3	26.5328E-12	605.521E-3	-17.0192E-3
1.24312E-3	26.4579E-12	673.226E-3	-41.8411E-3	26.0359E-12	600.005E-3	-15.7538E-3
1.23812E-3	26.7531E-12	662.528E-3	-43.7314E-3	25.8282E-12	594.122E-3	-7.31907E-3
1.23312E-3	26.7829E-12	654.278E-3	-34.1855E-3	25.9070E-12	578.171E-3	-3.77978E-3
1.22811E-3	25.9950E-12	641.508E-3	-25.9692E-3	25.6447E-12	557.497E-3	-5.07097E-3
1.22311E-3	25.7157E-12	628.199E-3	-25.1973E-3	25.5846E-12	539.467E-3	-11.2815E-3
1.21811E-3	25.7768E-12	611.437E-3	-25.8595E-3	25.3934E-12	531.430E-3	-20.2267E-3
1.21311E-3	25.6839E-12	585.064E-3	-25.6572E-3	25.3807E-12	534.129E-3	-26.7469E-3
1.20810E-3	25.2430E-12	567.325E-3	-22.3237E-3	25.4051E-12	529.417E-3	-26.9183E-3
1.20310E-3	24.8066E-12	562.182E-3	-16.4156E-3	25.2885E-12	505.622E-3	-25.8934E-3
1.19810E-3	24.6550E-12	556.514E-3	-25.1792E-3	25.0599E-12	490.604E-3	-21.1880E-3
1.19310E-3	24.7269E-12	543.045E-3	-22.6003E-3	25.0580E-12	496.603E-3	-15.4170E-3
1.18809E-3	24.8018E-12	523.304E-3	-7.76552E-3	25.0067E-12	488.423E-3	-21.7577E-3
1.18309E-3	24.5539E-12	507.524E-3	-13.8121E-3	24.6993E-12	465.298E-3	-26.2738E-3
1.17809E-3	24.1827E-12	503.928E-3	-15.0231E-3	24.3740E-12	447.021E-3	-20.6732E-3
1.17309E-3	24.1902E-12	494.856E-3	-968.576E-6	23.9813E-12	419.352E-3	-21.6962E-3
1.16808E-3	24.5026E-12	472.947E-3	-3.73894E-3	23.9190E-12	394.536E-3	-25.9361E-3
1.16308E-3	24.3563E-12	463.820E-3	-15.5734E-3	23.4420E-12	388.362E-3	-18.0336E-3
1.15808E-3	23.9059E-12	458.237E-3	-11.4679E-3	23.0912E-12	387.034E-3	-7.81291E-3
1.15308E-3	23.6542E-12	440.851E-3	-10.1211E-3	23.0272E-12	386.237E-3	-5.69878E-3
1.14807E-3	23.8061E-12	429.065E-3	-15.0580E-3	22.6154E-12	379.180E-3	-17.5489E-3
1.14307E-3	24.0187E-12	414.767E-3	-6.80191E-3	22.5756E-12	357.119E-3	-26.7281E-3
1.13807E-3	23.4942E-12	393.666E-3	-1.74006E-3	22.4666E-12	342.068E-3	-16.5457E-3
1.13307E-3	22.9973E-12	383.081E-3	-14.2188E-3	22.5674E-12	347.324E-3	-3.44053E-3
1.12806E-3	22.7428E-12	381.795E-3	-16.9323E-3	22.5254E-12	343.813E-3	748.256E-6
1.12306E-3	22.8285E-12	376.739E-3	-14.1201E-3	22.5830E-12	323.549E-3	-4.53684E-3
1.11806E-3	22.6310E-12	357.559E-3	-25.6778E-3	22.6898E-12	311.679E-3	-16.5408E-3
1.11306E-3	22.1956E-12	333.587E-3	-33.8419E-3	22.7827E-12	302.520E-3	-24.0769E-3
1.10805E-3	21.9524E-12	318.095E-3	-29.4403E-3	22.8266E-12	282.454E-3	-19.6300E-3
1.10305E-3	22.1122E-12	316.433E-3	-7.70328E-3	22.8711E-12	273.594E-3	-17.5538E-3
1.09805E-3	22.2448E-12	314.243E-3	8.71372E-3	22.8903E-12	272.845E-3	-25.8643E-3
1.09305E-3	21.8503E-12	301.737E-3	2.83160E-3	22.6139E-12	265.992E-3	-22.7650E-3
1.08804E-3	21.6525E-12	290.452E-3	-4.54137E-3	22.4489E-12	265.078E-3	-6.07640E-3
1.08304E-3	21.7557E-12	285.538E-3	-5.19328E-3	22.0338E-12	267.688E-3	-7.41608E-3
1.07804E-3	21.9947E-12	286.099E-3	-3.86073E-3	21.8633E-12	256.458E-3	-16.5336E-3
1.07304E-3	21.8167E-12	290.033E-3	-8.58092E-3	21.5277E-12	236.060E-3	-11.6610E-3
1.06803E-3	21.6205E-12	286.154E-3	-9.16956E-3	21.1959E-12	222.078E-3	-9.45332E-3
1.06303E-3	21.4805E-12	258.579E-3	1.23643E-3	20.8799E-12	212.052E-3	-8.92557E-3
1.05803E-3	21.4945E-12	230.588E-3	-211.556E-6	20.8319E-12	207.551E-3	-8.77345E-3
1.05303E-3	21.5469E-12	230.090E-3	-13.9583E-3	20.6995E-12	199.808E-3	-24.6366E-3
1.04802E-3	21.3086E-12	228.268E-3	-16.1388E-3	20.5031E-12	178.228E-3	-33.7760E-3
1.04302E-3	21.3068E-12	208.805E-3	-18.5190E-3	20.6333E-12	167.594E-3	-20.2613E-3
1.03802E-3	21.0956E-12	193.682E-3	-31.1332E-3	20.7319E-12	178.925E-3	-10.8551E-3
1.03302E-3	20.9580E-12	186.498E-3	-27.8476E-3	20.6940E-12	175.137E-3	-13.8189E-3
1.02801E-3	20.9580E-12	184.211E-3	-15.0318E-3	20.6595E-12	147.651E-3	-19.3900E-3
1.02301E-3	20.8843E-12	181.191E-3	-10.7732E-3	20.7519E-12	140.691E-3	-20.2428E-3
1.01801E-3	20.6803E-12	177.807E-3	-9.79054E-3	21.0030E-12	152.396E-3	-11.8011E-3
1.01301E-3	20.6143E-12	178.050E-3	-18.3930E-3	20.9386E-12	155.951E-3	-3.03409E-3
1.00800E-3	20.9177E-12	169.038E-3	-19.9128E-3	20.9817E-12	148.609E-3	-8.32364E-3
1.00300E-3	20.7769E-12	153.538E-3	-11.7508E-3	21.0254E-12	129.993E-3	-24.3270E-3
997.999E-6	20.6015E-12	141.937E-3	-23.0429E-3	21.1153E-12	114.115E-3	-18.5008E-3
992.997E-6	20.4655E-12	134.799E-3	-40.4630E-3	20.7845E-12	110.748E-3	-101.379E-6
987.994E-6	20.6327E-12	132.466E-3	-34.1082E-3	20.6280E-12	111.513E-3	-245.291E-6
982.991E-6	20.5414E-12	133.013E-3	-8.87058E-3	20.5455E-12	104.821E-3	-6.36280E-3
977.989E-6	20.3335E-12	127.552E-3	4.62057E-3	20.4035E-12	104.139E-3	-11.3505E-3
972.986E-6	20.1465E-12	117.525E-3	1.08112E-3	20.2625E-12	120.123E-3	-19.6602E-3
967.984E-6	20.0765E-12	116.024E-3	-7.02422E-3	19.8507E-12	129.560E-3	-18.0634E-3
962.981E-6	20.0000E-12	119.825E-3	-18.9781E-3	19.9714E-12	124.553E-3	-13.3881E-3
957.979E-6	19.7698E-12	122.843E-3	-22.6354E-3	19.9779E-12	114.896E-3	-14.9123E-3
952.976E-6	19.7370E-12	117.384E-3	-12.9068E-3	19.8289E-12	104.934E-3	-11.2420E-3
947.974E-6	19.8412E-12	106.359E-3	-5.45560E-3	19.6779E-12	104.921E-3	-12.0419E-3
942.971E-6	19.7030E-12	100.783E-3	-3.55344E-3	19.8808E-12	106.317E-3	-19.9613E-3
937.969E-6	19.7383E-12	100.040E-3	-3.95591E-3	19.8504E-12	104.710E-3	-13.9966E-3
932.966E-6	19.9452E-12	100.870E-3	-13.2653E-3	19.7863E-12	104.443E-3	-5.28446E-3
927.964E-6	19.9831E-12	104.808E-3	-17.1274E-3	19.8950E-12	97.2571E-3	-12.5617E-3
922.961E-6	19.9163E-12	110.613E-3	-14.2645E-3	20.0831E-12	84.8107E-3	-15.5036E-3
917.959E-6	20.0428E-12	122.132E-3	-25.3308E-3	20.0123E-12	90.2639E-3	-5.26782E-3
912.956E-6	20.1601E-12	132.652E-3	-28.7300E-3	19.7872E-12	109.341E-3	-2.11601E-3
907.954E-6	20.0733E-12	121.499E-3	-13.5146E-3	19.6854E-12	108.006E-3	-14.1753E-3
902.951E-6	19.8448E-12	103.908E-3	-5.20326E-3	19.7661E-12	98.2414E-3	-19.2973E-3
897.949E-6	20.0054E-12	104.636E-3	60.8874E-6	19.6867E-12	99.0125E-3	-12.6879E-3
892.946E-6	20.1475E-12	104.408E-3	10.5756E-3	19.5633E-12	98.6753E-3	-7.73779E-3
887.944E-6	19.9743E-12	92.8153E-3	7.19353E-3	19.4181E-12	102.704E-3	-10.5950E-3
882.941E-6	19.6769E-12	88.8130E-3	-6.85050E-3	19.5777E-12	109.236E-3	-15.2214E-3
877.939E-6	19.5469E-12	91.3650E-3	-8.16847E-3	19.6052E-12	98.0213E-3	-9.43496E-3
872.936E-6	19.5988E-12	92.7113E-3	-5.28257E-3	19.5363E-12	89.0778E-3	-13.2651E-3
867.934E-6	19.4146E-12	95.2193E-3	-6.60440E-3	19.4313E-12	98.6161E-3	-27.0226E-3
862.931E-6	19.4039E-12	94.1473E-3	-8.87599E-3	19.4312E-12	103.827E-3	-23.5619E-3
857.929E-6	19.2500E-12	83.3328E-3	-24.2285E-3	19.4350E-12	91.4970E-3	-9.20398E-3
852.926E-6	19.2722E-12	85.7182E-3	-33.4179E-3	19.4017E-12	87.2083E-3	-4.73919E-3
847.924E-6	19.2461E-12	103.445E-3	-19.2702E-3	19.3074E-12	95.3806E-3	-17.0829E-3
842.921E-6	19.3349E-12	100.732E-3	-15.6925E-3	19.2372E-12	97.9706E-3	-30.8414E-3
837.919E-6	19.2874E-12	86.1873E-3	-22.7816E-3	19.3039E-12	101.929E-3	-33.9713E-3
832.916E-6	19.2769E-12	84.9636E-3	-14.2956E-3	19.1124E-12	97.2578E-3	-33.1978E-3
827.914E-6	19.4581E-12	83.6389E-3	-4.40898E-3	19.1625E-12	91.2893E-3	-20.3115E-3
822.911E-6	19.3613E-12	79.7950E-3	-9.66627E-3	19.1615E-12	106.192E-3	-7.18633E-3
817.909E-6	19.4051E-12	82.5531E-3	-22.2627E-3	19.0508E-12	116.084E-3	-15.3693E-3
812.906E-6	19.4304E-12	93.0081E-3	-26.4535E-3	18.7860E-12	105.155E-3	-24.0102E-3
807.904E-6	19.3081E-12	108.915E-3	-29.3802E-3	18.9011E-12	106.736E-3	-18.5397E-3
802.901E-6	19.1564E-12	110.908E-3	-33.1994E-3	19.0605E-12	124.399E-3	-11.6718E-3
797.899E-6	19.1804E-12	106.703E-3	-27.7231E-3	18.9350E-12	128.503E-3	-13.2384E-3
792.896E-6	19.1185E-12	111.117E-3	-17.9915E-3	18.9047E-12	129.805E-3	-20.5527E-3
787.894E-6	18.8828E-12	109.458E-3	-5.12755E-3	19.0861E-12	143.564E-3	-22.1065E-3
782.891E-6	18.7843E-12	102.268E-3	-4.49363E-3	19.2926E-12	146.470E-3	-13.5680E-3
777.889E-6	18.8387E-12	106.936E-3	-12.3384E-3	19.2362E-12	145.828E-3	-7.34528E-3
772.886E-6	18.6911E-12	117.858E-3	-10.4537E-3	19.2087E-12	156.204E-3	-8.30415E-3
767.884E-6	18.5537E-12	121.734E-3	-13.2359E-3	19.3028E-12	158.839E-3	-14.1064E-3
762.881E-6	18.5792E-12	124.984E-3	-28.2791E-3	19.2531E-12	151.012E-3	-21.6402E-3
757.879E-6	18.5392E-12	135.852E-3	-32.8114E-3	19.1753E-12	144.471E-3	-23.1421E-3
752.876E-6	18.5279E-12	143.544E-3	-16.1417E-3	18.8841E-12	142.089E-3	-21.7299E-3
747.874E-6	18.6110E-12	137.201E-3	-298.898E-6	18.8842E-12	146.424E-3	-23.1885E-3
742.871E-6	18.6504E-12	142.143E-3	-3.51985E-3	18.5525E-12	153.909E-3	-28.6281E-3
737.869E-6	18.6747E-12	158.657E-3	-18.0940E-3	18.3061E-12	150.783E-3	-27.9084E-3
732.866E-6	18.6231E-12	166.064E-3	-25.4365E-3	18.1144E-12	153.824E-3	-10.7576E-3
727.864E-6	18.4627E-12	169.218E-3	-23.8586E-3	17.9754E-12	170.060E-3	-1.45153E-3
722.861E-6	18.5047E-12	166.077E-3	-17.5028E-3	17.7899E-12	174.418E-3	-11.0793E-3
717.859E-6	18.6548E-12	159.256E-3	-5.30094E-3	17.8025E-12	179.500E-3	-12.3652E-3
712.856E-6	18.3981E-12	159.199E-3	4.49092E-3	17.8530E-12	186.967E-3	-11.9233E-3
707.854E-6	18.1290E-12	163.174E-3	-4.33699E-3	17.8006E-12	188.971E-3	-21.8173E-3
702.851E-6	18.1536E-12	167.779E-3	-15.9772E-3	17.7934E-12	193.109E-3	-24.8309E-3
697.849E-6	18.2114E-12	174.117E-3	-13.6044E-3	17.9671E-12	206.428E-3	-19.6481E-3
692.846E-6	17.9649E-12	182.786E-3	-9.64313E-3	18.2266E-12	219.429E-3	-25.4529E-3
687.844E-6	17.7801E-12	191.840E-3	-8.91930E-3	18.2446E-12	220.733E-3	-29.1924E-3
682.841E-6	17.6724E-12	197.934E-3	-12.6279E-3	18.2529E-12	234.957E-3	-9.81948E-3
677.839E-6	17.8937E-12	204.734E-3	-14.1396E-3	18.2846E-12	244.676E-3	9.69938E-3
672.836E-6	17.6698E-12	207.483E-3	-13.7232E-3	18.6742E-12	231.137E-3	8.95213E-3
667.834E-6	17.5582E-12	208.502E-3	-17.6852E-3	18.6395E-12	238.470E-3	-1.53035E-3
662.831E-6	17.5333E-12	219.430E-3	-25.1082E-3	18.2151E-12	265.160E-3	-9.60053E-3
657.829E-6	17.6232E-12	231.282E-3	-34.6105E-3	17.9646E-12	274.930E-3	-19.4627E-3
652.826E-6	17.3765E-12	240.491E-3	-34.8532E-3	17.8750E-12	275.695E-3	-19.1215E-3
647.824E-6	17.3384E-12	252.515E-3	-18.7630E-3	17.6439E-12	276.993E-3	-20.8801E-3
642.821E-6	17.4859E-12	263.378E-3	-5.91622E-3	17.2337E-12	281.645E-3	-36.0251E-3
637.819E-6	17.4066E-12	269.113E-3	-7.24282E-3	16.9848E-12	286.674E-3	-34.7446E-3
632.816E-6	17.0579E-12	269.340E-3	-16.1505E-3	16.7235E-12	280.806E-3	-27.6035E-3
627.814E-6	16.8913E-12	265.114E-3	-21.5073E-3	16.4753E-12	275.868E-3	-27.1433E-3
622.811E-6	16.7581E-12	269.648E-3	-18.6757E-3	16.1065E-12	293.333E-3	-28.7252E-3
617.809E-6	16.7044E-12	284.381E-3	-20.1664E-3	16.0911E-12	316.321E-3	-29.9460E-3
612.806E-6	16.4924E-12	296.861E-3	-24.4195E-3	16.0818E-12	321.123E-3	-14.5954E-3
607.804E-6	16.3825E-12	303.438E-3	-23.1518E-3	16.0104E-12	323.348E-3	7.47028E-3
602.801E-6	16.3443E-12	306.533E-3	-24.9706E-3	16.0282E-12	335.445E-3	2.02982E-3
597.799E-6	16.2810E-12	312.327E-3	-32.6104E-3	16.1419E-12	348.111E-3	-12.6473E-3
592.796E-6	15.9793E-12	304.034E-3	-30.8099E-3	16.2921E-12	364.912E-3	-6.32586E-3
587.794E-6	16.0096E-12	294.232E-3	-24.7911E-3	16.1924E-12	385.185E-3	-8.31040E-3
582.791E-6	16.1675E-12	313.649E-3	-22.7481E-3	16.3918E-12	399.820E-3	-24.2859E-3
577.789E-6	16.0864E-12	337.974E-3	-9.79858E-3	16.3809E-12	410.131E-3	-23.4425E-3
572.786E-6	15.8415E-12	354.016E-3	3.50609E-3	16.2640E-12	417.448E-3	-17.5256E-3
567.784E-6	15.9121E-12	373.634E-3	-2.37361E-3	16.0154E-12	420.486E-3	-20.2515E-3
562.781E-6	15.8461E-12	391.248E-3	-15.5980E-3	15.9358E-12	419.240E-3	-24.1393E-3
557.779E-6	15.5759E-12	402.109E-3	-16.3969E-3	15.7857E-12	423.041E-3	-25.5973E-3
552.776E-6	15.3333E-12	400.530E-3	-4.74118E-3	15.5037E-12	422.092E-3	-15.1689E-3
547.774E-6	15.2459E-12	398.658E-3	-2.95325E-3	15.1918E-12	415.528E-3	-2.38191E-3
542.771E-6	15.1048E-12	411.939E-3	-14.0328E-3	14.9398E-12	427.261E-3	-2.10198E-3
537.769E-6	14.7929E-12	425.480E-3	-14.7127E-3	14.6721E-12	447.938E-3	-8.01451E-3
532.766E-6	14.5503E-12	425.764E-3	-11.3771E-3	14.3467E-12	456.976E-3	-118.495E-6
527.764E-6	14.3577E-12	417.848E-3	-10.6124E-3	14.1645E-12	457.915E-3	6.27237E-3
522.761E-6	14.3641E-12	420.202E-3	4.66975E-3	14.1222E-12	460.538E-3	-12.0814E-3
517.759E-6	14.1511E-12	429.308E-3	14.8069E-3	13.9385E-12	468.435E-3	-26.2485E-3
512.756E-6	13.9211E-12	431.779E-3	747.158E-6	13.7533E-12	486.845E-3	-26.9899E-3
507.754E-6	13.7366E-12	436.082E-3	-12.2208E-3	13.6964E-12	499.246E-3	-26.9729E-3
502.751E-6	13.6218E-12	449.283E-3	-16.4375E-3	13.7198E-12	491.761E-3	-14.2779E-3
497.749E-6	13.3504E-12	460.759E-3	-19.2439E-3	13.5847E-12	493.134E-3	-7.01241E-3
492.746E-6	13.1800E-12	467.785E-3	-16.3391E-3	13.3496E-12	510.617E-3	-21.6177E-3
487.744E-6	13.2232E-12	477.300E-3	-21.6421E-3	13.2635E-12	522.669E-3	-27.4426E-3
482.741E-6	13.0677E-12	487.931E-3	-36.3304E-3	13.3414E-12	523.433E-3	-24.0248E-3
477.739E-6	12.9590E-12	495.562E-3	-39.1659E-3	13.3060E-12	512.796E-3	-31.4538E-3
472.736E-6	12.7822E-12	494.891E-3	-23.6099E-3	13.0528E-12	508.430E-3	-38.5114E-3
467.734E-6	12.7185E-12	493.698E-3	-3.63135E-3	12.8297E-12	523.538E-3	-30.9132E-3
462.731E-6	12.4574E-12	505.833E-3	-335.632E-6	12.7130E-12	537.757E-3	-21.2550E-3
457.729E-6	12.3272E-12	520.277E-3	-6.35285E-3	12.6329E-12	536.341E-3	-25.2259E-3
452.726E-6	12.0593E-12	522.158E-3	-11.5795E-3	12.2727E-12	531.176E-3	-26.7184E-3
447.724E-6	11.8704E-12	521.730E-3	-19.7744E-3	12.0210E-12	541.182E-3	-28.0688E-3
442.721E-6	11.6945E-12	519.427E-3	-16.7804E-3	11.9711E-12	548.125E-3	-31.8591E-3
437.719E-6	11.4492E-12	515.091E-3	-13.7956E-3	11.9033E-12	545.220E-3	-18.6475E-3
432.716E-6	11.2972E-12	516.605E-3	-23.1659E-3	11.3972E-12	555.115E-3	-10.5127E-3
427.714E-6	11.0697E-12	515.888E-3	-25.9932E-3	11.2634E-12	566.683E-3	-18.6992E-3
422.711E-6	10.8892E-12	517.794E-3	-24.6289E-3	11.2364E-12	569.088E-3	-16.0878E-3
417.709E-6	10.6715E-12	524.254E-3	-28.6170E-3	11.1019E-12	570.957E-3	-8.79895E-3
412.706E-6	10.5569E-12	532.105E-3	-28.9031E-3	10.7814E-12	564.957E-3	-10.2455E-3
407.704E-6	10.4198E-12	545.771E-3	-17.3784E-3	10.5459E-12	549.215E-3	-10.8051E-3
402.701E-6	10.2744E-12	551.477E-3	-7.38925E-3	10.5853E-12	538.564E-3	-14.8709E-3
397.699E-6	10.1069E-12	549.722E-3	-11.7130E-3	10.3022E-12	535.604E-3	-23.7427E-3
392.696E-6	10.0013E-12	549.203E-3	-22.1580E-3	10.0003E-12	540.589E-3	-21.1355E-3
387.694E-6	9.87796E-12	540.031E-3	-22.1575E-3	9.84544E-12	547.554E-3	-14.0065E-3
382.691E-6	9.58531E-12	530.591E-3	-18.5500E-3	9.82654E-12	546.670E-3	-11.1760E-3
377.689E-6	9.33361E-12	533.861E-3	-18.3187E-3	9.51817E-12	545.341E-3	-5.44619E-3
372.686E-6	9.28336E-12	550.423E-3	-17.8493E-3	9.19838E-12	547.153E-3	-2.40799E-3
367.684E-6	9.08487E-12	562.086E-3	-19.5900E-3	9.11195E-12	549.023E-3	-6.11104E-3
362.681E-6	8.80726E-12	551.309E-3	-11.1918E-3	9.05340E-12	549.444E-3	-14.1821E-3
357.679E-6	8.56782E-12	545.238E-3	-2.66083E-3	8.71914E-12	553.286E-3	-19.9634E-3
352.676E-6	8.40639E-12	551.795E-3	-10.8626E-3	8.52386E-12	553.163E-3	-22.4087E-3
347.674E-6	8.30280E-12	538.764E-3	-25.8760E-3	8.55345E-12	545.362E-3	-25.9793E-3
342.671E-6	8.08952E-12	520.688E-3	-31.7237E-3	8.49086E-12	551.243E-3	-30.2835E-3
337.669E-6	7.85715E-12	533.532E-3	-27.4982E-3	8.10731E-12	556.456E-3	-26.6427E-3
332.666E-6	7.72349E-12	550.303E-3	-17.4895E-3	7.86049E-12	542.481E-3	-14.8006E-3
327.664E-6	7.66067E-12	541.400E-3	-11.1189E-3	7.80026E-12	531.649E-3	-8.80828E-3
322.661E-6	7.41470E-12	529.530E-3	-13.2360E-3	7.72825E-12	531.106E-3	-15.3175E-3
317.659E-6	7.32774E-12	525.749E-3	-9.24581E-3	7.27555E-12	521.025E-3	-27.0534E-3
312.656E-6	7.15637E-12	531.337E-3	-5.81764E-3	7.03163E-12	509.200E-3	-34.5190E-3
307.654E-6	6.99719E-12	543.795E-3	-16.2891E-3	6.83562E-12	507.639E-3	-32.5170E-3
302.651E-6	6.73824E-12	536.750E-3	-26.1358E-3	6.68895E-12	490.512E-3	-15.6842E-3
297.649E-6	6.58580E-12	519.377E-3	-21.8160E-3	6.30412E-12	472.895E-3	2.68495E-3
292.646E-6	6.48968E-12	511.983E-3	-15.3315E-3	6.09865E-12	477.430E-3	1.07349E-3
287.644E-6	6.25800E-12	505.980E-3	-11.6611E-3	5.96486E-12	476.726E-3	-10.5377E-3
282.641E-6	6.00318E-12	506.231E-3	-11.2637E-3	5.81705E-12	464.761E-3	-16.1879E-3
277.639E-6	5.87141E-12	515.647E-3	-20.5875E-3	5.61178E-12	461.104E-3	-14.7623E-3
272.636E-6	5.83605E-12	507.148E-3	-30.3140E-3	5.50510E-12	464.372E-3	-8.94543E-3
267.634E-6	5.57130E-12	479.870E-3	-35.3903E-3	5.52359E-12	466.994E-3	-6.05141E-3
262.631E-6	5.32999E-12	468.239E-3	-31.0948E-3	5.40382E-12	469.788E-3	-12.9888E-3
257.629E-6	5.20740E-12	468.092E-3	-24.4067E-3	5.27207E-12	455.682E-3	-21.2634E-3
252.626E-6	5.11896E-12	456.523E-3	-28.1966E-3	5.21012E-12	437.788E-3	-17.9794E-3
247.624E-6	4.98790E-12	452.757E-3	-32.3750E-3	5.24171E-12	443.113E-3	-14.8905E-3
242.621E-6	4.79384E-12	462.807E-3	-26.9569E-3	5.02927E-12	446.412E-3	-16.6838E-3
237.619E-6	4.81538E-12	461.205E-3	-13.2739E-3	4.86634E-12	432.671E-3	-14.8950E-3
232.616E-6	4.56513E-12	453.069E-3	-10.8001E-3	4.76113E-12	414.985E-3	-18.2970E-3
227.614E-6	4.41307E-12	452.941E-3	-22.6931E-3	4.66606E-12	401.352E-3	-28.4669E-3
222.611E-6	4.25537E-12	452.312E-3	-26.0527E-3	4.34900E-12	387.591E-3	-35.1769E-3
217.609E-6	4.13721E-12	443.551E-3	-18.0996E-3	4.05482E-12	371.896E-3	-33.3736E-3
212.606E-6	4.01947E-12	431.422E-3	-15.2643E-3	3.97524E-12	360.828E-3	-25.8002E-3
207.604E-6	3.85749E-12	408.386E-3	-19.7661E-3	3.81695E-12	354.403E-3	-22.3870E-3
202.601E-6	3.69990E-12	393.044E-3	-18.4005E-3	3.55443E-12	351.220E-3	-17.9893E-3
197.599E-6	3.63427E-12	405.035E-3	-5.58220E-3	3.29305E-12	348.751E-3	-9.69649E-3
192.596E-6	3.47845E-12	406.226E-3	-2.81200E-3	3.27693E-12	336.729E-3	-13.8602E-3
187.594E-6	3.26467E-12	380.230E-3	-15.2348E-3	3.22529E-12	329.707E-3	-26.8773E-3
182.591E-6	3.15817E-12	352.677E-3	-17.5652E-3	2.98489E-12	330.411E-3	-32.6965E-3
177.589E-6	3.07080E-12	339.088E-3	-12.0125E-3	2.93143E-12	314.467E-3	-26.8747E-3
172.586E-6	2.89048E-12	329.053E-3	-16.2000E-3	2.87545E-12	305.708E-3	-14.7037E-3
167.584E-6	2.77211E-12	313.773E-3	-22.4024E-3	2.85815E-12	322.566E-3	-13.7741E-3
162.581E-6	2.67728E-12	309.413E-3	-20.0999E-3	2.72755E-12	330.366E-3	-18.2716E-3
157.579E-6	2.62213E-12	316.651E-3	-18.5064E-3	2.62440E-12	324.236E-3	-8.47163E-3
152.576E-6	2.48760E-12	322.382E-3	-16.7823E-3	2.65933E-12	317.167E-3	-10.2797E-3
147.574E-6	2.37742E-12	321.320E-3	-8.48214E-3	2.58360E-12	307.531E-3	-27.8309E-3
142.571E-6	2.35258E-12	305.334E-3	-7.13011E-3	2.41471E-12	297.691E-3	-28.8672E-3
137.569E-6	2.31978E-12	287.376E-3	-21.5945E-3	2.32769E-12	283.059E-3	-22.6881E-3
132.566E-6	2.13096E-12	286.130E-3	-25.2956E-3	2.27999E-12	266.187E-3	-24.3444E-3
127.564E-6	2.01607E-12	289.987E-3	-13.4451E-3	2.12277E-12	264.682E-3	-23.2826E-3
122.561E-6	2.00000E-12	289.473E-3	-7.96415E-3	1.87470E-12	265.319E-3	-16.0532E-3
117.559E-6	1.88746E-12	282.811E-3	-5.74132E-3	1.83810E-12	242.210E-3	-11.5111E-3
112.556E-6	1.74405E-12	265.165E-3	-6.84229E-3	1.80593E-12	227.650E-3	-10.4973E-3
107.554E-6	1.58511E-12	256.190E-3	-14.3109E-3	1.63475E-12	233.383E-3	-8.46369E-3
102.551E-6	1.62535E-12	258.350E-3	-14.4186E-3	1.43896E-12	229.451E-3	-6.47984E-3
97.5488E-6	1.47958E-12	250.410E-3	-16.4617E-3	1.39994E-12	226.345E-3	547.520E-6
92.5463E-6	1.32950E-12	245.653E-3	-24.3968E-3	1.39000E-12	238.849E-3	5.32301E-3
87.5438E-6	1.25971E-12	253.409E-3	-17.8606E-3	1.28521E-12	252.837E-3	-4.72687E-3
82.5413E-6	1.20991E-12	255.986E-3	-10.6734E-3	1.12707E-12	250.638E-3	-10.3526E-3
77.5388E-6	1.18677E-12	248.664E-3	-18.6406E-3	1.11866E-12	244.403E-3	-1.60799E-3
72.5363E-6	963.621E-15	236.791E-3	-20.7670E-3	1.11335E-12	244.166E-3	-616.907E-6
67.5338E-6	934.943E-15	226.462E-3	-9.36884E-3	967.239E-15	236.561E-3	-5.81539E-3
62.5313E-6	889.254E-15	224.922E-3	-9.99550E-3	808.600E-15	225.996E-3	-8.32979E-3
57.5288E-6	756.912E-15	224.547E-3	-24.0291E-3	848.674E-15	220.729E-3	-6.77808E-3
52.5263E-6	703.489E-15	210.581E-3	-28.0228E-3	820.337E-15	222.708E-3	-2.69142E-3
47.5238E-6	661.994E-15	196.308E-3	-28.9513E-3	648.784E-15	226.509E-3	-5.78292E-3
42.5213E-6	587.017E-15	204.090E-3	-37.6327E-3	549.820E-15	220.162E-3	-18.3741E-3
37.5188E-6	501.262E-15	214.626E-3	-36.9289E-3	535.721E-15	216.574E-3	-29.4903E-3
32.5163E-6	398.793E-15	213.548E-3	-32.6571E-3	471.494E-15	227.076E-3	-32.1923E-3
27.5138E-6	360.550E-15	216.988E-3	-31.4117E-3	268.457E-15	235.991E-3	-31.6263E-3
22.5113E-6	285.363E-15	216.417E-3	-19.6779E-3	178.072E-15	237.344E-3	-24.2269E-3
17.5088E-6	163.197E-15	205.596E-3	-12.9591E-3	234.547E-15	240.372E-3	-24.5873E-3
12.5063E-6	96.5381E-15	198.997E-3	-15.5712E-3	156.823E-15	241.652E-3	-34.4900E-3
7.50375E-6	69.5518E-15	207.781E-3	-16.3231E-3	-22.4194E-15	241.392E-3	-31.3493E-3
2.50125E-6	-19.5072E-15	222.059E-3	-17.4812E-3	-66.2340E-15	241.696E-3	-26.6196E-3
-2.50125E-6	-202.464E-15	223.366E-3	-10.0885E-3	-64.1675E-15	232.393E-3	-31.0608E-3
-7.50375E-6	-266.490E-15	226.729E-3	-1.86335E-3	-238.170E-15	224.539E-3	-30.4699E-3
-12.5063E-6	-273.134E-15	235.667E-3	-13.3756E-3	-384.401E-15	236.419E-3	-21.2663E-3
-17.5088E-6	-360.040E-15	240.507E-3	-27.8111E-3	-390.784E-15	255.017E-3	-15.7102E-3
-22.5113E-6	-511.974E-15	243.173E-3	-30.0184E-3	-396.687E-15	261.219E-3	-12.7492E-3
-27.5138E-6	-576.313E-15	243.694E-3	-30.1485E-3	-502.958E-15	257.201E-3	-5.40952E-3
-32.5163E-6	-566.051E-15	254.730E-3	-26.0340E-3	-700.049E-15	264.550E-3	-9.47167E-3
-37.5188E-6	-677.292E-15	260.060E-3	-14.2517E-3	-782.063E-15	287.390E-3	-21.8199E-3
-42.5213E-6	-891.534E-15	249.697E-3	-4.72615E-3	-763.395E-15	300.458E-3	-14.1804E-3
-47.5238E-6	-967.566E-15	252.511E-3	-14.4075E-3	-919.200E-15	302.816E-3	-608.198E-6
-52.5263E-6	-951.819E-15	268.156E-3	-27.7604E-3	-1.08690E-12	312.999E-3	-4.10800E-3
-57.5288E-6	-1.09254E-12	271.662E-3	-28.2630E-3	-1.09423E-12	320.240E-3	-15.6575E-3
-62.5313E-6	-1.23147E-12	260.509E-3	-29.3738E-3	-1.14030E-12	323.580E-3	-29.9012E-3
-67.5338E-6	-1.33328E-12	262.270E-3	-30.3487E-3	-1.35023E-12	338.506E-3	-29.2766E-3
-72.5363E-6	-1.39548E-12	277.078E-3	-30.3980E-3	-1.51180E-12	346.764E-3	-12.2053E-3
-77.5388E-6	-1.51589E-12	291.052E-3	-23.4029E-3	-1.54694E-12	350.141E-3	-11.4281E-3
-82.5413E-6	-1.62712E-12	306.583E-3	-7.81211E-3	-1.64937E-12	368.782E-3	-26.3421E-3
-87.5438E-6	-1.75340E-12	319.449E-3	5.33337E-3	-1.83691E-12	385.986E-3	-28.7987E-3
-92.5463E-6	-1.91634E-12	336.509E-3	10.7865E-3	-2.07180E-12	400.746E-3	-22.0886E-3
-97.5488E-6	-2.04665E-12	360.497E-3	5.11255E-3	-2.06230E-12	417.556E-3	-23.0736E-3
-102.551E-6	-2.13942E-12	373.356E-3	-5.65355E-3	-2.18579E-12	426.168E-3	-25.3509E-3
-107.554E-6	-2.29788E-12	377.118E-3	-15.4654E-3	-2.39875E-12	447.510E-3	-25.0918E-3
-112.556E-6	-2.46782E-12	389.174E-3	-19.7173E-3	-2.56163E-12	478.710E-3	-23.7181E-3
-117.559E-6	-2.64201E-12	403.726E-3	-13.8189E-3	-2.56662E-12	479.391E-3	-21.7333E-3
-122.561E-6	-2.80111E-12	405.362E-3	-4.47096E-3	-2.75516E-12	457.012E-3	-18.8156E-3
-127.564E-6	-2.88104E-12	406.096E-3	-7.99872E-3	-2.92936E-12	452.915E-3	-20.7439E-3
-132.566E-6	-3.05820E-12	420.189E-3	-25.0401E-3	-3.07403E-12	477.312E-3	-24.5779E-3
-137.569E-6	-3.30430E-12	434.931E-3	-40.7951E-3	-3.09160E-12	507.504E-3	-14.6074E-3
-142.571E-6	-3.42046E-12	458.126E-3	-39.4079E-3	-3.31143E-12	525.561E-3	-6.95818E-3
-147.574E-6	-3.48318E-12	481.282E-3	-16.9449E-3	-3.58005E-12	541.429E-3	-16.2191E-3
-152.576E-6	-3.68231E-12	490.173E-3	-1.32325E-3	-3.64549E-12	558.341E-3	-28.0405E-3
-157.579E-6	-3.82038E-12	506.929E-3	-9.93403E-3	-3.75584E-12	577.028E-3	-31.3672E-3
-162.581E-6	-3.99491E-12	523.335E-3	-14.9843E-3	-3.99717E-12	609.568E-3	-18.3095E-3
-167.584E-6	-4.12920E-12	519.671E-3	-11.5355E-3	-4.38526E-12	635.739E-3	1.12996E-3
-172.586E-6	-4.40062E-12	525.527E-3	-23.4805E-3	-4.58276E-12	655.031E-3	7.47769E-3
-177.589E-6	-4.68645E-12	558.422E-3	-36.0553E-3	-4.77981E-12	683.738E-3	259.870E-6
-182.591E-6	-4.86783E-12	590.088E-3	-33.3142E-3	-5.11319E-12	703.630E-3	-11.4661E-3
-187.594E-6	-5.01200E-12	604.390E-3	-26.0364E-3	-5.50163E-12	715.687E-3	-11.7904E-3
-192.596E-6	-5.23624E-12	610.623E-3	-17.5571E-3	-5.52019E-12	724.953E-3	-3.03323E-3
-197.599E-6	-5.51072E-12	625.341E-3	-14.7674E-3	-5.67415E-12	723.843E-3	-1.07925E-3
-202.601E-6	-5.74056E-12	642.899E-3	-21.0522E-3	-6.02172E-12	723.117E-3	-3.67510E-3
-207.604E-6	-5.95600E-12	654.500E-3	-20.7249E-3	-6.29097E-12	734.247E-3	-11.3432E-3
-212.606E-6	-6.17084E-12	667.920E-3	-11.6150E-3	-6.23446E-12	750.720E-3	-13.8922E-3
-217.609E-6	-6.42979E-12	687.025E-3	-5.35531E-3	-6.37307E-12	769.183E-3	-3.38188E-3
-222.611E-6	-6.68434E-12	711.653E-3	-4.54400E-3	-6.69075E-12	785.523E-3	4.58364E-3
-227.614E-6	-6.90640E-12	743.305E-3	-3.01007E-3	-6.87373E-12	791.126E-3	4.86693E-3
-232.616E-6	-7.20663E-12	767.751E-3	-7.31723E-3	-6.95610E-12	797.393E-3	921.003E-6
-237.619E-6	-7.38243E-12	777.055E-3	-6.83684E-3	-7.09920E-12	819.376E-3	-11.9240E-3
-242.621E-6	-7.66985E-12	787.894E-3	2.33741E-3	-7.55604E-12	854.945E-3	-22.3586E-3
-247.624E-6	-7.90427E-12	805.018E-3	-3.33762E-3	-7.82542E-12	880.697E-3	-17.7960E-3
-252.626E-6	-8.17111E-12	821.036E-3	-15.3898E-3	-8.06707E-12	885.640E-3	-11.8988E-3
-257.629E-6	-8.36586E-12	832.207E-3	-18.1188E-3	-8.43764E-12	908.124E-3	-12.4694E-3
-262.631E-6	-8.69992E-12	833.475E-3	-22.9958E-3	-8.90346E-12	951.216E-3	-13.5703E-3
-267.634E-6	-9.07331E-12	839.906E-3	-32.1832E-3	-9.25400E-12	977.987E-3	-15.7880E-3
-272.636E-6	-9.35514E-12	870.865E-3	-25.7527E-3	-9.70884E-12	991.876E-3	-15.2798E-3
-277.639E-6	-9.56917E-12	895.622E-3	-15.7540E-3	-10.1747E-12	1.00167E+0	-15.2833E-3
-282.641E-6	-9.87591E-12	905.273E-3	-26.4148E-3	-10.5231E-12	1.01363E+0	-22.9966E-3
-287.644E-6	-10.3680E-12	921.529E-3	-31.6987E-3	-10.7224E-12	1.03058E+0	-20.0488E-3
-292.646E-6	-10.7655E-12	933.788E-3	-23.2620E-3	-11.0181E-12	1.04007E+0	-15.5545E-3
-297.649E-6	-11.1000E-12	951.869E-3	-21.7099E-3	-11.5574E-12	1.03483E+0	-26.5748E-3
-302.651E-6	-11.3716E-12	982.344E-3	-25.6046E-3	-11.8404E-12	1.02375E+0	-31.1732E-3
-307.654E-6	-11.8432E-12	1.00327E+0	-32.0147E-3	-11.7251E-12	1.02294E+0	-22.2631E-3
-312.656E-6	-12.3671E-12	1.02364E+0	-28.1552E-3	-11.7783E-12	1.03067E+0	-15.9649E-3
-317.659E-6	-12.6144E-12	1.04858E+0	-10.7423E-3	-12.4245E-12	1.03518E+0	-15.3019E-3
-322.661E-6	-12.8368E-12	1.06657E+0	303.615E-6	-12.8147E-12	1.04385E+0	-5.50045E-3
-327.664E-6	-13.1786E-12	1.07705E+0	-6.10136E-3	-12.8084E-12	1.07290E+0	3.40445E-3
-332.666E-6	-13.5985E-12	1.07767E+0	-13.9457E-3	-12.9609E-12	1.09777E+0	-11.8616E-3
-337.669E-6	-13.9035E-12	1.06969E+0	-16.9154E-3	-13.5508E-12	1.09966E+0	-18.8362E-3
-342.671E-6	-14.2162E-12	1.07193E+0	-23.5923E-3	-14.3126E-12	1.10678E+0	-1.74228E-3
-347.674E-6	-14.4490E-12	1.08473E+0	-10.2139E-3	-14.6149E-12	1.12315E+0	-2.76565E-3
-352.676E-6	-14.8184E-12	1.08935E+0	7.58297E-3	-14.8916E-12	1.13901E+0	-23.5572E-3
-357.679E-6	-15.1896E-12	1.09750E+0	-7.44770E-3	-15.4840E-12	1.15192E+0	-24.5735E-3
-362.681E-6	-15.5083E-12	1.11408E+0	-26.5545E-3	-16.1460E-12	1.15037E+0	-20.3539E-3
-367.684E-6	-15.6939E-12	1.11560E+0	-26.3429E-3	-16.6968E-12	1.14336E+0	-23.3332E-3
-372.686E-6	-16.0317E-12	1.10108E+0	-26.4521E-3	-17.0093E-12	1.14356E+0	-12.1458E-3
-377.689E-6	-16.5558E-12	1.08867E+0	-23.5364E-3	-17.2902E-12	1.14142E+0	-4.36509E-3
-382.691E-6	-17.0604E-12	1.08717E+0	-17.8459E-3	-17.8057E-12	1.13243E+0	-9.37002E-3
-387.694E-6	-17.3814E-12	1.08875E+0	-28.3752E-3	-18.0066E-12	1.12975E+0	-10.8087E-3
-392.696E-6	-17.6439E-12	1.08642E+0	-34.4438E-3	-18.3076E-12	1.13458E+0	-9.83106E-3
-397.699E-6	-18.2051E-12	1.08475E+0	-20.9146E-3	-18.4927E-12	1.12634E+0	-9.95991E-3
-402.701E-6	-18.9151E-12	1.09263E+0	-4.23558E-3	-18.7449E-12	1.10142E+0	-16.3601E-3
-407.704E-6	-19.2005E-12	1.11926E+0	6.66797E-3	-18.9458E-12	1.08015E+0	-23.4901E-3
-412.706E-6	-19.3179E-12	1.14037E+0	9.85689E-3	-19.2148E-12	1.08604E+0	-18.0851E-3
-417.709E-6	-20.0051E-12	1.12654E+0	-1.54459E-3	-19.5421E-12	1.10865E+0	-11.2972E-3
-422.711E-6	-20.5836E-12	1.10911E+0	-10.2633E-3	-19.8746E-12	1.10776E+0	-9.88757E-3
-427.714E-6	-21.0850E-12	1.12207E+0	-5.26359E-3	-20.2487E-12	1.08908E+0	-9.34352E-3
-432.716E-6	-21.1765E-12	1.12947E+0	-4.02335E-3	-20.5611E-12	1.08348E+0	-9.95684E-3
-437.719E-6	-21.3758E-12	1.12429E+0	-9.14445E-3	-21.2218E-12	1.08728E+0	-20.2737E-3
-442.721E-6	-21.9250E-12	1.11932E+0	-13.7741E-3	-21.4353E-12	1.08875E+0	-32.4579E-3
-447.724E-6	-22.3118E-12	1.10820E+0	-16.3746E-3	-21.8757E-12	1.09230E+0	-19.6292E-3
-452.726E-6	-22.3726E-12	1.11379E+0	-19.9580E-3	-22.3475E-12	1.09101E+0	846.697E-6
-457.729E-6	-22.4587E-12	1.11848E+0	-19.9061E-3	-23.0271E-12	1.07388E+0	-7.45828E-3
-462.731E-6	-22.9987E-12	1.09644E+0	-17.2053E-3	-23.2934E-12	1.05149E+0	-26.0135E-3
-467.734E-6	-23.4688E-12	1.07521E+0	-21.3397E-3	-23.6050E-12	1.03969E+0	-28.0436E-3
-472.736E-6	-23.6583E-12	1.06989E+0	-29.7221E-3	-24.2114E-12	1.04391E+0	-21.6274E-3
-477.739E-6	-23.8659E-12	1.06120E+0	-28.6107E-3	-24.5673E-12	1.04162E+0	-17.6623E-3
-482.741E-6	-24.2778E-12	1.04844E+0	-19.2076E-3	-24.7890E-12	1.02246E+0	-22.9937E-3
-487.744E-6	-24.6467E-12	1.04507E+0	-15.5426E-3	-24.9777E-12	1.00792E+0	-27.9036E-3
-492.746E-6	-24.9555E-12	1.03817E+0	-15.1381E-3	-25.5363E-12	995.963E-3	-21.5119E-3
-497.749E-6	-25.2653E-12	1.02286E+0	-15.2456E-3	-25.8037E-12	982.120E-3	-9.89998E-3
-502.751E-6	-25.4800E-12	1.01063E+0	-7.72567E-3	-25.9816E-12	966.295E-3	-2.09199E-3
-507.754E-6	-25.9786E-12	996.757E-3	6.44982E-3	-26.2131E-12	945.731E-3	-3.58874E-3
-512.756E-6	-26.2878E-12	991.252E-3	2.33877E-3	-26.9399E-12	931.049E-3	-14.2981E-3
-517.759E-6	-26.7703E-12	995.146E-3	-8.18864E-3	-27.1967E-12	912.356E-3	-26.2972E-3
-522.761E-6	-26.9294E-12	982.674E-3	-11.5718E-3	-27.1506E-12	892.332E-3	-27.3939E-3
-527.764E-6	-27.1879E-12	961.244E-3	-19.1832E-3	-27.2660E-12	883.035E-3	-21.3388E-3
-532.766E-6	-27.4354E-12	949.401E-3	-19.8973E-3	-27.5668E-12	874.139E-3	-16.4193E-3
-537.769E-6	-27.7711E-12	934.283E-3	-19.8076E-3	-27.8423E-12	858.431E-3	-18.8607E-3
-542.771E-6	-27.9901E-12	909.248E-3	-25.4504E-3	-27.8715E-12	842.073E-3	-27.4789E-3
-547.774E-6	-28.0323E-12	897.754E-3	-16.0105E-3	-28.0466E-12	834.574E-3	-19.0087E-3
-552.776E-6	-28.3429E-12	893.105E-3	-2.71901E-3	-28.1153E-12	822.732E-3	-4.02631E-3
-557.779E-6	-28.7545E-12	875.520E-3	-8.01359E-3	-28.3475E-12	798.581E-3	-13.0308E-3
-562.781E-6	-29.0983E-12	864.154E-3	-25.3026E-3	-28.6770E-12	784.662E-3	-31.2525E-3
-567.784E-6	-29.5291E-12	854.072E-3	-39.7828E-3	-29.2363E-12	785.433E-3	-31.3753E-3
-572.786E-6	-30.1117E-12	825.156E-3	-37.4521E-3	-29.6346E-12	774.381E-3	-14.4082E-3
-577.789E-6	-30.5587E-12	805.916E-3	-21.2456E-3	-29.8840E-12	751.569E-3	-5.68748E-3
-582.791E-6	-30.8181E-12	796.832E-3	-11.8862E-3	-30.5059E-12	725.040E-3	-15.9510E-3
-587.794E-6	-30.9983E-12	778.021E-3	-16.3975E-3	-30.8338E-12	706.963E-3	-25.4627E-3
-592.796E-6	-31.1846E-12	770.012E-3	-25.2048E-3	-31.2524E-12	702.525E-3	-21.8652E-3
-597.799E-6	-31.1556E-12	764.492E-3	-29.0352E-3	-31.4422E-12	690.162E-3	-10.7845E-3
-602.801E-6	-31.3421E-12	744.203E-3	-25.4775E-3	-32.0520E-12	661.720E-3	590.856E-6
-607.804E-6	-31.5302E-12	721.152E-3	-21.0010E-3	-32.5248E-12	633.024E-3	6.79580E-3
-612.806E-6	-31.8790E-12	696.086E-3	-24.2088E-3	-32.8514E-12	625.289E-3	-4.81163E-3
-617.809E-6	-31.8854E-12	678.216E-3	-35.5295E-3	-32.9499E-12	626.612E-3	-28.9108E-3
-622.811E-6	-32.0032E-12	673.520E-3	-45.4835E-3	-32.9177E-12	617.508E-3	-35.7287E-3
-627.814E-6	-32.1549E-12	664.198E-3	-37.4309E-3	-33.3071E-12	595.201E-3	-16.4685E-3
-632.816E-6	-32.4918E-12	645.057E-3	-23.2909E-3	-33.3726E-12	569.723E-3	-579.258E-6
-637.819E-6	-32.6576E-12	626.792E-3	-21.6893E-3	-33.2705E-12	560.049E-3	-4.96968E-3
-642.821E-6	-32.7211E-12	621.822E-3	-13.7943E-3	-33.0033E-12	556.992E-3	-18.9178E-3
-647.824E-6	-32.9670E-12	610.802E-3	-5.14425E-3	-33.2555E-12	534.355E-3	-30.4872E-3
-652.826E-6	-33.7288E-12	582.541E-3	-6.68100E-3	-33.1362E-12	497.737E-3	-21.3595E-3
-657.829E-6	-34.0357E-12	562.588E-3	-10.5066E-3	-33.0848E-12	479.659E-3	-1.20435E-3
-662.831E-6	-34.0794E-12	548.204E-3	-8.61731E-3	-33.2369E-12	477.255E-3	-423.611E-6
-667.834E-6	-34.2272E-12	526.795E-3	-6.66331E-3	-33.4506E-12	465.703E-3	-6.76690E-3
-672.836E-6	-34.5272E-12	504.359E-3	-13.0373E-3	-33.8563E-12	453.397E-3	-2.64564E-3
-677.839E-6	-34.6947E-12	489.604E-3	-9.20544E-3	-34.0544E-12	446.740E-3	8.60257E-3
-682.841E-6	-34.5262E-12	492.271E-3	-3.53894E-3	-34.5503E-12	428.346E-3	11.8062E-3
-687.844E-6	-34.6492E-12	489.911E-3	-3.49931E-3	-34.9921E-12	407.113E-3	3.44298E-3
-692.846E-6	-34.7669E-12	461.059E-3	-6.07550E-3	-35.7076E-12	400.935E-3	-9.28965E-3
-697.849E-6	-34.9486E-12	431.810E-3	-16.1648E-3	-35.9420E-12	388.932E-3	-13.7232E-3
-702.851E-6	-34.7760E-12	424.973E-3	-15.3008E-3	-36.2464E-12	368.978E-3	4.26102E-3
-707.854E-6	-34.8221E-12	422.981E-3	-4.52507E-3	-36.5872E-12	368.225E-3	11.1472E-3
-712.856E-6	-35.2084E-12	409.871E-3	-10.4136E-3	-36.8164E-12	376.331E-3	-5.62871E-3
-717.859E-6	-35.4154E-12	396.300E-3	-27.4443E-3	-36.8647E-12	362.001E-3	-15.3561E-3
-722.861E-6	-35.4640E-12	375.083E-3	-35.7584E-3	-36.7675E-12	323.351E-3	-11.4595E-3
-727.864E-6	-35.7695E-12	345.592E-3	-35.6319E-3	-36.7884E-12	286.794E-3	-5.04859E-3
-732.866E-6	-36.2261E-12	328.816E-3	-20.4484E-3	-36.2538E-12	271.645E-3	-4.88926E-3
-737.869E-6	-36.1395E-12	325.214E-3	-1.69513E-3	-36.1739E-12	267.014E-3	-13.4969E-3
-742.871E-6	-36.1721E-12	333.126E-3	-6.65227E-3	-35.6597E-12	274.863E-3	-32.1220E-3
-747.874E-6	-36.5938E-12	341.667E-3	-22.4074E-3	-35.4733E-12	289.412E-3	-38.4424E-3
-752.876E-6	-37.2390E-12	324.764E-3	-26.2966E-3	-35.0931E-12	277.990E-3	-18.0462E-3
-757.879E-6	-37.1209E-12	303.551E-3	-15.5412E-3	-35.1983E-12	250.621E-3	-4.89446E-3
-762.881E-6	-36.9937E-12	299.201E-3	-9.36345E-3	-35.4527E-12	235.093E-3	-8.23322E-3
-767.884E-6	-36.9768E-12	289.053E-3	-8.51127E-3	-35.4695E-12	229.284E-3	-14.1431E-3
-772.886E-6	-37.2169E-12	269.511E-3	-1.71912E-3	-35.6917E-12	229.921E-3	-16.7320E-3
-777.889E-6	-37.1148E-12	264.008E-3	-6.35947E-3	-36.1334E-12	237.556E-3	-12.1515E-3
-782.891E-6	-36.9192E-12	269.397E-3	-15.8487E-3	-36.8998E-12	236.397E-3	-8.35222E-3
-787.894E-6	-36.8784E-12	259.875E-3	-13.8411E-3	-37.3244E-12	222.975E-3	-15.4940E-3
-792.896E-6	-36.5580E-12	251.097E-3	-9.07190E-3	-37.5667E-12	221.110E-3	-27.8524E-3
-797.899E-6	-36.6562E-12	252.443E-3	-7.67605E-3	-37.8109E-12	223.535E-3	-19.2160E-3
-802.901E-6	-36.8291E-12	233.636E-3	-8.14339E-3	-38.2384E-12	205.129E-3	-3.37734E-3
-807.904E-6	-36.9684E-12	210.432E-3	-10.1678E-3	-38.3714E-12	179.643E-3	-11.8307E-3
-812.906E-6	-36.8036E-12	219.265E-3	-13.2434E-3	-38.2004E-12	172.572E-3	-30.1068E-3
-817.909E-6	-37.1594E-12	226.301E-3	-11.8185E-3	-38.2817E-12	177.367E-3	-33.4608E-3
-822.911E-6	-37.6592E-12	211.155E-3	-14.2191E-3	-38.3196E-12	176.556E-3	-23.4575E-3
-827.914E-6	-37.6580E-12	211.109E-3	-13.8194E-3	-38.0215E-12	173.105E-3	-7.14697E-3
-832.916E-6	-37.7215E-12	214.521E-3	-6.67267E-3	-37.5170E-12	162.949E-3	5.55531E-3
-837.919E-6	-38.1004E-12	197.498E-3	-12.1885E-3	-37.3064E-12	156.932E-3	249.869E-6
-842.921E-6	-38.3697E-12	178.888E-3	-17.3222E-3	-37.2964E-12	166.803E-3	-15.6227E-3
-847.924E-6	-38.3457E-12	161.991E-3	-12.7846E-3	-36.7312E-12	178.798E-3	-17.9454E-3
-852.926E-6	-38.2526E-12	153.786E-3	-16.1177E-3	-36.4307E-12	169.620E-3	-7.98578E-3
-857.929E-6	-38.2569E-12	162.887E-3	-25.2404E-3	-36.5111E-12	147.512E-3	-12.7331E-3
-862.931E-6	-38.3202E-12	173.198E-3	-24.3454E-3	-36.6949E-12	143.491E-3	-21.0266E-3
-867.934E-6	-38.2030E-12	169.544E-3	-17.0511E-3	-36.8353E-12	140.582E-3	-20.3548E-3
-872.936E-6	-37.8750E-12	165.712E-3	-5.41753E-3	-37.1026E-12	138.861E-3	-25.7478E-3
-877.939E-6	-37.9439E-12	164.455E-3	6.27647E-3	-37.4075E-12	156.776E-3	-24.3618E-3
-882.941E-6	-37.8531E-12	159.464E-3	-7.18158E-3	-37.6421E-12	161.765E-3	-15.1563E-3
-887.944E-6	-38.2350E-12	160.545E-3	-32.7445E-3	-37.8250E-12	148.207E-3	-19.1825E-3
-892.946E-6	-37.8596E-12	160.963E-3	-26.9341E-3	-38.2951E-12	146.816E-3	-25.8904E-3
-897.949E-6	-38.0274E-12	147.884E-3	-10.9557E-3	-38.6473E-12	147.575E-3	-6.01478E-3
-902.951E-6	-38.0914E-12	143.303E-3	-19.4824E-3	-38.7616E-12	138.754E-3	25.4257E-3
-907.954E-6	-38.5592E-12	157.849E-3	-27.4843E-3	-38.6360E-12	133.641E-3	20.6843E-3
-912.956E-6	-38.6074E-12	154.525E-3	-19.8072E-3	-38.8396E-12	143.579E-3	-6.87826E-3
-917.959E-6	-38.7991E-12	147.123E-3	-19.9274E-3	-39.1729E-12	165.191E-3	-21.9645E-3
-922.961E-6	-39.0930E-12	158.874E-3	-19.0746E-3	-39.2587E-12	172.065E-3	-29.1122E-3
-927.964E-6	-39.1554E-12	153.394E-3	-13.0802E-3	-38.7526E-12	158.308E-3	-25.7897E-3
-932.966E-6	-39.4239E-12	140.231E-3	-19.8882E-3	-38.7850E-12	139.522E-3	-19.1103E-3
-937.969E-6	-39.6950E-12	143.955E-3	-24.8487E-3	-39.0340E-12	126.164E-3	-23.4109E-3
-942.971E-6	-39.7016E-12	142.760E-3	-17.8663E-3	-38.9235E-12	122.589E-3	-26.7693E-3
-947.974E-6	-39.6295E-12	134.030E-3	-17.5852E-3	-38.5938E-12	135.519E-3	-26.7110E-3
-952.976E-6	-39.4528E-12	134.115E-3	-17.5701E-3	-38.7050E-12	160.985E-3	-23.5415E-3
-957.979E-6	-39.3135E-12	138.836E-3	1.98020E-3	-38.9978E-12	163.277E-3	-12.1230E-3
-962.981E-6	-39.1906E-12	141.927E-3	7.93180E-3	-38.8250E-12	138.471E-3	-10.7076E-3
-967.984E-6	-39.2832E-12	151.749E-3	-8.21007E-3	-38.7641E-12	123.369E-3	-18.1996E-3
-972.986E-6	-39.0272E-12	154.613E-3	-12.7988E-3	-38.9003E-12	135.962E-3	-18.7534E-3
-977.989E-6	-39.1544E-12	145.804E-3	-16.7353E-3	-38.8956E-12	155.452E-3	-15.5729E-3
-982.991E-6	-39.2324E-12	153.594E-3	-26.6182E-3	-38.8668E-12	163.206E-3	-17.0890E-3
-987.994E-6	-39.1796E-12	160.690E-3	-26.4769E-3	-39.1921E-12	166.541E-3	-20.5190E-3
-992.997E-6	-39.1411E-12	164.083E-3	-25.2024E-3	-39.3141E-12	175.935E-3	-16.1970E-3
-997.999E-6	-39.2774E-12	174.632E-3	-25.0055E-3	-39.2614E-12	189.257E-3	-6.07347E-3
-1.00300E-3	-39.7743E-12	170.736E-3	-17.0954E-3	-39.2165E-12	197.819E-3	4.36709E-3
-1.00800E-3	-40.0264E-12	161.938E-3	-11.0482E-3	-39.6094E-12	192.148E-3	-4.43709E-3
-1.01301E-3	-39.9021E-12	163.237E-3	-9.61918E-3	-39.8891E-12	176.734E-3	-28.6068E-3
-1.01801E-3	-39.7107E-12	171.579E-3	-6.71527E-3	-39.8881E-12	175.633E-3	-40.5546E-3
-1.02301E-3	-40.3084E-12	177.398E-3	-23.8120E-3	-40.0933E-12	182.802E-3	-37.4481E-3
-1.02801E-3	-40.2316E-12	176.755E-3	-48.5581E-3	-40.2846E-12	185.929E-3	-32.5908E-3
-1.03302E-3	-40.1161E-12	172.432E-3	-32.3500E-3	-40.8715E-12	191.342E-3	-33.6575E-3
-1.03802E-3	-40.0553E-12	171.696E-3	-1.78455E-3	-40.8689E-12	198.336E-3	-29.4940E-3
-1.04302E-3	-40.2374E-12	187.178E-3	279.410E-6	-40.7717E-12	218.244E-3	-18.9822E-3
-1.04802E-3	-40.2741E-12	202.488E-3	-9.88643E-3	-40.9644E-12	239.003E-3	-20.6742E-3
-1.05303E-3	-40.1771E-12	194.576E-3	-19.1801E-3	-41.0614E-12	236.220E-3	-28.5647E-3
-1.05803E-3	-39.7350E-12	191.106E-3	-30.2259E-3	-41.0374E-12	229.798E-3	-31.7434E-3
-1.06303E-3	-39.7929E-12	202.246E-3	-33.0739E-3	-40.6762E-12	239.184E-3	-28.2065E-3
-1.06803E-3	-39.8926E-12	205.327E-3	-22.5219E-3	-40.5618E-12	258.792E-3	-18.6660E-3
-1.07304E-3	-39.9981E-12	212.319E-3	-17.0054E-3	-40.5404E-12	279.855E-3	-18.7176E-3
-1.07804E-3	-39.9649E-12	232.708E-3	-18.9214E-3	-40.4908E-12	286.127E-3	-16.5688E-3
-1.08304E-3	-39.8733E-12	244.741E-3	-11.7604E-3	-40.1948E-12	271.465E-3	1.68829E-3
-1.08804E-3	-40.1735E-12	247.408E-3	1.98873E-3	-39.9827E-12	262.608E-3	12.4889E-3
-1.09305E-3	-40.4427E-12	259.622E-3	12.0903E-3	-40.1741E-12	280.066E-3	-1.10998E-3
-1.09805E-3	-40.4639E-12	270.575E-3	1.20245E-3	-40.3349E-12	297.751E-3	-16.3230E-3
-1.10305E-3	-40.3421E-12	273.239E-3	-34.5196E-3	-40.4312E-12	304.266E-3	-4.86515E-3
-1.10805E-3	-40.3969E-12	276.641E-3	-51.8961E-3	-40.5310E-12	315.796E-3	8.31741E-3
-1.11306E-3	-40.6446E-12	284.032E-3	-32.4161E-3	-40.6199E-12	318.546E-3	-10.9679E-3
-1.11806E-3	-40.8036E-12	299.774E-3	-14.9644E-3	-41.1786E-12	323.324E-3	-33.3535E-3
-1.12306E-3	-40.6695E-12	314.043E-3	-12.9102E-3	-41.8014E-12	355.407E-3	-24.2878E-3
-1.12806E-3	-40.5630E-12	309.390E-3	-8.80242E-3	-42.2700E-12	392.576E-3	-5.20857E-3
-1.13307E-3	-40.8132E-12	296.995E-3	-10.0653E-3	-42.4614E-12	403.417E-3	1.85212E-3
-1.13807E-3	-40.9965E-12	297.801E-3	-23.3309E-3	-42.5309E-12	393.335E-3	5.38473E-3
-1.14307E-3	-41.2329E-12	308.316E-3	-19.2001E-3	-42.7926E-12	391.105E-3	3.53077E-3
-1.14807E-3	-41.2724E-12	326.753E-3	-4.67060E-3	-43.1545E-12	398.186E-3	-5.10319E-3
-1.15308E-3	-41.8433E-12	346.491E-3	-6.34381E-3	-42.7987E-12	407.196E-3	-9.74963E-3
-1.15808E-3	-42.2861E-12	349.759E-3	-2.74166E-3	-42.4549E-12	405.398E-3	-8.68563E-3
-1.16308E-3	-42.3678E-12	346.697E-3	9.56422E-3	-42.4433E-12	389.124E-3	-8.87110E-3
-1.16808E-3	-42.3098E-12	371.983E-3	14.9747E-3	-42.6837E-12	400.065E-3	-25.2634E-3
-1.17309E-3	-43.0882E-12	413.984E-3	7.70571E-3	-42.0953E-12	441.797E-3	-49.8387E-3
-1.17809E-3	-43.3083E-12	428.397E-3	-18.8242E-3	-41.9065E-12	462.866E-3	-53.3908E-3
-1.18309E-3	-43.7547E-12	427.634E-3	-39.7293E-3	-42.1285E-12	470.134E-3	-41.4599E-3
-1.18809E-3	-43.5855E-12	436.804E-3	-30.6124E-3	-42.3997E-12	489.485E-3	-36.2430E-3
-1.19310E-3	-43.6340E-12	449.791E-3	-16.6714E-3	-42.3776E-12	503.722E-3	-26.7005E-3
-1.19810E-3	-43.7932E-12	463.252E-3	-8.83290E-3	-42.5825E-12	517.535E-3	-11.3437E-3
-1.20310E-3	-43.5421E-12	467.870E-3	-11.6892E-3	-43.0901E-12	538.045E-3	-11.0943E-3
-1.20810E-3	-43.5008E-12	459.090E-3	-34.0862E-3	-43.5212E-12	556.910E-3	-11.9333E-3
-1.21311E-3	-43.2612E-12	463.399E-3	-48.0501E-3	-44.0918E-12	568.657E-3	-6.07080E-3
-1.21811E-3	-43.5535E-12	484.658E-3	-36.5066E-3	-44.6674E-12	572.323E-3	-11.7269E-3
-1.22311E-3	-43.1257E-12	504.967E-3	-22.4425E-3	-45.4681E-12	584.288E-3	-23.8280E-3
-1.22811E-3	-43.3552E-12	519.055E-3	-25.9794E-3	-45.6782E-12	618.316E-3	-22.4875E-3
-1.23312E-3	-43.8258E-12	516.136E-3	-33.3261E-3	-46.3540E-12	654.505E-3	-19.2458E-3
-1.23812E-3	-44.0771E-12	517.273E-3	-24.9172E-3	-46.3637E-12	658.512E-3	-23.5146E-3
-1.24312E-3	-44.0661E-12	539.361E-3	-8.13875E-3	-46.3557E-12	651.109E-3	-15.6474E-3
-1.24812E-3	-44.7060E-12	576.391E-3	-2.93104E-3	-46.1206E-12	664.979E-3	-9.09331E-3
-1.25313E-3	-45.7503E-12	609.627E-3	-8.95020E-3	-45.8470E-12	680.482E-3	-13.5879E-3
-1.25813E-3	-46.1389E-12	622.820E-3	-16.1162E-3	-46.1439E-12	687.333E-3	-10.0141E-3
-1.26313E-3	-46.4773E-12	635.882E-3	-12.8389E-3	-45.9104E-12	687.005E-3	-9.64744E-3
-1.26813E-3	-46.6443E-12	652.409E-3	951.163E-6	-45.5022E-12	686.454E-3	-17.0013E-3
-1.27314E-3	-47.3213E-12	665.521E-3	-1.14495E-3	-45.1365E-12	700.960E-3	-19.2317E-3
-1.27814E-3	-47.4758E-12	682.564E-3	-21.2543E-3	-45.2637E-12	723.913E-3	-19.5917E-3
-1.28314E-3	-47.7696E-12	702.570E-3	-36.3484E-3	-45.4146E-12	744.090E-3	-19.8950E-3
-1.28814E-3	-47.7524E-12	714.842E-3	-25.7809E-3	-45.7185E-12	757.310E-3	-20.2610E-3
-1.29315E-3	-47.9249E-12	724.285E-3	1.56644E-3	-45.8313E-12	776.400E-3	-30.4890E-3
-1.29815E-3	-47.9587E-12	745.542E-3	5.96217E-3	-46.2583E-12	798.460E-3	-38.8376E-3
-1.30315E-3	-47.2986E-12	768.351E-3	-15.6535E-3	-47.0247E-12	812.674E-3	-26.0774E-3
-1.30815E-3	-47.3499E-12	779.062E-3	-25.0249E-3	-47.6757E-12	831.719E-3	-8.70971E-3
-1.31316E-3	-47.3298E-12	786.468E-3	-13.6598E-3	-48.3613E-12	847.992E-3	-6.78369E-3
-1.31816E-3	-48.1342E-12	796.531E-3	4.13143E-3	-48.9610E-12	852.880E-3	-19.2652E-3
-1.32316E-3	-47.7272E-12	813.057E-3	16.9775E-3	-49.8026E-12	865.293E-3	-27.7058E-3
-1.32816E-3	-47.8506E-12	826.681E-3	19.6446E-3	-50.0905E-12	883.147E-3	-31.1209E-3
-1.33317E-3	-48.2956E-12	822.023E-3	16.6220E-3	-50.6313E-12	891.740E-3	-26.3016E-3
-1.33817E-3	-49.7183E-12	821.395E-3	8.84560E-3	-50.9363E-12	901.929E-3	-10.0660E-3
-1.34317E-3	-50.3515E-12	839.892E-3	-1.88620E-3	-50.9474E-12	920.942E-3	-3.11140E-3
-1.34817E-3	-50.5888E-12	866.917E-3	-8.01889E-3	-50.8651E-12	941.185E-3	-4.96201E-3
-1.35318E-3	-50.9525E-12	891.597E-3	-10.5480E-3	-51.2699E-12	946.957E-3	-8.69146E-3
-1.35818E-3	-51.1334E-12	900.767E-3	-16.5505E-3	-51.4961E-12	945.600E-3	-16.1007E-3
-1.36318E-3	-51.8886E-12	897.740E-3	-17.9963E-3	-50.8443E-12	946.470E-3	-18.2936E-3
-1.36818E-3	-52.4067E-12	906.812E-3	-16.4182E-3	-50.9390E-12	935.678E-3	-23.2688E-3
-1.37319E-3	-52.8597E-12	929.396E-3	-16.2989E-3	-51.0758E-12	929.430E-3	-33.4765E-3
-1.37819E-3	-52.9037E-12	939.772E-3	-17.7487E-3	-51.4439E-12	942.484E-3	-27.4906E-3
-1.38319E-3	-53.0449E-12	952.364E-3	-26.1469E-3	-51.1937E-12	957.748E-3	-10.4720E-3
-1.38819E-3	-53.6426E-12	975.281E-3	-22.6914E-3	-51.4415E-12	971.021E-3	-2.39335E-3
-1.39320E-3	-53.4602E-12	976.541E-3	-9.33212E-3	-51.9727E-12	981.438E-3	-9.62491E-3
-1.39820E-3	-53.2862E-12	979.047E-3	-14.2876E-3	-52.7580E-12	996.244E-3	-19.6267E-3
-1.40320E-3	-53.0981E-12	1.00286E+0	-28.4654E-3	-53.1317E-12	1.01875E+0	-15.1574E-3
-1.40820E-3	-53.7429E-12	1.01327E+0	-25.2262E-3	-53.2068E-12	1.02574E+0	-5.08843E-3
-1.41321E-3	-54.0897E-12	1.00641E+0	-13.9341E-3	-53.8985E-12	1.01873E+0	-3.72707E-3
-1.41821E-3	-53.8174E-12	1.01392E+0	-9.13242E-3	-54.5138E-12	1.02002E+0	-12.0609E-3
-1.42321E-3	-54.3904E-12	1.02583E+0	-14.5626E-3	-54.9492E-12	1.03031E+0	-22.1279E-3
-1.42821E-3	-55.0912E-12	1.01478E+0	-23.6925E-3	-55.1040E-12	1.03886E+0	-24.2302E-3
-1.43322E-3	-55.8593E-12	1.01085E+0	-26.3196E-3	-55.3225E-12	1.04002E+0	-17.8851E-3
-1.43822E-3	-55.4534E-12	1.02385E+0	-21.2344E-3	-55.9394E-12	1.03179E+0	-12.0206E-3
-1.44322E-3	-56.1855E-12	1.03129E+0	-10.5994E-3	-56.2677E-12	1.03813E+0	-11.6373E-3
-1.44822E-3	-56.8614E-12	1.04738E+0	-1.24772E-3	-56.7472E-12	1.06632E+0	-9.61019E-3
-1.45323E-3	-57.3575E-12	1.06490E+0	11.2642E-3	-56.9111E-12	1.08917E+0	-6.37710E-3
-1.45823E-3	-57.7678E-12	1.05805E+0	16.1971E-3	-57.4483E-12	1.08248E+0	-2.59739E-3
-1.46323E-3	-58.1770E-12	1.05486E+0	5.11115E-3	-58.1790E-12	1.05879E+0	7.22964E-3
-1.46823E-3	-58.8896E-12	1.06502E+0	-3.56917E-3	-58.9735E-12	1.05344E+0	-1.36118E-3
-1.47324E-3	-59.0978E-12	1.06805E+0	-13.3625E-3	-58.9351E-12	1.06360E+0	-32.6520E-3
-1.47824E-3	-59.7396E-12	1.07075E+0	-30.9880E-3	-58.8139E-12	1.06819E+0	-47.3558E-3
-1.48324E-3	-60.0360E-12	1.06665E+0	-42.0943E-3	-59.2752E-12	1.07234E+0	-40.7556E-3
-1.48824E-3	-60.5098E-12	1.05755E+0	-46.5003E-3	-60.0615E-12	1.06842E+0	-34.4998E-3
-1.49325E-3	-60.2017E-12	1.06513E+0	-45.8090E-3	-60.0864E-12	1.04577E+0	-28.2328E-3
-1.49825E-3	-60.4321E-12	1.07851E+0	-33.0767E-3	-59.7614E-12	1.04108E+0	-23.5210E-3
-1.50325E-3	-61.1162E-12	1.07510E+0	-27.1532E-3	-59.8321E-12	1.05132E+0	-24.9765E-3
-1.50825E-3	-61.5953E-12	1.06621E+0	-30.1653E-3	-60.4982E-12	1.05326E+0	-27.2302E-3
-1.51326E-3	-61.8016E-12	1.06841E+0	-8.94681E-3	-61.2545E-12	1.06183E+0	-23.5114E-3
-1.51826E-3	-61.6884E-12	1.07418E+0	12.9338E-3	-60.8999E-12	1.07034E+0	-14.3891E-3
-1.52326E-3	-62.6972E-12	1.07108E+0	-2.08056E-3	-61.1499E-12	1.06653E+0	-15.0748E-3
-1.52826E-3	-62.9378E-12	1.07587E+0	-23.3679E-3	-61.9224E-12	1.06919E+0	-27.4872E-3
-1.53327E-3	-62.3799E-12	1.07987E+0	-37.8473E-3	-63.1745E-12	1.07810E+0	-27.5622E-3
-1.53827E-3	-62.4450E-12	1.06714E+0	-51.2027E-3	-63.7819E-12	1.08072E+0	-22.2611E-3
-1.54327E-3	-63.0941E-12	1.05533E+0	-50.6036E-3	-64.1373E-12	1.08733E+0	-25.7496E-3
-1.54827E-3	-63.8651E-12	1.04404E+0	-44.9135E-3	-64.9462E-12	1.09884E+0	-25.5730E-3
-1.55328E-3	-63.2936E-12	1.04348E+0	-44.6998E-3	-66.4965E-12	1.10504E+0	-15.1356E-3
-1.55828E-3	-63.4075E-12	1.05909E+0	-34.0414E-3	-67.1269E-12	1.10547E+0	-1.08654E-3
-1.56328E-3	-64.0480E-12	1.06078E+0	-8.77759E-3	-66.9187E-12	1.09860E+0	3.37423E-3
-1.56828E-3	-64.7630E-12	1.04441E+0	-3.89206E-3	-66.9338E-12	1.07490E+0	1.88351E-3
-1.57329E-3	-65.1051E-12	1.04312E+0	-17.9881E-3	-67.0444E-12	1.04423E+0	-6.32479E-3
-1.57829E-3	-65.2641E-12	1.05945E+0	-23.9859E-3	-67.3104E-12	1.02754E+0	-22.2835E-3
-1.58329E-3	-65.6896E-12	1.05943E+0	-21.2576E-3	-67.5547E-12	1.02883E+0	-15.2808E-3
-1.58829E-3	-66.7950E-12	1.03974E+0	-12.8749E-3	-66.8551E-12	1.03074E+0	4.18456E-3
-1.59330E-3	-67.2882E-12	1.01944E+0	2.26842E-3	-66.1197E-12	1.00928E+0	-9.23488E-3
-1.59830E-3	-67.6846E-12	1.02302E+0	5.63262E-3	-66.0967E-12	983.535E-3	-29.8929E-3
-1.60330E-3	-68.3573E-12	1.04218E+0	-7.10795E-3	-66.6585E-12	985.730E-3	-24.7173E-3
-1.60830E-3	-69.6188E-12	1.02777E+0	-16.2085E-3	-66.9402E-12	998.629E-3	-14.9850E-3
-1.61331E-3	-70.0523E-12	1.00076E+0	-17.7956E-3	-66.4901E-12	997.193E-3	-11.3781E-3
-1.61831E-3	-70.0172E-12	1.00877E+0	-13.7465E-3	-66.3573E-12	989.473E-3	-5.37742E-3
-1.62331E-3	-70.2858E-12	1.03598E+0	-19.2058E-3	-67.6465E-12	993.663E-3	-12.0050E-3
-1.62831E-3	-70.4923E-12	1.05228E+0	-32.6927E-3	-69.0121E-12	1.00216E+0	-27.2597E-3
-1.63332E-3	-70.4010E-12	1.04261E+0	-30.5820E-3	-69.4142E-12	1.00677E+0	-16.1154E-3
-1.63832E-3	-70.1647E-12	1.01764E+0	-18.8553E-3	-69.7945E-12	997.263E-3	4.97803E-3
-1.64332E-3	-69.5839E-12	1.00047E+0	-11.1085E-3	-71.3397E-12	975.816E-3	8.77136E-3
-1.64832E-3	-69.2997E-12	995.606E-3	-7.30353E-3	-72.4903E-12	978.123E-3	3.68105E-3
-1.65333E-3	-69.1973E-12	992.252E-3	-6.48048E-3	-72.8882E-12	993.546E-3	3.31358E-3
-1.65833E-3	-69.2411E-12	974.149E-3	-9.51247E-3	-72.6616E-12	981.598E-3	7.48422E-3
-1.66333E-3	-69.3765E-12	948.911E-3	-15.2550E-3	-73.7196E-12	954.543E-3	5.73449E-3
-1.66833E-3	-69.7573E-12	938.656E-3	-9.95509E-3	-74.2332E-12	938.410E-3	-7.34711E-3
-1.67334E-3	-70.1322E-12	934.056E-3	4.83896E-3	-73.8032E-12	936.931E-3	-19.3128E-3
-1.67834E-3	-71.3757E-12	929.638E-3	8.82450E-3	-72.8642E-12	943.429E-3	-4.92361E-3
-1.68334E-3	-71.6630E-12	934.371E-3	1.72594E-3	-72.8793E-12	939.298E-3	15.2917E-3
-1.68834E-3	-71.8540E-12	942.002E-3	-10.8747E-3	-72.6672E-12	906.034E-3	12.3052E-3
-1.69335E-3	-72.5557E-12	944.522E-3	-27.3631E-3	-72.4713E-12	874.256E-3	-5.13743E-3
-1.69835E-3	-73.7046E-12	946.141E-3	-21.2054E-3	-72.1572E-12	885.971E-3	-16.4408E-3
-1.70335E-3	-74.8553E-12	945.566E-3	1.51233E-3	-71.6253E-12	913.681E-3	-19.4216E-3
-1.70835E-3	-75.1086E-12	948.104E-3	3.60355E-3	-71.7314E-12	915.428E-3	-14.2909E-3
-1.71336E-3	-75.3672E-12	954.658E-3	-15.6058E-3	-71.9957E-12	906.957E-3	141.331E-6
-1.71836E-3	-75.7888E-12	947.356E-3	-29.4086E-3	-73.2188E-12	909.834E-3	-5.26311E-3
-1.72336E-3	-76.7044E-12	941.443E-3	-22.7699E-3	-73.9918E-12	907.027E-3	-24.1320E-3
-1.72836E-3	-75.9377E-12	948.474E-3	-13.5773E-3	-74.2182E-12	902.571E-3	-26.9580E-3
-1.73337E-3	-75.9337E-12	940.661E-3	-5.69678E-3	-74.7279E-12	920.186E-3	-22.8015E-3
-1.73837E-3	-76.2068E-12	912.867E-3	4.38058E-3	-76.1825E-12	944.390E-3	-18.1979E-3
-1.74337E-3	-76.0449E-12	900.000E-3	13.1182E-3	-78.2405E-12	933.802E-3	-10.5495E-3
-1.74837E-3	-75.9880E-12	912.907E-3	20.6923E-3	-78.5204E-12	904.442E-3	-26.2343E-3
-1.75338E-3	-76.3482E-12	918.519E-3	14.0274E-3	-78.7510E-12	910.695E-3	-47.9975E-3
-1.75838E-3	-76.6883E-12	914.022E-3	-4.01117E-3	-79.3558E-12	933.710E-3	-35.5744E-3
-1.76338E-3	-76.7225E-12	896.424E-3	-16.1893E-3	-80.3444E-12	922.974E-3	-11.0184E-3
-1.76838E-3	-77.5032E-12	870.186E-3	-26.1892E-3	-80.6624E-12	892.564E-3	-4.71250E-3
-1.77339E-3	-78.4564E-12	874.181E-3	-26.1514E-3	-80.6637E-12	873.443E-3	-19.9989E-3
-1.77839E-3	-78.4832E-12	881.781E-3	-20.8261E-3	-80.1656E-12	877.269E-3	-32.6278E-3
-1.78339E-3	-78.6979E-12	871.503E-3	-31.8733E-3	-79.9740E-12	885.809E-3	-33.8142E-3
-1.78839E-3	-79.3968E-12	878.600E-3	-38.0024E-3	-80.0732E-12	884.555E-3	-28.5359E-3
-1.79340E-3	-80.9017E-12	891.508E-3	-22.5769E-3	-80.3420E-12	888.471E-3	-20.0184E-3
-1.79840E-3	-80.7543E-12	897.247E-3	-15.9155E-3	-79.8886E-12	894.240E-3	-26.5620E-3
-1.80340E-3	-80.6581E-12	908.816E-3	-17.1208E-3	-79.6677E-12	890.515E-3	-37.5240E-3
-1.80840E-3	-80.7647E-12	909.679E-3	-10.5945E-3	-80.1713E-12	878.521E-3	-33.2652E-3
-1.81341E-3	-81.9028E-12	900.505E-3	-21.1168E-3	-81.0480E-12	857.541E-3	-22.3832E-3
-1.81841E-3	-81.8958E-12	894.232E-3	-31.1684E-3	-81.3536E-12	842.580E-3	-24.7304E-3
-1.82341E-3	-81.4686E-12	897.085E-3	-11.7195E-3	-81.0038E-12	846.664E-3	-32.2265E-3
-1.82841E-3	-81.9182E-12	901.776E-3	20.0110E-3	-81.0102E-12	851.302E-3	-32.0534E-3
-1.83342E-3	-82.4930E-12	891.591E-3	36.6433E-3	-81.6118E-12	851.319E-3	-21.2807E-3
-1.83842E-3	-82.6278E-12	881.680E-3	13.8440E-3	-82.6737E-12	856.462E-3	1.18081E-3
-1.84342E-3	-82.4383E-12	877.049E-3	-17.8072E-3	-82.6485E-12	858.251E-3	6.55994E-3
-1.84842E-3	-82.6719E-12	871.690E-3	-34.7615E-3	-82.6550E-12	857.309E-3	-6.96587E-3
-1.85343E-3	-83.0163E-12	864.737E-3	-40.1610E-3	-84.1962E-12	866.524E-3	-11.6625E-3
-1.85843E-3	-83.1920E-12	856.785E-3	-32.9143E-3	-85.4886E-12	868.327E-3	-8.99424E-3
-1.86343E-3	-83.7341E-12	847.433E-3	-21.6512E-3	-85.1153E-12	855.725E-3	-10.1596E-3
-1.86843E-3	-84.7299E-12	834.744E-3	3.03279E-3	-84.9105E-12	849.281E-3	-13.1461E-3
-1.87344E-3	-85.3522E-12	829.366E-3	10.2207E-3	-85.1042E-12	851.078E-3	-17.2453E-3
-1.87844E-3	-85.5239E-12	830.262E-3	-19.8051E-3	-86.0421E-12	847.217E-3	-23.8512E-3
-1.88344E-3	-85.9794E-12	844.605E-3	-42.1246E-3	-85.6499E-12	830.097E-3	-25.9274E-3
-1.88844E-3	-85.6936E-12	861.331E-3	-47.0142E-3	-84.9881E-12	824.205E-3	-25.2027E-3
-1.89345E-3	-85.9445E-12	851.385E-3	-52.6986E-3	-85.3420E-12	827.001E-3	-19.0664E-3
-1.89845E-3	-85.7670E-12	842.388E-3	-44.4902E-3	-85.9429E-12	811.660E-3	-8.82610E-3
-1.90345E-3	-85.8359E-12	847.226E-3	-23.6501E-3	-85.7841E-12	800.552E-3	-16.6905E-3
-1.90845E-3	-86.1170E-12	834.631E-3	-14.0072E-3	-85.1093E-12	788.484E-3	-19.5066E-3
-1.91346E-3	-85.9227E-12	817.298E-3	-26.6020E-3	-85.2346E-12	781.146E-3	-446.620E-6
-1.91846E-3	-86.1814E-12	820.568E-3	-34.4297E-3	-85.5331E-12	806.168E-3	-9.62377E-3
-1.92346E-3	-86.1774E-12	822.271E-3	-27.7646E-3	-86.2352E-12	824.877E-3	-49.6369E-3
-1.92846E-3	-86.8622E-12	820.851E-3	-34.9669E-3	-85.6896E-12	820.048E-3	-53.0646E-3
-1.93347E-3	-86.2940E-12	829.745E-3	-30.7169E-3	-85.7965E-12	817.902E-3	-13.5792E-3
-1.93847E-3	-86.9285E-12	822.782E-3	-19.9385E-3	-86.9032E-12	813.496E-3	12.0810E-3
-1.94347E-3	-87.0635E-12	803.574E-3	-26.2525E-3	-87.2158E-12	808.788E-3	5.80998E-3
-1.94847E-3	-87.5477E-12	790.431E-3	-28.8117E-3	-87.9629E-12	801.784E-3	-15.6550E-3
-1.95348E-3	-88.4035E-12	773.955E-3	-28.9156E-3	-88.0577E-12	788.531E-3	-22.2129E-3
-1.95848E-3	-89.0989E-12	775.160E-3	-29.1823E-3	-89.9350E-12	801.237E-3	-14.8729E-3
-1.96348E-3	-89.9111E-12	787.672E-3	-27.6554E-3	-90.0841E-12	826.257E-3	-11.0588E-3
-1.96848E-3	-89.3686E-12	790.308E-3	-29.9046E-3	-90.3351E-12	822.729E-3	-7.34926E-3
-1.97349E-3	-89.7745E-12	797.522E-3	-23.7348E-3	-91.1143E-12	799.438E-3	-4.96694E-3
-1.97849E-3	-89.8374E-12	809.495E-3	-12.6867E-3	-91.5356E-12	793.958E-3	-9.83979E-3
-1.98349E-3	-90.4512E-12	812.435E-3	-10.3897E-3	-91.0586E-12	803.640E-3	-10.5731E-3
-1.98849E-3	-90.2294E-12	798.672E-3	-17.2519E-3	-91.5175E-12	791.289E-3	14.4746E-3
-1.99350E-3	-90.2148E-12	784.050E-3	-29.6622E-3	-91.9879E-12	786.966E-3	23.9146E-3
-1.99850E-3	-90.1755E-12	786.472E-3	-35.8057E-3	-91.4033E-12	800.927E-3	-9.46474E-3
-2.00350E-3	-90.2459E-12	787.974E-3	-26.8271E-3	-91.0732E-12	806.296E-3	-34.2047E-3
-2.00850E-3	-90.3649E-12	790.438E-3	-18.7302E-3	-91.0213E-12	807.148E-3	-34.6394E-3
-2.01351E-3	-90.4975E-12	782.477E-3	-13.9878E-3	-91.0353E-12	786.532E-3	-30.6691E-3
-2.01851E-3	-90.8220E-12	762.801E-3	-13.7627E-3	-90.7624E-12	758.611E-3	-16.0450E-3
-2.02351E-3	-91.0882E-12	764.347E-3	-21.8760E-3	-90.6227E-12	757.430E-3	-10.1310E-3
-2.02851E-3	-91.8252E-12	765.468E-3	-2.50198E-3	-90.9026E-12	767.205E-3	-28.4891E-3
-2.03352E-3	-92.3685E-12	769.609E-3	24.8697E-3	-91.0592E-12	771.139E-3	-46.0836E-3
-2.03852E-3	-92.2417E-12	792.927E-3	25.1795E-3	-91.9520E-12	779.590E-3	-39.8121E-3
-2.04352E-3	-93.1790E-12	801.047E-3	19.0593E-3	-91.2861E-12	787.669E-3	-33.0044E-3
-2.04852E-3	-94.6204E-12	790.502E-3	1.67329E-3	-92.7573E-12	787.304E-3	-39.5303E-3
-2.05353E-3	-94.9388E-12	789.536E-3	-15.5919E-3	-93.7215E-12	799.962E-3	-30.3258E-3
-2.05853E-3	-94.3749E-12	798.522E-3	-6.76678E-3	-95.0167E-12	815.769E-3	-12.4780E-3
-2.06353E-3	-94.5975E-12	806.774E-3	-7.06661E-3	-95.3365E-12	812.844E-3	9.10101E-3
-2.06853E-3	-95.5611E-12	812.458E-3	-29.2875E-3	-96.6265E-12	807.843E-3	12.9911E-3
-2.07354E-3	-95.3195E-12	806.678E-3	-34.8912E-3	-97.5100E-12	806.360E-3	-13.7211E-3
-2.07854E-3	-94.3818E-12	796.541E-3	-21.1614E-3	-97.7502E-12	803.733E-3	-29.3608E-3
-2.08354E-3	-94.6816E-12	796.733E-3	-14.5989E-3	-98.0627E-12	802.662E-3	-36.6998E-3
-2.08854E-3	-95.4823E-12	796.947E-3	-26.7449E-3	-98.7945E-12	796.944E-3	-46.8385E-3
-2.09355E-3	-95.0704E-12	779.749E-3	-33.7997E-3	-98.7389E-12	781.298E-3	-33.3763E-3
-2.09855E-3	-94.5182E-12	760.797E-3	-24.1269E-3	-98.1905E-12	766.643E-3	-7.87212E-3
-2.10355E-3	-95.7447E-12	764.184E-3	-25.3323E-3	-97.7706E-12	758.810E-3	9.15841E-3
-2.10855E-3	-96.1413E-12	770.011E-3	-40.5868E-3	-98.0898E-12	757.184E-3	21.5050E-3
-2.11356E-3	-96.0955E-12	758.702E-3	-44.2307E-3	-98.0899E-12	757.114E-3	23.8814E-3
-2.11856E-3	-96.2417E-12	751.384E-3	-34.0726E-3	-97.1946E-12	752.241E-3	6.08750E-3
-2.12356E-3	-96.5835E-12	756.996E-3	-17.4488E-3	-96.6724E-12	754.662E-3	-8.39247E-3
-2.12856E-3	-97.4943E-12	753.199E-3	-5.72920E-3	-96.4108E-12	766.914E-3	-6.90515E-3
-2.13357E-3	-98.0374E-12	744.724E-3	-4.95951E-3	-96.8211E-12	775.126E-3	-10.8716E-3
-2.13857E-3	-97.8895E-12	746.076E-3	-7.88862E-3	-97.5379E-12	771.706E-3	-14.5199E-3
-2.14357E-3	-97.7034E-12	756.316E-3	-13.3254E-3	-96.8083E-12	761.996E-3	-15.2779E-3
-2.14857E-3	-98.3598E-12	766.154E-3	-11.5532E-3	-97.3977E-12	759.847E-3	-24.7772E-3
-2.15358E-3	-98.8181E-12	774.908E-3	-7.12841E-3	-98.5190E-12	767.629E-3	-34.6422E-3
-2.15858E-3	-98.1327E-12	790.345E-3	-10.6943E-3	-98.8256E-12	777.685E-3	-20.8761E-3
-2.16358E-3	-98.1496E-12	785.995E-3	-17.1086E-3	-99.6663E-12	786.479E-3	-5.71057E-3
-2.16858E-3	-98.4082E-12	752.949E-3	-21.3902E-3	-100.322E-12	773.736E-3	-14.1576E-3
-2.17359E-3	-99.6054E-12	735.293E-3	-23.7675E-3	-101.542E-12	749.927E-3	-15.1421E-3
-2.17859E-3	-98.8983E-12	753.877E-3	-31.5172E-3	-101.866E-12	746.171E-3	-12.0566E-3
-2.18359E-3	-99.2494E-12	773.682E-3	-38.8324E-3	-102.313E-12	758.047E-3	-8.83587E-3
-2.18859E-3	-99.6697E-12	756.062E-3	-36.1092E-3	-102.342E-12	769.449E-3	-67.0426E-6
-2.19360E-3	-101.163E-12	728.666E-3	-34.2544E-3	-102.420E-12	765.274E-3	-9.00946E-3
-2.19860E-3	-101.476E-12	726.237E-3	-41.3164E-3	-102.399E-12	753.924E-3	-17.6838E-3
-2.20360E-3	-101.200E-12	734.024E-3	-36.2164E-3	-102.531E-12	743.781E-3	-20.2826E-3
-2.20860E-3	-102.386E-12	737.549E-3	-19.0370E-3	-101.506E-12	737.009E-3	-21.9342E-3
-2.21361E-3	-104.082E-12	744.902E-3	-16.5468E-3	-100.968E-12	741.275E-3	-13.3993E-3
-2.21861E-3	-103.618E-12	760.170E-3	-20.2722E-3	-101.093E-12	731.240E-3	-8.27852E-3
-2.22361E-3	-103.152E-12	768.299E-3	-16.0541E-3	-101.310E-12	716.053E-3	-4.88586E-3
-2.22861E-3	-103.819E-12	757.673E-3	-8.05698E-3	-100.492E-12	732.361E-3	-5.73158E-3
-2.23362E-3	-104.399E-12	739.321E-3	-8.48710E-3	-100.391E-12	749.084E-3	-16.8105E-3
-2.23862E-3	-104.407E-12	747.425E-3	-20.0759E-3	-100.292E-12	751.811E-3	-27.0216E-3
-2.24362E-3	-103.154E-12	764.251E-3	-27.0844E-3	-101.840E-12	751.837E-3	-29.1468E-3
-2.24862E-3	-102.360E-12	754.597E-3	-18.8329E-3	-101.521E-12	736.768E-3	-11.3609E-3
-2.25363E-3	-102.947E-12	738.161E-3	-6.61242E-3	-101.845E-12	725.211E-3	-350.185E-6
-2.25863E-3	-102.910E-12	725.324E-3	-4.65945E-3	-102.426E-12	735.853E-3	-16.6679E-3
-2.26363E-3	-102.915E-12	719.069E-3	-14.4782E-3	-103.917E-12	743.702E-3	-24.5416E-3
-2.26863E-3	-101.763E-12	723.085E-3	-29.1463E-3	-104.471E-12	743.981E-3	-12.3267E-3
-2.27364E-3	-102.095E-12	729.441E-3	-31.5818E-3	-105.163E-12	743.987E-3	-9.33904E-6
-2.27864E-3	-102.280E-12	731.181E-3	-17.5147E-3	-105.568E-12	725.449E-3	1.24761E-3
-2.28364E-3	-104.203E-12	728.746E-3	-4.94094E-3	-106.104E-12	705.645E-3	-5.36893E-3
-2.28864E-3	-105.107E-12	737.493E-3	-7.18568E-3	-106.602E-12	721.107E-3	-17.0296E-3
-2.29365E-3	-105.298E-12	741.002E-3	-7.55002E-3	-106.630E-12	739.974E-3	-21.2843E-3
-2.29865E-3	-106.298E-12	725.806E-3	6.65073E-3	-107.669E-12	733.882E-3	-10.4503E-3
-2.30365E-3	-107.251E-12	726.071E-3	9.20733E-3	-107.320E-12	726.010E-3	-8.44371E-3
-2.30865E-3	-108.496E-12	746.893E-3	-4.24783E-3	-107.198E-12	719.658E-3	-16.6092E-3
-2.31366E-3	-108.735E-12	745.886E-3	-11.3766E-3	-107.182E-12	716.879E-3	-11.4388E-3
-2.31866E-3	-109.080E-12	729.510E-3	-14.2681E-3	-107.362E-12	718.156E-3	-3.42221E-3
-2.32366E-3	-109.345E-12	727.459E-3	-18.6298E-3	-107.095E-12	716.652E-3	-9.09978E-3
-2.32866E-3	-109.526E-12	723.498E-3	-23.3583E-3	-106.491E-12	719.361E-3	-24.2386E-3
-2.33367E-3	-109.631E-12	719.910E-3	-16.0139E-3	-106.418E-12	731.301E-3	-41.3508E-3
-2.33867E-3	-109.041E-12	717.539E-3	-4.85829E-3	-106.535E-12	732.104E-3	-29.7371E-3
-2.34367E-3	-108.927E-12	707.695E-3	-21.1522E-3	-106.709E-12	719.515E-3	-1.02665E-3
-2.34867E-3	-108.179E-12	712.165E-3	-42.3205E-3	-106.948E-12	714.461E-3	1.03192E-3
-2.35368E-3	-107.765E-12	716.521E-3	-37.6728E-3	-108.495E-12	722.797E-3	-15.5981E-3
-2.35868E-3	-106.940E-12	710.659E-3	-34.0859E-3	-109.311E-12	734.066E-3	-15.3195E-3
-2.36368E-3	-107.159E-12	721.172E-3	-29.5813E-3	-109.773E-12	741.378E-3	-2.70156E-3
-2.36868E-3	-107.174E-12	721.790E-3	-9.73900E-3	-110.017E-12	750.450E-3	-7.73481E-3
-2.37369E-3	-107.694E-12	694.307E-3	9.83658E-3	-110.514E-12	736.306E-3	-19.2612E-3
-2.37869E-3	-108.526E-12	684.666E-3	7.89321E-3	-111.091E-12	717.854E-3	-18.3311E-3
-2.38369E-3	-109.037E-12	717.322E-3	-12.8338E-3	-112.127E-12	730.446E-3	-21.8535E-3
-2.38869E-3	-110.291E-12	731.014E-3	-17.1240E-3	-112.072E-12	742.053E-3	-22.7706E-3
-2.39370E-3	-110.632E-12	708.480E-3	-6.92730E-3	-112.615E-12	752.412E-3	-2.08958E-3
-2.39870E-3	-111.416E-12	706.280E-3	933.088E-6	-112.215E-12	760.598E-3	-1.44658E-3
-2.40370E-3	-111.739E-12	725.186E-3	10.0944E-3	-112.710E-12	729.208E-3	-11.1721E-3
-2.40870E-3	-113.207E-12	732.364E-3	1.98031E-3	-112.953E-12	709.486E-3	4.25199E-3
-2.41371E-3	-113.421E-12	727.517E-3	-10.3066E-3	-113.443E-12	721.880E-3	15.4748E-3
-2.41871E-3	-113.405E-12	722.361E-3	-4.88881E-3	-112.650E-12	707.137E-3	15.9841E-3
-2.42371E-3	-114.117E-12	710.531E-3	-2.97011E-3	-112.355E-12	686.295E-3	14.9345E-3
-2.42871E-3	-114.793E-12	704.567E-3	-677.752E-6	-112.337E-12	693.951E-3	1.64675E-3
-2.43372E-3	-113.517E-12	719.426E-3	-3.59666E-3	-112.737E-12	713.738E-3	-6.00397E-3
-2.43872E-3	-112.656E-12	728.814E-3	-15.2618E-3	-112.408E-12	725.599E-3	538.766E-6
-2.44372E-3	-112.839E-12	720.115E-3	-18.5460E-3	-112.236E-12	713.779E-3	-2.23148E-3
-2.44872E-3	-113.155E-12	718.156E-3	-21.5106E-3	-112.658E-12	691.676E-3	-17.0054E-3
-2.45373E-3	-113.173E-12	729.102E-3	-21.1935E-3	-113.087E-12	688.669E-3	-27.6498E-3
-2.45873E-3	-112.392E-12	726.945E-3	-15.2315E-3	-112.360E-12	698.286E-3	-26.3005E-3
-2.46373E-3	-112.838E-12	707.062E-3	-12.0659E-3	-113.116E-12	702.263E-3	-21.9309E-3
-2.46873E-3	-112.686E-12	680.626E-3	-13.3230E-3	-113.759E-12	705.967E-3	-2.87061E-3
-2.47374E-3	-113.204E-12	671.276E-3	-28.7536E-3	-114.295E-12	716.121E-3	7.84273E-3
-2.47874E-3	-113.585E-12	707.167E-3	-30.0448E-3	-113.444E-12	700.283E-3	-6.17138E-3
-2.48374E-3	-113.714E-12	730.677E-3	-3.85037E-3	-114.760E-12	673.542E-3	-10.2256E-3
-2.48874E-3	-114.772E-12	705.185E-3	-5.19917E-3	-115.656E-12	691.318E-3	-12.6376E-3
-2.49375E-3	-114.934E-12	684.837E-3	-20.1934E-3	-116.019E-12	690.300E-3	-16.5137E-3
-2.49875E-3	-115.498E-12	688.685E-3	-16.1277E-3	-116.146E-12	664.418E-3	-8.42638E-3
-2.50375E-3	-114.759E-12	706.791E-3	-21.6398E-3	-117.081E-12	689.373E-3	-12.4371E-3
-2.50875E-3	-116.117E-12	712.479E-3	-31.2724E-3	-117.637E-12	716.238E-3	-27.7865E-3
-2.51376E-3	-115.839E-12	701.067E-3	-32.3516E-3	-117.699E-12	711.628E-3	-30.6290E-3
-2.51876E-3	-116.430E-12	707.098E-3	-25.2462E-3	-117.906E-12	702.261E-3	-22.4022E-3
-2.52376E-3	-116.320E-12	705.821E-3	-15.5450E-3	-117.743E-12	685.245E-3	-14.9730E-3
-2.52876E-3	-116.838E-12	682.432E-3	-12.4203E-3	-117.699E-12	665.274E-3	-3.85183E-3
-2.53377E-3	-117.731E-12	684.114E-3	-32.2614E-6	-117.075E-12	669.838E-3	-1.08898E-3
-2.53877E-3	-117.754E-12	703.607E-3	26.5548E-3	-117.072E-12	692.525E-3	-28.7359E-3
-2.54377E-3	-118.512E-12	712.755E-3	31.9037E-3	-117.041E-12	692.905E-3	-41.3669E-3
-2.54877E-3	-117.852E-12	719.895E-3	15.8743E-3	-116.431E-12	690.527E-3	-23.3278E-3
-2.55378E-3	-118.484E-12	726.486E-3	-12.0786E-3	-116.050E-12	703.470E-3	-27.4778E-3
-2.55878E-3	-119.161E-12	715.755E-3	-50.4831E-3	-116.514E-12	708.477E-3	-35.9982E-3
-2.56378E-3	-119.189E-12	700.015E-3	-59.2573E-3	-117.002E-12	713.939E-3	-10.0524E-3
-2.56878E-3	-118.449E-12	702.923E-3	-48.5988E-3	-117.424E-12	715.629E-3	6.99727E-3
-2.57379E-3	-119.003E-12	701.142E-3	-39.4402E-3	-117.634E-12	710.192E-3	7.40279E-3
-2.57879E-3	-119.839E-12	694.522E-3	-29.7955E-3	-118.142E-12	718.970E-3	10.1475E-3
-2.58379E-3	-119.745E-12	703.896E-3	-30.5951E-3	-119.892E-12	731.752E-3	-1.88561E-3
-2.58879E-3	-118.425E-12	709.928E-3	-28.3117E-3	-121.202E-12	726.371E-3	-8.21401E-3
-2.59380E-3	-118.326E-12	704.704E-3	-32.5203E-3	-122.070E-12	716.127E-3	9.82068E-3
-2.59880E-3	-119.377E-12	701.474E-3	-42.8151E-3	-122.719E-12	715.711E-3	9.98276E-3
-2.60380E-3	-119.721E-12	708.176E-3	-28.9442E-3	-123.784E-12	703.537E-3	-11.0979E-3
-2.60880E-3	-119.578E-12	715.939E-3	-25.6869E-3	-124.384E-12	693.153E-3	-9.21653E-3
-2.61381E-3	-119.805E-12	710.617E-3	-32.0329E-3	-125.258E-12	707.548E-3	-8.91538E-3
-2.61881E-3	-121.455E-12	705.402E-3	-19.3330E-3	-125.184E-12	716.613E-3	-33.0764E-3
-2.62381E-3	-122.097E-12	713.716E-3	-22.0067E-3	-124.287E-12	704.224E-3	-39.6589E-3
-2.62881E-3	-121.836E-12	721.247E-3	-34.6292E-3	-125.021E-12	701.869E-3	-31.3515E-3
-2.63382E-3	-122.755E-12	733.473E-3	-26.8502E-3	-124.319E-12	715.822E-3	-50.2004E-3
-2.63882E-3	-123.929E-12	736.118E-3	-14.5129E-3	-123.535E-12	717.615E-3	-59.4643E-3
-2.64382E-3	-125.214E-12	713.016E-3	-14.7511E-3	-123.303E-12	713.236E-3	-33.8847E-3
-2.64882E-3	-124.677E-12	709.217E-3	-15.4326E-3	-123.483E-12	712.075E-3	-14.9942E-3
-2.65383E-3	-124.861E-12	730.520E-3	-10.1245E-3	-122.608E-12	717.515E-3	-2.54502E-3
-2.65883E-3	-125.473E-12	738.937E-3	-20.8814E-3	-121.817E-12	734.852E-3	-930.307E-6
-2.66383E-3	-127.726E-12	742.784E-3	-37.2046E-3	-122.171E-12	737.871E-3	-21.8363E-3
-2.66883E-3	-125.851E-12	735.065E-3	-42.6594E-3	-123.481E-12	714.850E-3	-35.6672E-3
-2.67384E-3	-125.494E-12	723.181E-3	-35.2929E-3	-124.390E-12	696.798E-3	-41.8454E-3
-2.67884E-3	-124.592E-12	727.392E-3	-9.87985E-3	-124.325E-12	704.015E-3	-46.1126E-3
-2.68384E-3	-125.025E-12	715.957E-3	3.97392E-3	-125.116E-12	710.568E-3	-43.8925E-3
-2.68884E-3	-124.108E-12	704.795E-3	799.822E-6	-126.032E-12	710.638E-3	-46.7538E-3
-2.69385E-3	-123.062E-12	704.400E-3	4.06677E-3	-128.315E-12	715.334E-3	-41.3403E-3
-2.69885E-3	-123.359E-12	695.532E-3	10.7646E-3	-128.720E-12	716.344E-3	-1.38698E-3
-2.70385E-3	-124.402E-12	683.881E-3	-4.92518E-3	-129.160E-12	721.379E-3	27.6314E-3
-2.70885E-3	-125.305E-12	679.048E-3	-33.2558E-3	-128.784E-12	735.009E-3	9.66836E-3
-2.71386E-3	-124.566E-12	689.802E-3	-39.6409E-3	-129.585E-12	731.087E-3	460.885E-6
-2.71886E-3	-125.321E-12	714.260E-3	-30.6508E-3	-129.966E-12	716.108E-3	11.4201E-3
-2.72386E-3	-125.939E-12	732.563E-3	-7.94870E-3	-129.597E-12	709.313E-3	632.254E-6
-2.72886E-3	-128.116E-12	729.017E-3	13.4716E-3	-128.010E-12	708.918E-3	-17.8624E-3
-2.73387E-3	-128.604E-12	715.520E-3	4.68170E-3	-126.905E-12	722.613E-3	-18.4849E-3
-2.73887E-3	-129.642E-12	703.258E-3	-10.6217E-3	-127.256E-12	723.104E-3	-23.9259E-3
-2.74387E-3	-129.634E-12	700.261E-3	-12.9995E-3	-127.106E-12	698.690E-3	-27.4929E-3
-2.74887E-3	-129.233E-12	717.165E-3	-19.3905E-3	-126.755E-12	693.109E-3	-16.1366E-3
-2.75388E-3	-130.530E-12	742.573E-3	-24.1898E-3	-125.859E-12	703.258E-3	-20.8163E-3
-2.75888E-3	-131.413E-12	732.688E-3	-11.3863E-3	-125.981E-12	691.510E-3	-30.6894E-3
-2.76388E-3	-131.784E-12	703.763E-3	-8.70997E-3	-127.192E-12	689.016E-3	-24.9722E-3
-2.76888E-3	-129.094E-12	700.767E-3	-15.1580E-3	-127.990E-12	718.416E-3	-16.7629E-3
-2.77389E-3	-128.901E-12	702.213E-3	-13.6843E-3	-127.999E-12	733.659E-3	-15.3788E-3
-2.77889E-3	-129.235E-12	714.791E-3	-20.5967E-3	-128.123E-12	727.985E-3	-15.8490E-3
-2.78389E-3	-128.944E-12	752.677E-3	-20.4624E-3	-129.465E-12	720.238E-3	-14.7417E-3
-2.78889E-3	-127.827E-12	765.843E-3	-6.36598E-3	-131.260E-12	699.975E-3	-23.0529E-3
-2.79390E-3	-127.909E-12	717.827E-3	-4.63853E-3	-131.374E-12	691.923E-3	-30.8317E-3
-2.79890E-3	-128.208E-12	666.167E-3	-11.2735E-3	-130.623E-12	702.115E-3	-30.6731E-3
-2.80390E-3	-130.143E-12	666.199E-3	-13.4748E-3	-132.550E-12	688.827E-3	-28.6480E-3
-2.80890E-3	-129.672E-12	687.227E-3	-22.6261E-3	-133.209E-12	674.067E-3	-9.16321E-3
-2.81391E-3	-129.749E-12	712.345E-3	-31.9681E-3	-132.797E-12	697.427E-3	2.66289E-3
-2.81891E-3	-130.651E-12	733.522E-3	-21.6108E-3	-132.730E-12	721.852E-3	-3.25077E-3
-2.82391E-3	-133.350E-12	728.031E-3	-10.3610E-3	-132.998E-12	706.677E-3	-7.14750E-3
-2.82891E-3	-134.889E-12	701.158E-3	-19.0631E-3	-132.915E-12	696.664E-3	-19.5979E-3
-2.83392E-3	-132.690E-12	692.815E-3	-28.7568E-3	-132.449E-12	718.030E-3	-39.3300E-3
-2.83892E-3	-133.317E-12	704.893E-3	-21.4924E-3	-132.422E-12	729.656E-3	-36.2705E-3
-2.84392E-3	-135.101E-12	701.828E-3	-19.1081E-3	-132.592E-12	732.402E-3	-4.57266E-3
-2.84892E-3	-137.343E-12	710.019E-3	-25.3909E-3	-132.650E-12	725.191E-3	13.0909E-3
-2.85393E-3	-134.949E-12	723.028E-3	-13.8339E-3	-132.660E-12	707.599E-3	4.77254E-3
-2.85893E-3	-134.575E-12	720.330E-3	-6.15225E-3	-131.360E-12	704.315E-3	-5.43968E-3
-2.86393E-3	-135.268E-12	719.074E-3	-18.7608E-3	-130.661E-12	701.278E-3	-3.21893E-3
-2.86893E-3	-136.307E-12	703.486E-3	-29.1265E-3	-131.353E-12	688.102E-3	8.23259E-3
-2.87394E-3	-135.050E-12	703.269E-3	-43.8569E-3	-132.657E-12	685.997E-3	9.61301E-3
-2.87894E-3	-133.321E-12	739.708E-3	-48.6256E-3	-133.212E-12	706.001E-3	-4.52692E-3
-2.88394E-3	-133.591E-12	749.330E-3	-25.5955E-3	-132.181E-12	715.418E-3	-22.0234E-3
-2.88894E-3	-134.620E-12	721.396E-3	-21.0690E-3	-133.131E-12	704.638E-3	-32.9452E-3
-2.89395E-3	-134.907E-12	715.028E-3	-35.5407E-3	-134.025E-12	696.160E-3	-20.2813E-3
-2.89895E-3	-134.272E-12	722.548E-3	-23.0136E-3	-135.312E-12	686.666E-3	-11.3842E-3
-2.90395E-3	-134.006E-12	699.441E-3	-12.2596E-3	-135.713E-12	681.305E-3	-24.9080E-3
-2.90895E-3	-134.687E-12	678.141E-3	-23.2780E-3	-136.563E-12	707.162E-3	-31.5500E-3
-2.91396E-3	-136.203E-12	685.434E-3	-15.9184E-3	-137.549E-12	737.514E-3	-33.5303E-3
-2.91896E-3	-136.307E-12	690.541E-3	-5.02416E-3	-138.521E-12	734.323E-3	-22.0766E-3
-2.92396E-3	-136.024E-12	706.191E-3	-17.5507E-3	-138.593E-12	725.610E-3	-6.94821E-3
-2.92896E-3	-136.149E-12	735.807E-3	-25.0879E-3	-139.960E-12	731.569E-3	-17.0996E-3
-2.93397E-3	-136.908E-12	737.275E-3	-31.9269E-3	-141.049E-12	740.883E-3	-36.5367E-3
-2.93897E-3	-139.387E-12	726.238E-3	-44.9771E-3	-141.202E-12	746.315E-3	-33.0650E-3
-2.94397E-3	-138.249E-12	728.002E-3	-34.8923E-3	-139.885E-12	730.923E-3	-21.6822E-3
-2.94897E-3	-137.153E-12	716.368E-3	-11.4957E-3	-139.430E-12	702.125E-3	-32.0790E-3
-2.95398E-3	-136.372E-12	691.860E-3	1.26984E-3	-138.817E-12	693.492E-3	-43.2598E-3
-2.95898E-3	-137.971E-12	692.076E-3	-1.85473E-3	-138.878E-12	698.524E-3	-28.6576E-3
-2.96398E-3	-138.208E-12	701.971E-3	-9.26184E-3	-137.257E-12	701.695E-3	-1.03960E-3
-2.96898E-3	-136.467E-12	707.657E-3	-6.62748E-3	-136.716E-12	710.094E-3	12.7417E-3
-2.97399E-3	-135.339E-12	715.030E-3	-11.9813E-3	-136.600E-12	715.753E-3	-1.65195E-3
-2.97899E-3	-136.316E-12	700.425E-3	-14.3117E-3	-137.496E-12	702.299E-3	-20.9802E-3
-2.98399E-3	-138.412E-12	679.721E-3	1.21369E-3	-136.549E-12	697.354E-3	-27.2696E-3
-2.98899E-3	-137.683E-12	689.363E-3	16.3673E-3	-136.409E-12	710.275E-3	-18.2131E-3
-2.99400E-3	-137.997E-12	706.150E-3	29.6038E-3	-137.897E-12	713.999E-3	5.78649E-3
-2.99900E-3	-138.649E-12	702.179E-3	15.8044E-3	-140.076E-12	709.879E-3	11.3206E-3
-3.00400E-3	-140.247E-12	699.357E-3	-6.01965E-3	-139.657E-12	703.928E-3	-4.61795E-3
-3.00900E-3	-141.000E-12	692.441E-3	-4.52256E-3	-139.722E-12	699.336E-3	-7.72637E-3
-3.01401E-3	-139.954E-12	679.665E-3	-8.09635E-3	-141.217E-12	699.178E-3	-2.63412E-3
-3.01901E-3	-140.186E-12	701.784E-3	-25.6897E-3	-143.550E-12	696.107E-3	-16.1895E-3
-3.02401E-3	-142.260E-12	719.950E-3	-23.1114E-3	-144.437E-12	692.910E-3	-28.9880E-3
-3.02901E-3	-143.187E-12	703.042E-3	7.77812E-3	-144.134E-12	706.294E-3	-33.4701E-3
-3.03402E-3	-143.297E-12	699.653E-3	18.4517E-3	-144.863E-12	714.137E-3	-50.6637E-3
-3.03902E-3	-142.438E-12	715.135E-3	-3.53480E-3	-145.107E-12	693.839E-3	-49.1562E-3
-3.04402E-3	-142.070E-12	716.276E-3	-19.1642E-3	-144.103E-12	690.111E-3	-15.3995E-3
-3.04902E-3	-142.401E-12	700.845E-3	-7.05939E-3	-143.205E-12	714.818E-3	12.6694E-3
-3.05403E-3	-143.322E-12	698.962E-3	12.9874E-3	-142.799E-12	715.037E-3	18.4353E-3
-3.05903E-3	-143.282E-12	699.026E-3	18.7367E-3	-142.135E-12	696.718E-3	9.38697E-3
-3.06403E-3	-142.944E-12	691.931E-3	6.12588E-3	-140.164E-12	701.440E-3	-5.14388E-3
-3.06903E-3	-142.699E-12	698.341E-3	-7.01191E-3	-140.393E-12	720.448E-3	-21.2240E-3
-3.07404E-3	-142.864E-12	696.197E-3	-8.84925E-3	-140.255E-12	707.349E-3	-23.4300E-3
-3.07904E-3	-143.218E-12	691.363E-3	-4.92968E-3	-139.377E-12	670.270E-3	-18.1707E-3
-3.08404E-3	-143.692E-12	710.525E-3	-4.43178E-3	-138.837E-12	657.275E-3	-17.9023E-3
-3.08904E-3	-143.117E-12	723.940E-3	-23.2374E-3	-139.626E-12	683.459E-3	-7.17621E-3
-3.09405E-3	-143.492E-12	714.685E-3	-54.8588E-3	-140.854E-12	721.345E-3	-12.5788E-3
-3.09905E-3	-143.519E-12	696.808E-3	-53.6222E-3	-141.212E-12	721.687E-3	-44.4281E-3
-3.10405E-3	-143.589E-12	687.363E-3	-18.0545E-3	-142.851E-12	693.520E-3	-48.7813E-3
-3.10905E-3	-143.345E-12	690.340E-3	331.264E-6	-143.980E-12	680.994E-3	-17.1198E-3
-3.11406E-3	-144.313E-12	696.258E-3	-1.87871E-3	-145.126E-12	684.768E-3	-1.95509E-3
-3.11906E-3	-145.388E-12	698.195E-3	-15.7929E-3	-147.062E-12	700.683E-3	-11.7383E-3
-3.12406E-3	-145.058E-12	696.021E-3	-28.3389E-3	-149.279E-12	728.065E-3	-23.4171E-3
-3.12906E-3	-144.492E-12	703.590E-3	-20.5534E-3	-148.918E-12	724.468E-3	-42.2174E-3
-3.13407E-3	-144.580E-12	706.482E-3	-11.6522E-3	-148.972E-12	705.041E-3	-51.3112E-3
-3.13907E-3	-145.823E-12	702.223E-3	-16.4682E-3	-149.416E-12	715.358E-3	-43.8369E-3
-3.14407E-3	-145.968E-12	695.154E-3	-33.8545E-3	-150.894E-12	716.686E-3	-36.2094E-3
-3.14907E-3	-145.917E-12	680.846E-3	-30.6386E-3	-151.389E-12	693.049E-3	-23.5692E-3
-3.15408E-3	-146.182E-12	684.780E-3	-13.8367E-3	-149.310E-12	683.578E-3	-10.2719E-3
-3.15908E-3	-147.000E-12	690.911E-3	-19.6877E-3	-148.300E-12	690.052E-3	-15.1690E-3
-3.16408E-3	-147.679E-12	691.835E-3	-19.6323E-3	-148.466E-12	692.102E-3	-21.0042E-3
-3.16908E-3	-147.910E-12	705.411E-3	-23.8302E-3	-148.352E-12	686.471E-3	-7.54679E-3
-3.17409E-3	-148.455E-12	715.224E-3	-26.9130E-3	-145.965E-12	685.263E-3	961.260E-6
-3.17909E-3	-149.052E-12	712.917E-3	-4.65361E-3	-145.320E-12	676.796E-3	2.27542E-3
-3.18409E-3	-149.256E-12	713.287E-3	2.55069E-3	-144.921E-12	658.185E-3	4.28244E-3
-3.18909E-3	-148.983E-12	722.344E-3	-14.3817E-3	-146.195E-12	660.057E-3	-13.8725E-3
-3.19410E-3	-149.032E-12	715.347E-3	-21.7743E-3	-146.427E-12	674.062E-3	-31.8529E-3
-3.19910E-3	-149.087E-12	687.354E-3	-31.8416E-3	-147.055E-12	699.285E-3	-23.4286E-3
-3.20410E-3	-147.291E-12	686.038E-3	-43.1975E-3	-148.284E-12	720.660E-3	-23.7961E-3
-3.20910E-3	-146.458E-12	705.326E-3	-27.7345E-3	-148.868E-12	705.564E-3	-26.0602E-3
-3.21411E-3	-147.033E-12	705.155E-3	-12.0599E-3	-151.015E-12	688.319E-3	-8.46051E-3
-3.21911E-3	-147.924E-12	702.497E-3	-20.1118E-3	-151.975E-12	690.241E-3	-15.3690E-3
-3.22411E-3	-147.252E-12	695.112E-3	-25.4463E-3	-153.122E-12	681.445E-3	-24.1988E-3
-3.22911E-3	-147.428E-12	686.699E-3	-8.99690E-3	-152.732E-12	680.145E-3	-10.2406E-3
-3.23412E-3	-148.882E-12	703.505E-3	5.23046E-3	-153.359E-12	715.003E-3	-31.0316E-3
-3.23912E-3	-151.178E-12	717.904E-3	-4.93498E-3	-155.000E-12	735.636E-3	-76.9110E-3
-3.24412E-3	-151.903E-12	713.728E-3	-22.5300E-3	-155.728E-12	727.582E-3	-77.2810E-3
-3.24912E-3	-151.638E-12	703.612E-3	-21.4842E-3	-154.430E-12	733.240E-3	-39.9041E-3
-3.25413E-3	-152.599E-12	686.257E-3	-18.1474E-3	-154.267E-12	734.096E-3	-31.1105E-3
-3.25913E-3	-153.855E-12	679.279E-3	-13.2035E-3	-154.732E-12	703.072E-3	-36.3547E-3
-3.26413E-3	-155.426E-12	680.977E-3	-7.54324E-3	-155.589E-12	690.346E-3	-19.1668E-3
-3.26913E-3	-155.165E-12	690.622E-3	-26.7125E-3	-153.939E-12	691.884E-3	-10.3798E-3
-3.27414E-3	-155.260E-12	704.880E-3	-53.6852E-3	-152.634E-12	670.982E-3	-5.76297E-3
-3.27914E-3	-154.309E-12	702.042E-3	-52.4033E-3	-150.775E-12	672.093E-3	-4.42300E-3
-3.28414E-3	-154.068E-12	705.688E-3	-33.0542E-3	-152.370E-12	684.252E-3	-30.8138E-3
-3.28914E-3	-153.614E-12	713.025E-3	-23.4607E-3	-150.933E-12	685.204E-3	-38.5747E-3
-3.29415E-3	-152.217E-12	710.305E-3	-26.2863E-3	-150.472E-12	697.734E-3	-23.6153E-3
-3.29915E-3	-150.358E-12	710.012E-3	-43.2642E-3	-149.670E-12	686.095E-3	-16.1553E-3
-3.30415E-3	-149.507E-12	696.441E-3	-45.2356E-3	-150.493E-12	639.804E-3	-906.982E-6
-3.30915E-3	-151.106E-12	676.356E-3	-21.8417E-3	-152.545E-12	627.772E-3	18.6408E-3
-3.31416E-3	-151.976E-12	673.186E-3	-7.40200E-3	-152.237E-12	651.497E-3	17.5914E-3
-3.31916E-3	-150.688E-12	684.898E-3	-8.80503E-3	-151.520E-12	671.338E-3	-2.74432E-3
-3.32416E-3	-150.492E-12	700.749E-3	-18.4895E-3	-152.594E-12	693.606E-3	-1.79419E-3
-3.32916E-3	-151.437E-12	709.913E-3	-14.2655E-3	-154.999E-12	712.316E-3	-6.57083E-3
-3.33417E-3	-154.359E-12	709.082E-3	5.27475E-3	-156.128E-12	698.937E-3	-16.5297E-3
-3.33917E-3	-154.293E-12	696.042E-3	1.58763E-3	-156.343E-12	679.004E-3	9.56361E-3
-3.34417E-3	-154.577E-12	682.817E-3	-24.0996E-3	-157.546E-12	692.610E-3	8.54434E-3
-3.34917E-3	-156.054E-12	689.654E-3	-34.4536E-3	-159.165E-12	693.826E-3	-13.1273E-3
-3.35418E-3	-158.693E-12	698.197E-3	-19.7795E-3	-160.508E-12	685.762E-3	-9.32977E-3
-3.35918E-3	-159.252E-12	699.816E-3	-528.269E-6	-159.680E-12	682.978E-3	-15.8967E-3
-3.36418E-3	-158.965E-12	722.203E-3	12.3946E-3	-159.828E-12	680.467E-3	-36.2472E-3
-3.36918E-3	-158.966E-12	720.616E-3	-6.26128E-3	-159.406E-12	697.186E-3	-19.7599E-3
-3.37419E-3	-159.077E-12	688.043E-3	-53.1419E-3	-158.657E-12	702.562E-3	12.7248E-3
-3.37919E-3	-159.785E-12	680.308E-3	-59.0695E-3	-157.681E-12	674.346E-3	20.4186E-3
-3.38419E-3	-158.399E-12	698.935E-3	-22.7911E-3	-157.913E-12	651.798E-3	20.2971E-3
-3.38919E-3	-156.498E-12	729.624E-3	-9.03073E-3	-157.290E-12	662.717E-3	3.17288E-3
-3.39420E-3	-155.703E-12	734.729E-3	-4.49493E-3	-155.338E-12	669.239E-3	-15.8745E-3
-3.39920E-3	-156.060E-12	701.005E-3	-1.42681E-3	-154.707E-12	668.221E-3	-2.12005E-3
-3.40420E-3	-155.699E-12	672.742E-3	-24.6843E-3	-155.885E-12	682.523E-3	11.9870E-3
-3.40920E-3	-154.710E-12	675.090E-3	-40.7930E-3	-156.963E-12	681.151E-3	-6.69833E-3
-3.41421E-3	-154.615E-12	681.282E-3	-35.8575E-3	-154.982E-12	681.515E-3	-32.7269E-3
-3.41921E-3	-154.751E-12	675.151E-3	-34.2339E-3	-155.642E-12	704.161E-3	-36.0120E-3
-3.42421E-3	-156.072E-12	674.277E-3	-32.1934E-3	-157.274E-12	712.151E-3	-33.9111E-3
-3.42921E-3	-157.284E-12	671.839E-3	-24.6866E-3	-160.032E-12	697.795E-3	-33.5601E-3
-3.43422E-3	-157.489E-12	657.496E-3	-23.9548E-3	-159.748E-12	688.446E-3	-33.4486E-3
-3.43922E-3	-158.478E-12	655.454E-3	-22.1792E-3	-161.239E-12	691.869E-3	-50.5535E-3
-3.44422E-3	-160.277E-12	673.782E-3	-15.0030E-3	-162.760E-12	677.014E-3	-49.0571E-3
-3.44922E-3	-160.507E-12	681.038E-3	-19.0827E-3	-163.977E-12	683.698E-3	-18.0155E-3
-3.45423E-3	-160.755E-12	685.021E-3	-19.3896E-3	-163.995E-12	713.324E-3	-16.5067E-3
-3.45923E-3	-161.057E-12	692.919E-3	-14.2247E-3	-164.680E-12	691.198E-3	-39.6534E-3
-3.46423E-3	-163.519E-12	687.955E-3	-13.5698E-3	-164.821E-12	685.220E-3	-47.3805E-3
-3.46923E-3	-163.857E-12	698.891E-3	-7.75189E-3	-164.941E-12	717.413E-3	-48.8444E-3
-3.47424E-3	-163.254E-12	716.735E-3	-17.2017E-3	-163.986E-12	719.123E-3	-29.0424E-3
-3.47924E-3	-161.855E-12	717.350E-3	-36.5516E-3	-162.850E-12	718.118E-3	-3.69921E-3
-3.48424E-3	-163.108E-12	707.392E-3	-21.2412E-3	-162.319E-12	711.842E-3	-11.2007E-3
-3.48924E-3	-163.385E-12	693.625E-3	14.6655E-3	-162.837E-12	683.495E-3	-6.18937E-3
-3.49425E-3	-161.881E-12	672.039E-3	2.55663E-3	-162.022E-12	674.712E-3	25.1464E-6
-3.49925E-3	-161.383E-12	668.452E-3	-26.1560E-3	-160.765E-12	688.421E-3	-27.0053E-3
-3.50425E-3	-162.563E-12	675.673E-3	-693.011E-6	-160.004E-12	686.368E-3	-43.6884E-3
-3.50925E-3	-162.453E-12	649.898E-3	17.0327E-3	-160.751E-12	672.892E-3	-39.9367E-3
-3.51426E-3	-161.219E-12	654.900E-3	3.24642E-3	-161.649E-12	685.146E-3	-35.4300E-3
-3.51926E-3	-161.369E-12	692.941E-3	3.23213E-3	-161.785E-12	683.329E-3	-34.4661E-3
-3.52426E-3	-161.824E-12	692.288E-3	2.50082E-3	-161.948E-12	644.737E-3	-29.3498E-3
-3.52926E-3	-161.877E-12	682.762E-3	-7.09010E-3	-162.747E-12	637.684E-3	-13.0872E-3
-3.53427E-3	-161.673E-12	673.581E-3	-4.87085E-3	-164.570E-12	673.989E-3	4.61385E-3
-3.53927E-3	-161.658E-12	645.367E-3	-6.49213E-3	-164.173E-12	696.753E-3	9.45112E-3
-3.54427E-3	-161.233E-12	644.020E-3	-33.2170E-3	-165.311E-12	700.369E-3	-13.6590E-3
-3.54927E-3	-161.492E-12	678.416E-3	-48.5652E-3	-165.423E-12	696.198E-3	-31.7200E-3
-3.55428E-3	-162.297E-12	696.137E-3	-38.7889E-3	-166.409E-12	693.345E-3	-15.9590E-3
-3.55928E-3	-162.907E-12	697.241E-3	-44.4112E-3	-167.273E-12	698.101E-3	-12.5017E-3
-3.56428E-3	-163.610E-12	698.467E-3	-47.5648E-3	-168.015E-12	680.503E-3	-23.4462E-3
-3.56928E-3	-164.827E-12	690.674E-3	-41.6687E-3	-168.287E-12	677.723E-3	-21.4617E-3
-3.57429E-3	-165.761E-12	690.771E-3	-52.0535E-3	-167.859E-12	720.482E-3	-36.6162E-3
-3.57929E-3	-166.179E-12	707.769E-3	-50.9462E-3	-168.285E-12	744.857E-3	-56.7114E-3
-3.58429E-3	-166.385E-12	707.851E-3	-28.9889E-3	-167.341E-12	729.193E-3	-43.7911E-3
-3.58929E-3	-168.103E-12	685.166E-3	-13.5537E-3	-167.688E-12	696.223E-3	-24.2853E-3
-3.59430E-3	-168.788E-12	684.927E-3	-26.9042E-3	-167.422E-12	648.081E-3	-8.06836E-3
-3.59930E-3	-169.910E-12	694.707E-3	-39.6501E-3	-167.343E-12	626.222E-3	29.0400E-3
-3.60430E-3	-169.245E-12	692.292E-3	-26.0038E-3	-165.420E-12	654.248E-3	44.1552E-3
-3.60930E-3	-168.337E-12	701.465E-3	-11.0087E-3	-165.609E-12	675.208E-3	-9.14287E-3
-3.61431E-3	-167.734E-12	697.383E-3	3.29224E-3	-166.699E-12	664.241E-3	-39.0435E-3
-3.61931E-3	-168.663E-12	686.644E-3	7.40319E-3	-167.334E-12	658.631E-3	-1.80038E-3
-3.62431E-3	-168.089E-12	697.774E-3	-6.10880E-3	-166.170E-12	661.612E-3	14.3339E-3
-3.62931E-3	-166.710E-12	685.130E-3	-11.2064E-3	-166.363E-12	663.127E-3	-3.79507E-3
-3.63432E-3	-165.780E-12	650.663E-3	-29.1218E-3	-167.395E-12	673.884E-3	-13.0659E-3
-3.63932E-3	-166.511E-12	656.624E-3	-46.0074E-3	-167.990E-12	683.882E-3	-31.6047E-3
-3.64432E-3	-167.431E-12	684.649E-3	-18.1276E-3	-168.332E-12	678.146E-3	-45.9464E-3
-3.64932E-3	-165.910E-12	673.840E-3	6.33353E-3	-168.661E-12	687.205E-3	-10.1753E-3
-3.65433E-3	-166.856E-12	646.471E-3	-3.42512E-3	-170.306E-12	721.214E-3	15.3406E-3
-3.65933E-3	-167.704E-12	626.994E-3	-15.4709E-3	-171.407E-12	740.001E-3	-3.00437E-3
-3.66433E-3	-168.267E-12	613.757E-3	-12.5441E-3	-171.776E-12	731.404E-3	-8.86516E-3
-3.66933E-3	-168.569E-12	640.313E-3	-8.04706E-3	-171.842E-12	711.135E-3	-10.6119E-3
-3.67434E-3	-169.866E-12	679.487E-3	-7.60564E-3	-172.151E-12	675.952E-3	-14.8119E-3
-3.67934E-3	-171.396E-12	683.408E-3	-9.94907E-3	-173.530E-12	650.102E-3	-531.599E-6
-3.68434E-3	-172.602E-12	682.573E-3	-19.5130E-3	-172.340E-12	661.226E-3	5.53522E-3
-3.68934E-3	-172.752E-12	693.159E-3	-14.1558E-3	-171.663E-12	678.483E-3	-9.91303E-3
-3.69435E-3	-173.711E-12	704.789E-3	-1.34120E-3	-171.175E-12	684.308E-3	-17.6761E-3
-3.69935E-3	-174.774E-12	706.263E-3	9.39116E-3	-171.439E-12	679.363E-3	-21.8068E-3
-3.70435E-3	-174.067E-12	692.693E-3	21.9858E-3	-170.843E-12	662.558E-3	-30.9522E-3
-3.70935E-3	-173.877E-12	689.716E-3	12.5950E-3	-170.273E-12	661.280E-3	-24.7630E-3
-3.71436E-3	-172.830E-12	714.534E-3	-16.3296E-3	-168.577E-12	682.586E-3	-19.0200E-3
-3.71936E-3	-173.806E-12	716.846E-3	-39.2302E-3	-169.612E-12	694.346E-3	-35.1036E-3
-3.72436E-3	-171.842E-12	678.460E-3	-42.2593E-3	-170.612E-12	680.851E-3	-31.8235E-3
-3.72936E-3	-170.905E-12	661.500E-3	-35.6399E-3	-171.144E-12	676.135E-3	-5.31784E-3
-3.73437E-3	-170.537E-12	678.876E-3	-19.3724E-3	-169.954E-12	695.394E-3	-13.0397E-3
-3.73937E-3	-170.232E-12	708.613E-3	-11.0053E-3	-170.332E-12	711.540E-3	-31.0168E-3
-3.74437E-3	-170.741E-12	722.142E-3	-26.7608E-3	-173.643E-12	722.262E-3	-8.25399E-3
-3.74937E-3	-169.893E-12	705.764E-3	-22.6960E-3	-176.229E-12	712.806E-3	9.99942E-3
-3.75438E-3	-170.118E-12	677.619E-3	-11.9062E-3	-174.810E-12	686.669E-3	2.82462E-3
-3.75938E-3	-170.638E-12	664.048E-3	-35.9736E-3	-175.155E-12	684.764E-3	2.05151E-3
-3.76438E-3	-173.257E-12	663.486E-3	-39.0702E-3	-177.932E-12	695.586E-3	-12.1992E-3
-3.76938E-3	-173.331E-12	662.245E-3	-16.9108E-3	-180.679E-12	697.717E-3	-16.9463E-3
-3.77439E-3	-173.361E-12	671.372E-3	-18.9529E-3	-179.412E-12	702.308E-3	5.91052E-3
-3.77939E-3	-173.864E-12	674.776E-3	-19.9322E-3	-178.677E-12	695.515E-3	-3.67532E-3
-3.78439E-3	-176.120E-12	665.913E-3	-20.0143E-3	-179.171E-12	670.036E-3	-33.7424E-3
-3.78939E-3	-177.793E-12	664.677E-3	-21.3594E-3	-179.928E-12	660.682E-3	-33.3977E-3
-3.79440E-3	-177.695E-12	678.570E-3	-18.9483E-3	-179.155E-12	658.046E-3	-4.21838E-3
-3.79940E-3	-178.570E-12	684.223E-3	-23.3682E-3	-176.572E-12	642.513E-3	29.8129E-3
-3.80440E-3	-178.305E-12	660.809E-3	-22.4786E-3	-175.200E-12	649.240E-3	31.4960E-3
-3.80940E-3	-180.150E-12	663.481E-3	-4.03569E-3	-174.000E-12	663.505E-3	-15.3156E-3
-3.81441E-3	-178.185E-12	688.102E-3	30.2990E-3	-174.054E-12	652.810E-3	-51.3381E-3
-3.81941E-3	-178.137E-12	682.738E-3	39.8647E-3	-174.613E-12	668.294E-3	-30.7857E-3
-3.82441E-3	-177.771E-12	678.236E-3	10.2601E-3	-173.889E-12	715.042E-3	-28.9731E-3
-3.82941E-3	-176.923E-12	678.785E-3	-26.9054E-3	-173.859E-12	726.313E-3	-53.1730E-3
-3.83442E-3	-176.622E-12	673.337E-3	-56.9102E-3	-174.902E-12	709.956E-3	-45.1915E-3
-3.83942E-3	-176.447E-12	685.632E-3	-49.2267E-3	-178.047E-12	704.512E-3	-26.8989E-3
-3.84442E-3	-176.189E-12	682.707E-3	1.80806E-3	-178.652E-12	701.088E-3	-18.2706E-3
-3.84942E-3	-175.894E-12	655.147E-3	15.7347E-3	-179.271E-12	707.702E-3	-11.1267E-3
-3.85443E-3	-176.235E-12	664.486E-3	-17.0722E-3	-181.109E-12	717.378E-3	-8.65006E-3
-3.85943E-3	-176.514E-12	676.909E-3	-25.4061E-3	-185.146E-12	711.275E-3	-26.3575E-3
-3.86443E-3	-176.593E-12	652.991E-3	-14.8265E-3	-186.230E-12	716.161E-3	-43.4600E-3
-3.86943E-3	-176.602E-12	644.408E-3	-19.2628E-3	-184.597E-12	731.839E-3	-32.7171E-3
-3.87444E-3	-177.946E-12	657.324E-3	-37.5947E-3	-186.030E-12	721.523E-3	-22.7256E-3
-3.87944E-3	-178.622E-12	660.814E-3	-35.2314E-3	-185.448E-12	707.373E-3	-13.6400E-3
-3.88444E-3	-179.384E-12	659.876E-3	-14.5250E-3	-185.086E-12	698.904E-3	-10.3758E-3
-3.88944E-3	-180.607E-12	660.776E-3	-17.6831E-3	-182.613E-12	664.750E-3	-11.4844E-3
-3.89445E-3	-181.575E-12	661.255E-3	-28.3387E-3	-181.720E-12	642.509E-3	4.46091E-3
-3.89945E-3	-181.666E-12	678.824E-3	-20.6132E-3	-181.313E-12	668.821E-3	4.84788E-3
-3.90445E-3	-180.781E-12	704.326E-3	-8.98608E-3	-180.288E-12	690.302E-3	-13.2132E-3
-3.90945E-3	-181.271E-12	680.438E-3	-14.9956E-3	-179.042E-12	669.234E-3	-2.82930E-3
-3.91446E-3	-181.365E-12	636.153E-3	-24.9985E-3	-177.393E-12	664.241E-3	21.7526E-3
-3.91946E-3	-181.738E-12	647.723E-3	-10.7580E-3	-176.964E-12	686.833E-3	9.03503E-3
-3.92446E-3	-181.732E-12	688.019E-3	-1.89324E-3	-177.897E-12	682.318E-3	-26.3791E-3
-3.92946E-3	-182.364E-12	699.131E-3	-19.1692E-3	-178.490E-12	651.421E-3	-46.1974E-3
-3.93447E-3	-182.512E-12	683.485E-3	-30.9940E-3	-177.982E-12	633.887E-3	-49.7037E-3
-3.93947E-3	-181.734E-12	680.002E-3	-16.1898E-3	-177.894E-12	639.447E-3	-39.2627E-3
-3.94447E-3	-182.277E-12	685.980E-3	-18.9262E-3	-180.185E-12	656.972E-3	-23.7172E-3
-3.94947E-3	-182.509E-12	692.192E-3	-39.5577E-3	-181.413E-12	669.945E-3	-23.6132E-3
-3.95448E-3	-182.210E-12	694.157E-3	-35.3306E-3	-182.591E-12	681.267E-3	-17.5480E-3
-3.95948E-3	-181.811E-12	685.003E-3	-26.5877E-3	-182.190E-12	694.165E-3	-11.1925E-3
-3.96448E-3	-183.071E-12	680.883E-3	-15.1579E-3	-183.152E-12	680.820E-3	-23.6690E-3
-3.96948E-3	-183.514E-12	668.197E-3	-5.06506E-3	-185.841E-12	661.443E-3	-22.5612E-3
-3.97449E-3	-182.694E-12	644.599E-3	-16.9079E-3	-188.412E-12	675.657E-3	3.71869E-3
-3.97949E-3	-181.120E-12	657.121E-3	-29.4087E-3	-187.081E-12	705.440E-3	12.4901E-3
-3.98449E-3	-183.135E-12	680.212E-3	-44.4116E-3	-186.936E-12	691.621E-3	-24.2403E-3
-3.98949E-3	-184.606E-12	680.674E-3	-58.6146E-3	-187.429E-12	654.848E-3	-40.2753E-3
-3.99450E-3	-184.593E-12	698.842E-3	-51.3232E-3	-187.687E-12	659.419E-3	-21.5090E-3
-3.99950E-3	-182.789E-12	706.169E-3	-29.9739E-3	-186.714E-12	672.468E-3	-25.3238E-3
-4.00450E-3	-184.720E-12	673.506E-3	-34.7265E-3	-186.242E-12	671.464E-3	-22.6812E-3
-4.00950E-3	-186.677E-12	658.895E-3	-64.2523E-3	-186.115E-12	666.526E-3	-14.4269E-3
-4.01451E-3	-185.297E-12	671.021E-3	-55.3299E-3	-185.594E-12	637.070E-3	-25.5588E-3
-4.01951E-3	-184.767E-12	674.304E-3	-23.5353E-3	-184.494E-12	621.816E-3	-18.5301E-3
-4.02451E-3	-184.923E-12	683.537E-3	-11.2585E-3	-184.738E-12	651.191E-3	-18.4485E-3
-4.02951E-3	-185.665E-12	704.235E-3	-9.80539E-3	-185.393E-12	660.162E-3	-39.0632E-3
-4.03452E-3	-184.705E-12	697.112E-3	-22.0430E-3	-185.332E-12	653.834E-3	-27.3706E-3
-4.03952E-3	-185.433E-12	660.827E-3	-31.1966E-3	-183.851E-12	682.630E-3	-5.43840E-3
-4.04452E-3	-185.720E-12	640.955E-3	5.97885E-3	-185.387E-12	703.971E-3	-15.6621E-3
-4.04952E-3	-186.116E-12	645.447E-3	49.3623E-3	-185.287E-12	690.471E-3	-48.0557E-3
-4.05453E-3	-186.556E-12	651.407E-3	26.5777E-3	-186.645E-12	676.666E-3	-63.1210E-3
-4.05953E-3	-186.489E-12	663.384E-3	-19.0091E-3	-185.889E-12	690.315E-3	-62.3605E-3
-4.06453E-3	-186.373E-12	672.466E-3	-24.1245E-3	-187.288E-12	706.902E-3	-64.9723E-3
-4.06953E-3	-185.970E-12	661.313E-3	-20.9716E-3	-188.095E-12	720.335E-3	-72.1021E-3
-4.07454E-3	-186.889E-12	670.942E-3	-12.2728E-3	-190.164E-12	737.856E-3	-86.2326E-3
-4.07954E-3	-187.917E-12	683.960E-3	-2.72362E-3	-191.473E-12	725.891E-3	-64.5460E-3
-4.08454E-3	-188.655E-12	661.521E-3	-1.83990E-3	-192.206E-12	698.926E-3	-23.7199E-3
-4.08954E-3	-188.177E-12	654.024E-3	9.48492E-3	-192.509E-12	685.780E-3	-12.2357E-3
-4.09455E-3	-188.401E-12	670.928E-3	27.2836E-3	-193.368E-12	682.488E-3	1.98960E-3
-4.09955E-3	-189.974E-12	675.975E-3	26.8935E-3	-193.801E-12	691.873E-3	16.0567E-3
-4.10455E-3	-191.462E-12	672.845E-3	9.76556E-3	-194.098E-12	693.759E-3	-19.8734E-3
-4.10955E-3	-191.475E-12	670.307E-3	25.5981E-3	-193.568E-12	680.918E-3	-41.2050E-3
-4.11456E-3	-190.040E-12	674.891E-3	35.8654E-3	-193.621E-12	681.965E-3	-25.5322E-3
-4.11956E-3	-190.821E-12	686.411E-3	-2.61373E-3	-193.475E-12	672.890E-3	-36.9043E-3
-4.12456E-3	-192.751E-12	692.111E-3	-30.0193E-3	-192.813E-12	651.092E-3	-53.5903E-3
-4.12956E-3	-193.095E-12	688.777E-3	-31.7678E-3	-190.764E-12	661.944E-3	-48.9239E-3
-4.13457E-3	-191.394E-12	663.778E-3	-20.1780E-3	-190.164E-12	691.702E-3	-36.8472E-3
-4.13957E-3	-191.582E-12	652.840E-3	-1.32637E-3	-187.613E-12	706.405E-3	-27.6987E-3
-4.14457E-3	-192.340E-12	664.779E-3	10.1681E-3	-187.791E-12	700.437E-3	-19.1076E-3
-4.14957E-3	-193.703E-12	661.554E-3	-698.887E-6	-186.910E-12	679.069E-3	-3.44184E-3
-4.15458E-3	-192.498E-12	667.888E-3	-23.2590E-3	-187.218E-12	649.612E-3	-370.370E-6
-4.15958E-3	-191.123E-12	671.442E-3	-17.8014E-3	-188.560E-12	630.236E-3	-10.6345E-3
-4.16458E-3	-190.587E-12	648.597E-3	-1.53810E-3	-189.441E-12	638.772E-3	-22.8868E-3
-4.16958E-3	-191.266E-12	636.533E-3	9.35042E-3	-193.089E-12	679.520E-3	-32.1377E-3
-4.17459E-3	-192.298E-12	669.146E-3	13.8566E-3	-195.597E-12	715.748E-3	-18.6051E-3
-4.17959E-3	-192.779E-12	706.756E-3	-5.00495E-3	-196.610E-12	731.698E-3	-1.76553E-3
-4.18459E-3	-192.133E-12	712.287E-3	-28.6000E-3	-198.109E-12	738.602E-3	-11.9899E-3
-4.18959E-3	-192.194E-12	703.707E-3	-20.3321E-3	-202.114E-12	722.627E-3	-36.2723E-3
-4.19460E-3	-194.158E-12	696.754E-3	-11.3311E-3	-204.921E-12	707.551E-3	-56.4860E-3
-4.19960E-3	-196.001E-12	701.601E-3	-46.0760E-3	-201.766E-12	705.385E-3	-54.6862E-3
-4.20460E-3	-195.369E-12	707.577E-3	-64.5335E-3	-200.670E-12	699.945E-3	-14.2723E-3
-4.20960E-3	-196.581E-12	693.157E-3	-48.7202E-3	-200.402E-12	696.559E-3	2.73456E-3
-4.21461E-3	-198.385E-12	672.494E-3	-54.0005E-3	-202.450E-12	679.890E-3	-25.5540E-3
-4.21961E-3	-199.800E-12	666.280E-3	-54.0294E-3	-201.603E-12	656.895E-3	-34.2474E-3
-4.22461E-3	-198.479E-12	681.515E-3	-42.8798E-3	-198.825E-12	672.121E-3	-13.8404E-3
-4.22961E-3	-197.589E-12	707.132E-3	-38.0559E-3	-195.252E-12	666.590E-3	-14.2356E-3
-4.23462E-3	-197.507E-12	708.180E-3	-18.8669E-3	-196.593E-12	619.517E-3	-36.0031E-3
-4.23962E-3	-198.846E-12	687.541E-3	-725.917E-6	-197.027E-12	615.540E-3	-37.3703E-3
-4.24462E-3	-197.421E-12	674.891E-3	15.0597E-3	-194.302E-12	654.652E-3	-15.5274E-3
-4.24962E-3	-195.119E-12	677.926E-3	29.4684E-3	-190.920E-12	670.125E-3	12.5835E-3
-4.25463E-3	-194.021E-12	679.797E-3	7.36149E-3	-193.303E-12	654.037E-3	28.3676E-3
-4.25963E-3	-195.287E-12	686.731E-3	-16.0808E-3	-196.229E-12	642.096E-3	20.2221E-3
-4.26463E-3	-195.844E-12	676.541E-3	-8.89137E-3	-196.995E-12	642.372E-3	-1.40614E-3
-4.26963E-3	-195.510E-12	657.328E-3	149.807E-6	-196.881E-12	678.393E-3	-4.37425E-3
-4.27464E-3	-194.954E-12	672.265E-3	-5.26918E-3	-197.398E-12	710.466E-3	4.53096E-3
-4.27964E-3	-194.360E-12	688.294E-3	-14.0305E-3	-200.106E-12	680.008E-3	2.18316E-3
-4.28464E-3	-196.021E-12	683.200E-3	-26.3458E-3	-202.624E-12	658.399E-3	-461.051E-6
-4.28964E-3	-197.845E-12	671.432E-3	-20.5081E-3	-203.936E-12	668.296E-3	914.883E-6
-4.29465E-3	-199.160E-12	665.600E-3	29.7325E-3	-204.481E-12	664.524E-3	3.19563E-3
-4.29965E-3	-198.808E-12	657.143E-3	60.3618E-3	-204.558E-12	667.677E-3	12.8933E-3
-4.30465E-3	-199.477E-12	670.058E-3	23.3649E-3	-205.904E-12	687.451E-3	22.5914E-3
-4.30965E-3	-202.522E-12	683.645E-3	-22.1319E-3	-205.176E-12	711.410E-3	5.79121E-3
-4.31466E-3	-204.241E-12	667.285E-3	-43.7889E-3	-203.720E-12	714.014E-3	-26.1862E-3
-4.31966E-3	-203.315E-12	682.922E-3	-54.8807E-3	-200.609E-12	692.260E-3	-30.3533E-3
-4.32466E-3	-202.660E-12	703.338E-3	-38.4561E-3	-200.475E-12	671.058E-3	-20.0482E-3
-4.32966E-3	-202.000E-12	659.175E-3	-25.8731E-3	-201.037E-12	661.245E-3	-494.080E-6
-4.33467E-3	-202.857E-12	611.314E-3	-39.1633E-3	-199.857E-12	672.683E-3	18.0723E-3
-4.33967E-3	-201.278E-12	611.431E-3	-39.1713E-3	-196.987E-12	662.741E-3	429.461E-6
-4.34467E-3	-199.430E-12	640.960E-3	-24.0493E-3	-195.765E-12	627.734E-3	-18.0707E-3
-4.34967E-3	-197.335E-12	667.701E-3	-5.83418E-3	-198.713E-12	632.861E-3	-22.7847E-3
-4.35468E-3	-198.059E-12	671.493E-3	7.12374E-3	-197.669E-12	643.431E-3	-32.3787E-3
-4.35968E-3	-197.263E-12	653.391E-3	-9.11325E-3	-196.698E-12	656.644E-3	-22.2550E-3
-4.36468E-3	-196.637E-12	643.871E-3	-29.0645E-3	-196.974E-12	697.173E-3	-2.92521E-3
-4.36968E-3	-194.578E-12	682.472E-3	-35.0429E-3	-199.908E-12	708.071E-3	-8.83112E-3
-4.37469E-3	-194.551E-12	709.243E-3	-38.0545E-3	-198.742E-12	697.582E-3	-19.6368E-3
-4.37969E-3	-195.958E-12	681.185E-3	-25.6454E-3	-199.131E-12	705.416E-3	-8.56335E-3
-4.38469E-3	-197.657E-12	673.053E-3	-11.3545E-3	-200.757E-12	700.484E-3	3.98030E-3
-4.38969E-3	-197.786E-12	695.992E-3	-7.74529E-3	-203.002E-12	683.753E-3	890.355E-6
-4.39470E-3	-200.269E-12	693.156E-3	-12.4759E-3	-204.233E-12	692.991E-3	-7.55892E-3
-4.39970E-3	-201.570E-12	666.170E-3	-24.9097E-3	-205.105E-12	713.704E-3	-13.8874E-3
-4.40470E-3	-204.215E-12	658.554E-3	-27.4383E-3	-205.686E-12	707.015E-3	-6.28519E-3
-4.40970E-3	-206.319E-12	661.095E-3	-23.5566E-3	-206.332E-12	680.379E-3	20.7361E-3
-4.41471E-3	-204.868E-12	654.202E-3	-29.4243E-3	-207.155E-12	666.810E-3	28.7112E-3
-4.41971E-3	-205.990E-12	664.777E-3	-27.2147E-3	-206.959E-12	652.597E-3	-10.4376E-3
-4.42471E-3	-206.681E-12	681.380E-3	-23.7461E-3	-205.762E-12	661.281E-3	-44.2961E-3
-4.42971E-3	-207.114E-12	700.920E-3	-29.7855E-3	-204.093E-12	690.126E-3	-47.5823E-3
-4.43472E-3	-205.285E-12	734.107E-3	-15.7279E-3	-203.782E-12	702.265E-3	-43.5721E-3
-4.43972E-3	-204.572E-12	724.372E-3	-10.9348E-3	-205.236E-12	703.876E-3	-31.2985E-3
-4.44472E-3	-203.486E-12	685.514E-3	-38.2255E-3	-204.118E-12	698.872E-3	-33.5952E-3
-4.44972E-3	-203.916E-12	682.325E-3	-37.9399E-3	-203.581E-12	684.467E-3	-43.2061E-3
-4.45473E-3	-204.274E-12	676.632E-3	-4.28407E-3	-202.244E-12	659.888E-3	-15.6658E-3
-4.45973E-3	-201.550E-12	637.298E-3	16.6232E-3	-204.004E-12	660.704E-3	12.1196E-3
-4.46473E-3	-200.813E-12	621.585E-3	7.62812E-3	-202.651E-12	683.616E-3	375.636E-6
-4.46973E-3	-200.213E-12	633.162E-3	10.5044E-3	-202.805E-12	684.848E-3	-14.1906E-3
-4.47474E-3	-203.112E-12	628.706E-3	32.7631E-3	-203.345E-12	674.054E-3	-5.13159E-3
-4.47974E-3	-204.568E-12	637.049E-3	21.5605E-3	-203.235E-12	670.551E-3	13.2723E-3
-4.48474E-3	-202.764E-12	664.293E-3	-14.9053E-3	-203.741E-12	653.888E-3	25.7135E-3
-4.48974E-3	-203.958E-12	673.669E-3	-46.9047E-3	-204.880E-12	632.233E-3	4.17870E-3
-4.49475E-3	-206.118E-12	672.887E-3	-45.3825E-3	-207.018E-12	644.673E-3	-23.6265E-3
-4.49975E-3	-210.046E-12	671.380E-3	-3.91931E-3	-207.125E-12	677.193E-3	-9.84174E-3
-4.50475E-3	-209.270E-12	687.854E-3	16.8971E-3	-207.133E-12	707.514E-3	3.06452E-3
-4.50975E-3	-209.157E-12	716.347E-3	5.47928E-3	-208.490E-12	724.915E-3	-11.7376E-3
-4.51476E-3	-210.481E-12	699.901E-3	-12.3075E-3	-210.034E-12	699.126E-3	-45.9438E-3
-4.51976E-3	-213.026E-12	650.814E-3	-29.6854E-3	-211.222E-12	669.911E-3	-58.2583E-3
-4.52476E-3	-213.015E-12	637.573E-3	-14.1495E-3	-211.731E-12	681.008E-3	-33.5107E-3
-4.52976E-3	-212.648E-12	669.845E-3	8.50991E-3	-212.440E-12	696.685E-3	-7.60524E-3
-4.53477E-3	-211.423E-12	697.118E-3	-20.0367E-3	-211.345E-12	700.771E-3	13.7840E-3
-4.53977E-3	-211.609E-12	687.784E-3	-54.9786E-3	-210.702E-12	693.138E-3	9.20475E-3
-4.54477E-3	-212.748E-12	668.830E-3	-56.4127E-3	-209.973E-12	680.828E-3	-12.7367E-3
-4.54977E-3	-210.723E-12	672.668E-3	-39.5524E-3	-210.965E-12	674.814E-3	-28.6785E-3
-4.55478E-3	-209.086E-12	692.159E-3	-18.6371E-3	-210.005E-12	681.818E-3	-19.5589E-3
-4.55978E-3	-209.153E-12	700.646E-3	-5.65186E-3	-207.529E-12	686.814E-3	3.37047E-3
-4.56478E-3	-209.993E-12	681.104E-3	3.31914E-3	-204.855E-12	676.146E-3	-640.782E-6
-4.56978E-3	-208.527E-12	667.425E-3	-9.98978E-3	-205.857E-12	669.031E-3	-18.2585E-3
-4.57479E-3	-208.118E-12	673.575E-3	-25.4418E-3	-207.143E-12	665.896E-3	-22.0455E-3
-4.57979E-3	-208.192E-12	672.832E-3	-17.9887E-3	-207.382E-12	641.816E-3	54.7147E-6
-4.58479E-3	-209.152E-12	663.900E-3	-16.7822E-3	-206.462E-12	604.160E-3	16.6836E-3
-4.58979E-3	-207.841E-12	655.951E-3	-13.4290E-3	-208.131E-12	605.498E-3	-6.73585E-3
-4.59480E-3	-207.450E-12	645.236E-3	7.77778E-3	-210.575E-12	659.178E-3	-31.5996E-3
-4.59980E-3	-210.169E-12	658.510E-3	26.2045E-3	-211.335E-12	706.632E-3	-23.1338E-3
-4.60480E-3	-210.748E-12	695.902E-3	39.4530E-3	-212.213E-12	694.749E-3	-9.53621E-3
-4.60980E-3	-210.824E-12	686.006E-3	50.5700E-3	-215.024E-12	667.012E-3	6.16629E-3
-4.61481E-3	-210.981E-12	633.247E-3	26.6165E-3	-218.494E-12	670.283E-3	26.7887E-3
-4.61981E-3	-212.956E-12	612.662E-3	-24.3365E-3	-217.595E-12	655.184E-3	20.7028E-3
-4.62481E-3	-216.726E-12	644.255E-3	-52.0015E-3	-216.441E-12	645.172E-3	-2.69741E-3
-4.62981E-3	-215.533E-12	685.120E-3	-52.7736E-3	-217.956E-12	677.079E-3	-11.5889E-3
-4.63482E-3	-214.555E-12	690.470E-3	-34.6437E-3	-218.892E-12	692.595E-3	-13.3638E-3
-4.63982E-3	-216.117E-12	676.113E-3	-22.1625E-3	-217.820E-12	681.515E-3	-29.1965E-3
-4.64482E-3	-220.992E-12	668.259E-3	-24.1443E-3	-215.267E-12	670.782E-3	-48.4342E-3
-4.64982E-3	-218.276E-12	658.080E-3	-20.6966E-3	-215.185E-12	666.810E-3	-38.3291E-3
-4.65483E-3	-217.116E-12	665.763E-3	-16.1765E-3	-215.383E-12	674.176E-3	-8.12867E-3
-4.65983E-3	-216.420E-12	679.599E-3	-6.65119E-3	-215.009E-12	679.512E-3	19.9855E-3
-4.66483E-3	-218.482E-12	668.366E-3	3.31700E-3	-211.315E-12	679.949E-3	19.2224E-3
-4.66983E-3	-216.057E-12	653.000E-3	1.30353E-3	-210.811E-12	661.889E-3	3.50457E-3
-4.67484E-3	-213.488E-12	642.978E-3	-3.58579E-3	-211.468E-12	636.858E-3	12.1864E-3
-4.67984E-3	-212.306E-12	657.849E-3	-634.739E-6	-213.045E-12	653.427E-3	3.05148E-3
-4.68484E-3	-212.217E-12	689.989E-3	10.7758E-3	-212.682E-12	694.209E-3	-16.5270E-3
-4.68984E-3	-213.005E-12	687.882E-3	2.02810E-3	-213.392E-12	695.768E-3	-26.2567E-3
-4.69485E-3	-210.043E-12	679.691E-3	-15.4469E-3	-216.680E-12	654.577E-3	-39.8453E-3
-4.69985E-3	-210.949E-12	691.995E-3	-6.98391E-3	-218.957E-12	654.158E-3	-40.0473E-3
-4.70485E-3	-212.485E-12	667.819E-3	-3.65052E-3	-220.556E-12	708.569E-3	-36.2102E-3
-4.70985E-3	-215.355E-12	638.500E-3	-13.7888E-3	-220.485E-12	733.178E-3	-25.5053E-3
-4.71486E-3	-215.672E-12	650.310E-3	-17.9492E-3	-222.789E-12	700.914E-3	-5.77279E-3
-4.71986E-3	-215.731E-12	658.608E-3	-13.0967E-3	-225.459E-12	680.471E-3	-14.8115E-3
-4.72486E-3	-218.000E-12	649.872E-3	-3.95657E-3	-225.146E-12	699.421E-3	-29.2638E-3
-4.72986E-3	-221.301E-12	643.657E-3	-4.34236E-3	-224.886E-12	707.354E-3	-23.3893E-3
-4.73487E-3	-224.428E-12	646.253E-3	-14.1757E-3	-223.585E-12	695.055E-3	-19.2436E-3
-4.73987E-3	-222.994E-12	663.878E-3	-22.3185E-3	-224.936E-12	672.941E-3	-25.6531E-3
-4.74487E-3	-224.486E-12	693.091E-3	-18.4879E-3	-224.222E-12	644.929E-3	-44.0033E-3
-4.74988E-3	-225.268E-12	701.505E-3	-5.12112E-3	-222.230E-12	643.171E-3	-41.2454E-3
-4.75488E-3	-226.254E-12	699.952E-3	1.93557E-3	-220.657E-12	673.391E-3	-39.8256E-3
-4.75988E-3	-225.145E-12	717.022E-3	-7.10507E-3	-219.498E-12	694.315E-3	-71.7583E-3
-4.76488E-3	-221.801E-12	705.017E-3	-20.2577E-3	-218.410E-12	698.037E-3	-54.4365E-3
-4.76988E-3	-219.923E-12	674.704E-3	-27.4278E-3	-216.456E-12	692.951E-3	-5.78734E-3
-4.77489E-3	-221.621E-12	677.282E-3	-14.7876E-3	-216.300E-12	655.111E-3	2.57839E-3
-4.77989E-3	-221.625E-12	685.574E-3	10.0298E-3	-215.728E-12	653.352E-3	-368.757E-6
-4.78489E-3	-217.773E-12	672.841E-3	10.9436E-3	-216.134E-12	689.095E-3	-9.23114E-3
-4.78989E-3	-214.286E-12	679.930E-3	-2.82942E-3	-218.112E-12	686.928E-3	-11.6770E-3
-4.79490E-3	-214.623E-12	687.625E-3	-11.9382E-3	-221.450E-12	679.704E-3	-1.45068E-3
-4.79990E-3	-216.372E-12	653.517E-3	-3.88617E-3	-220.168E-12	673.967E-3	-11.8302E-3
-4.80490E-3	-216.202E-12	633.590E-3	-2.67981E-3	-220.307E-12	673.241E-3	-17.3110E-3
-4.80990E-3	-214.710E-12	649.908E-3	-23.1900E-3	-223.339E-12	701.265E-3	-2.66513E-3
-4.81491E-3	-215.626E-12	679.596E-3	-26.8975E-3	-224.345E-12	713.370E-3	-18.8086E-3
-4.81991E-3	-218.078E-12	716.975E-3	-17.6105E-3	-225.672E-12	709.275E-3	-59.8245E-3
-4.82491E-3	-221.489E-12	717.181E-3	764.658E-6	-225.506E-12	719.969E-3	-67.9230E-3
-4.82991E-3	-222.677E-12	680.626E-3	352.016E-6	-226.034E-12	709.122E-3	-50.5923E-3
-4.83492E-3	-223.268E-12	685.531E-3	-13.7080E-3	-225.578E-12	674.821E-3	-43.8289E-3
-4.83992E-3	-224.639E-12	712.796E-3	-14.3896E-3	-226.105E-12	642.218E-3	-24.5908E-3
-4.84492E-3	-227.431E-12	704.446E-3	-34.1293E-3	-226.059E-12	627.441E-3	16.5427E-3
-4.84992E-3	-229.541E-12	675.027E-3	-37.7425E-3	-226.154E-12	652.893E-3	34.8601E-3
-4.85493E-3	-226.804E-12	661.562E-3	-20.1526E-3	-224.320E-12	695.318E-3	18.3228E-3
-4.85993E-3	-225.823E-12	693.038E-3	-25.1951E-3	-224.050E-12	696.962E-3	606.942E-6
-4.86493E-3	-225.927E-12	737.388E-3	-24.4627E-3	-223.998E-12	665.134E-3	-22.2740E-3
-4.86993E-3	-227.330E-12	728.126E-3	-24.7290E-3	-223.004E-12	649.703E-3	-49.5766E-3
-4.87494E-3	-225.519E-12	701.029E-3	-26.0138E-3	-222.369E-12	646.516E-3	-54.8492E-3
-4.87994E-3	-223.484E-12	704.790E-3	-20.3261E-3	-223.016E-12	652.793E-3	-39.6082E-3
-4.88494E-3	-222.193E-12	680.796E-3	-28.5723E-3	-223.177E-12	670.852E-3	-21.8852E-3
-4.88995E-3	-220.829E-12	626.754E-3	-22.0587E-3	-222.933E-12	655.919E-3	-18.8644E-3
-4.89495E-3	-222.507E-12	644.285E-3	-16.1100E-3	-224.316E-12	615.419E-3	-21.5509E-3
-4.89995E-3	-220.385E-12	693.464E-3	-40.7591E-3	-225.622E-12	620.522E-3	-29.2481E-3
-4.90495E-3	-219.312E-12	679.980E-3	-68.3615E-3	-226.482E-12	653.293E-3	-29.5577E-3
-4.90995E-3	-219.369E-12	671.548E-3	-53.4763E-3	-225.916E-12	664.209E-3	-17.6611E-3
-4.91496E-3	-222.670E-12	680.904E-3	1.26932E-3	-226.500E-12	656.390E-3	-8.79291E-3
-4.91996E-3	-223.941E-12	644.859E-3	20.8089E-3	-227.373E-12	643.217E-3	-3.50010E-3
-4.92496E-3	-224.602E-12	611.711E-3	3.56575E-3	-227.279E-12	645.656E-3	-2.21880E-3
-4.92996E-3	-225.319E-12	621.087E-3	-9.26418E-3	-228.240E-12	654.117E-3	6.92052E-3
-4.93497E-3	-228.076E-12	644.870E-3	-27.3928E-3	-227.396E-12	662.749E-3	15.0025E-3
-4.93997E-3	-230.925E-12	664.403E-3	-44.2375E-3	-228.156E-12	682.003E-3	8.59118E-3
-4.94497E-3	-228.495E-12	689.249E-3	-48.8619E-3	-227.819E-12	705.055E-3	-11.1410E-3
-4.94997E-3	-230.276E-12	698.217E-3	-39.7277E-3	-228.951E-12	716.473E-3	-26.1689E-3
-4.95498E-3	-229.961E-12	682.288E-3	-41.5339E-3	-227.733E-12	688.940E-3	-19.7369E-3
-4.95998E-3	-232.222E-12	683.538E-3	-41.1271E-3	-226.098E-12	658.136E-3	-14.3646E-3
-4.96498E-3	-229.958E-12	695.569E-3	-28.3958E-3	-226.021E-12	683.009E-3	-29.1771E-3
-4.96998E-3	-228.612E-12	708.277E-3	-44.0251E-3	-226.094E-12	720.742E-3	-40.3303E-3
-4.97499E-3	-229.440E-12	712.231E-3	-36.7488E-3	-226.923E-12	735.877E-3	-39.1982E-3
-4.97999E-3	-228.677E-12	683.184E-3	-3.02337E-3	-226.007E-12	716.692E-3	-41.1462E-3
-4.98499E-3	-228.515E-12	645.040E-3	11.1120E-3	-226.175E-12	660.649E-3	-30.4080E-3
-4.98999E-3	-227.939E-12	622.127E-3	10.7688E-3	-225.578E-12	654.227E-3	-13.4656E-3
-4.99500E-3	-228.911E-12	622.454E-3	3.03546E-3	-225.770E-12	684.797E-3	-8.12491E-3
-5.00000E-3	-227.537E-12	648.314E-3	12.8971E-3	-227.519E-12	677.481E-3	10.5288E-3
