Experiment	bias spectroscopy	
Date	19.01.2016 18:20:16	
User		
X (m)	50.8647E-9	
Y (m)	256.447E-9	
Z (m)	-132.634E-9	
Z offset (m)	0E+0	
Settling time (s)	200E-6	
Integration time (s)	5E-3	
Z-Ctrl hold	TRUE	
Final Z (m)	N/A	
Filter type	None	
Order		
Cutoff frq		
Comment01	MnPc/Pb(111)	
Comment02	dz =00pm	
Comment03	7 Sweeps	
Comment04	MagField =0.T	
Comment05	Divider 1:10	
Comment06	Setpoint:5mV,200 pA	
Comment07	Lockin: 50uVrms,5ms,5mV	
Comment08	Gain:9; 912Hz modulation	
Comment09	T=1.06K	
Bias>Bias (V)	5E-3	
Bias>Calibration (V/V)	81.475E-3	
Bias>Offset (V)	1.046E-3	
Bias Spectroscopy>Sweep Start (V)	5E-3	
Bias Spectroscopy>Sweep End (V)	-5E-3	
Bias Spectroscopy>Num Pixel	2000	
Bias Spectroscopy>Z Avg time (s)	500E-3	
Bias Spectroscopy>Z offset (m)	0E+0	
Bias Spectroscopy>1st Settling time (s)	500E-3	
Bias Spectroscopy>Settling time (s)	200E-6	
Bias Spectroscopy>Integration time (s)	5E-3	
Bias Spectroscopy>End Settling time (s)	500E-3	
Bias Spectroscopy>Z control time (s)	500E-3	
Bias Spectroscopy>Max Slew rate (V/s)	Inf	
Bias Spectroscopy>backward sweep	TRUE	
Bias Spectroscopy>Z-controller hold	TRUE	
Bias Spectroscopy>Number of sweeps	7	
Bias Spectroscopy>Channels	Current (A);X% LockIn (V);Y% LockIn (V)	
Bias Spectroscopy>Reset Bias	TRUE	
Bias Spectroscopy>Record final Z	FALSE	
Bias Spectroscopy>Lock-In run	FALSE	
Bias Spectroscopy>Sweep mode	Linear	
Bias Spectroscopy>MultiLine Settings : Segment Start (V), Segment End (V), Settling (s), Integration (s), Steps (xn)	100E-3,3.3E-3,100E-6,10E-3,2500;3.3E-3,-3.3E-3,100E-6,10E-3,10;-3.3E-3,-100E-3,100E-6,10E-3,2500	
Current>Current (A)	200.049E-12	
Current>Calibration (A/V)	999.99900E-12	
Current>Offset (A)	-455.429E-15	
Current>Gain	LN 10^9	
Z-Controller>Z (m)	-132.635E-9	
Z-Controller>Controller name	log Current	
Z-Controller>Controller status	ON	
Z-Controller>Setpoint	200E-12	
Z-Controller>Setpoint unit	A	
Z-Controller>P gain	2.96994E-12	
Z-Controller>I gain	67.0321E-9	
Z-Controller>Time const (s)	44.3062E-6	
Z-Controller>TipLift (m)	0E+0	
Z-Controller>Switch off delay (s)	50E-3	
Current (A)	200.217E-12	
Z (m)	-132.635E-9	

[DATA]
Bias calc (V)	Current (A)	X% LockIn (V)	Y% LockIn (V)	Current [bwd] (A)	X% LockIn [bwd] (V)	Y% LockIn [bwd] (V)
5.00000E-3	198.856E-12	628.564E-3	25.7991E-3	199.240E-12	679.328E-3	-12.0466E-3
4.99500E-3	198.484E-12	656.914E-3	2.25473E-3	198.299E-12	636.890E-3	-28.8121E-3
4.98999E-3	196.901E-12	672.581E-3	-24.1339E-3	197.791E-12	607.997E-3	-24.3466E-3
4.98499E-3	196.744E-12	660.565E-3	-30.3112E-3	196.431E-12	649.795E-3	-25.4994E-3
4.97999E-3	196.581E-12	641.784E-3	-20.7670E-3	194.975E-12	669.604E-3	-39.1288E-3
4.97499E-3	196.477E-12	632.821E-3	-23.9511E-3	195.267E-12	654.464E-3	-41.8858E-3
4.96998E-3	196.519E-12	646.643E-3	-27.2749E-3	194.743E-12	651.382E-3	-32.0454E-3
4.96498E-3	196.107E-12	668.553E-3	1.57723E-3	194.579E-12	659.336E-3	-42.9067E-3
4.95998E-3	196.391E-12	658.695E-3	23.4354E-3	194.916E-12	665.419E-3	-59.5236E-3
4.95498E-3	196.604E-12	636.460E-3	39.7722E-3	195.070E-12	650.681E-3	-51.3245E-3
4.94997E-3	196.812E-12	632.678E-3	60.1362E-3	195.743E-12	618.154E-3	-33.6261E-3
4.94497E-3	197.311E-12	643.232E-3	35.3287E-3	196.829E-12	623.649E-3	-24.7263E-3
4.93997E-3	197.081E-12	643.663E-3	-36.4566E-3	197.078E-12	677.555E-3	-32.6224E-3
4.93497E-3	197.197E-12	626.096E-3	-77.5107E-3	196.798E-12	690.261E-3	-49.2835E-3
4.92996E-3	197.969E-12	603.348E-3	-70.9400E-3	198.277E-12	662.012E-3	-32.4169E-3
4.92496E-3	197.746E-12	598.568E-3	-47.0250E-3	198.338E-12	648.433E-3	469.255E-6
4.91996E-3	197.462E-12	618.308E-3	-14.7202E-3	198.002E-12	657.047E-3	-19.4872E-3
4.91496E-3	197.809E-12	626.413E-3	-9.38683E-3	197.092E-12	670.109E-3	-45.0995E-3
4.90995E-3	197.298E-12	612.516E-3	-18.5044E-3	196.005E-12	662.877E-3	-35.1058E-3
4.90495E-3	196.309E-12	595.937E-3	3.39900E-3	196.189E-12	636.548E-3	-28.9877E-3
4.89995E-3	196.211E-12	616.470E-3	19.2090E-3	195.535E-12	615.413E-3	-26.6442E-3
4.89495E-3	195.029E-12	666.340E-3	588.178E-6	193.452E-12	631.862E-3	-31.5444E-3
4.88995E-3	194.347E-12	678.163E-3	-23.4335E-3	192.912E-12	650.433E-3	-33.9449E-3
4.88494E-3	193.501E-12	634.677E-3	-34.4856E-3	193.288E-12	642.005E-3	-26.5143E-3
4.87994E-3	192.795E-12	592.771E-3	-25.6607E-3	192.319E-12	637.426E-3	-33.0443E-3
4.87494E-3	191.570E-12	578.781E-3	-10.3207E-3	191.890E-12	619.698E-3	-34.6906E-3
4.86993E-3	190.896E-12	567.183E-3	-13.6941E-3	192.509E-12	596.228E-3	-31.4713E-3
4.86493E-3	191.199E-12	587.895E-3	-50.5212E-3	192.948E-12	613.397E-3	-39.6139E-3
4.85993E-3	189.863E-12	640.757E-3	-84.7310E-3	192.154E-12	623.819E-3	-35.3563E-3
4.85493E-3	188.771E-12	655.908E-3	-74.1070E-3	192.451E-12	608.495E-3	-24.2143E-3
4.84992E-3	190.237E-12	643.104E-3	-36.8499E-3	193.508E-12	613.476E-3	-19.5932E-3
4.84492E-3	190.638E-12	651.013E-3	-19.7984E-3	192.166E-12	624.452E-3	-2.88497E-3
4.83992E-3	191.526E-12	666.367E-3	-23.9956E-3	193.641E-12	632.859E-3	10.1795E-3
4.83492E-3	191.288E-12	669.304E-3	-18.2603E-3	195.313E-12	638.974E-3	-21.4925E-3
4.82991E-3	191.848E-12	651.695E-3	-6.04364E-3	193.930E-12	642.922E-3	-46.5673E-3
4.82491E-3	192.109E-12	633.027E-3	3.18122E-3	193.416E-12	650.056E-3	-17.7462E-3
4.81991E-3	193.044E-12	631.788E-3	-1.29211E-3	194.888E-12	652.555E-3	-4.66430E-3
4.81491E-3	192.869E-12	650.653E-3	-19.4410E-3	193.618E-12	664.766E-3	-23.2907E-3
4.80990E-3	193.030E-12	666.746E-3	-41.4874E-3	192.586E-12	674.791E-3	-30.4800E-3
4.80490E-3	193.365E-12	641.672E-3	-43.0263E-3	192.375E-12	675.284E-3	-14.1265E-3
4.79990E-3	192.746E-12	622.566E-3	-19.9524E-3	192.018E-12	656.937E-3	655.474E-6
4.79490E-3	191.319E-12	652.302E-3	2.38390E-3	190.848E-12	612.126E-3	-7.06423E-3
4.78989E-3	190.668E-12	677.908E-3	10.7531E-3	189.929E-12	615.227E-3	-13.8827E-3
4.78489E-3	190.364E-12	654.999E-3	-3.06049E-3	190.722E-12	658.353E-3	-16.2855E-3
4.77989E-3	189.241E-12	625.197E-3	-12.7165E-3	189.760E-12	659.233E-3	-28.5439E-3
4.77489E-3	188.593E-12	634.902E-3	26.3343E-3	190.074E-12	639.403E-3	-34.5377E-3
4.76988E-3	187.599E-12	665.850E-3	63.7425E-3	190.455E-12	647.581E-3	-26.5336E-3
4.76488E-3	187.504E-12	680.863E-3	42.5073E-3	189.912E-12	672.893E-3	-22.4619E-3
4.75988E-3	186.449E-12	657.837E-3	16.5157E-3	189.616E-12	693.483E-3	-40.1016E-3
4.75488E-3	187.282E-12	623.199E-3	-4.77771E-3	190.887E-12	706.849E-3	-49.4740E-3
4.74988E-3	186.835E-12	626.917E-3	-17.7274E-3	190.438E-12	682.823E-3	-37.9734E-3
4.74487E-3	187.259E-12	644.360E-3	-4.53201E-3	189.753E-12	624.548E-3	-28.3711E-3
4.73987E-3	187.794E-12	645.082E-3	-14.5864E-3	189.737E-12	592.689E-3	-17.6739E-3
4.73487E-3	189.045E-12	660.314E-3	-43.0075E-3	189.932E-12	607.834E-3	-26.9276E-3
4.72986E-3	189.282E-12	655.316E-3	-28.2878E-3	188.849E-12	630.789E-3	-36.1005E-3
4.72486E-3	189.580E-12	625.277E-3	2.98187E-3	189.035E-12	647.148E-3	-19.6420E-3
4.71986E-3	191.275E-12	633.640E-3	13.7479E-3	188.043E-12	665.221E-3	-19.5933E-3
4.71486E-3	191.711E-12	683.826E-3	6.09830E-3	186.950E-12	662.436E-3	-27.7566E-3
4.70985E-3	191.318E-12	717.364E-3	-18.5234E-3	187.011E-12	648.647E-3	-20.4593E-3
4.70485E-3	190.992E-12	699.679E-3	-20.4497E-3	187.268E-12	639.914E-3	117.030E-6
4.69985E-3	189.704E-12	667.987E-3	1.04437E-3	187.059E-12	618.193E-3	30.7190E-3
4.69485E-3	189.121E-12	655.418E-3	14.2922E-3	186.184E-12	593.213E-3	29.4472E-3
4.68984E-3	188.527E-12	648.932E-3	6.43247E-3	187.008E-12	610.280E-3	1.53957E-3
4.68484E-3	187.667E-12	641.524E-3	-12.1470E-3	186.918E-12	650.180E-3	-1.67077E-3
4.67984E-3	185.705E-12	629.510E-3	-25.4276E-3	185.788E-12	659.209E-3	-3.12282E-3
4.67484E-3	185.862E-12	620.002E-3	-21.4568E-3	186.310E-12	643.359E-3	-31.7332E-3
4.66983E-3	185.468E-12	644.202E-3	-13.2515E-3	185.997E-12	620.205E-3	-38.9173E-3
4.66483E-3	184.757E-12	674.302E-3	-14.2345E-3	185.162E-12	616.838E-3	-5.56424E-3
4.65983E-3	183.416E-12	670.310E-3	-15.9302E-3	186.000E-12	631.654E-3	1.35016E-3
4.65483E-3	184.181E-12	642.771E-3	-16.6272E-3	185.202E-12	659.837E-3	-16.1559E-3
4.64982E-3	183.884E-12	623.139E-3	-14.9477E-3	183.873E-12	698.993E-3	-9.16552E-3
4.64482E-3	184.408E-12	622.570E-3	-12.2387E-3	184.636E-12	713.449E-3	-4.95785E-3
4.63982E-3	183.887E-12	633.073E-3	-16.5783E-3	183.645E-12	706.927E-3	-11.8169E-3
4.63482E-3	183.966E-12	639.545E-3	-24.3898E-3	183.210E-12	687.901E-3	-17.5023E-3
4.62981E-3	184.583E-12	623.586E-3	-34.0843E-3	184.652E-12	664.097E-3	847.935E-6
4.62481E-3	184.818E-12	608.720E-3	-43.9476E-3	183.821E-12	660.781E-3	36.3446E-3
4.61981E-3	184.479E-12	627.754E-3	-40.6681E-3	182.703E-12	667.432E-3	14.9557E-3
4.61481E-3	184.917E-12	658.439E-3	-26.8288E-3	184.393E-12	657.833E-3	-22.7412E-3
4.60980E-3	183.882E-12	659.785E-3	-20.8320E-3	185.021E-12	645.401E-3	-21.8448E-3
4.60480E-3	183.203E-12	637.683E-3	-30.6882E-3	183.391E-12	654.435E-3	-18.2295E-3
4.59980E-3	183.683E-12	625.549E-3	-15.8236E-3	183.984E-12	672.937E-3	-17.8370E-3
4.59480E-3	182.875E-12	628.652E-3	25.6455E-3	185.259E-12	659.402E-3	-17.8410E-3
4.58979E-3	181.013E-12	632.005E-3	24.4893E-3	183.832E-12	625.740E-3	-29.1804E-3
4.58479E-3	181.324E-12	635.740E-3	-9.38185E-3	183.137E-12	611.980E-3	-38.6376E-3
4.57979E-3	181.388E-12	641.069E-3	-19.0512E-3	183.153E-12	626.796E-3	-32.4903E-3
4.57479E-3	180.111E-12	640.415E-3	3.99707E-3	182.579E-12	644.134E-3	-21.2041E-3
4.56978E-3	178.817E-12	638.977E-3	30.5826E-3	182.496E-12	653.825E-3	-28.6766E-3
4.56478E-3	179.568E-12	649.624E-3	26.5027E-3	183.436E-12	670.466E-3	-41.6666E-3
4.55978E-3	177.910E-12	666.487E-3	10.6036E-3	182.217E-12	672.552E-3	-32.2570E-3
4.55478E-3	177.202E-12	655.529E-3	-8.13506E-3	181.171E-12	667.851E-3	-15.1388E-3
4.54977E-3	176.834E-12	619.784E-3	-40.6655E-3	181.705E-12	681.162E-3	1.96313E-3
4.54477E-3	177.531E-12	600.242E-3	-46.0030E-3	181.397E-12	692.413E-3	18.4043E-3
4.53977E-3	177.174E-12	622.682E-3	-25.9901E-3	180.936E-12	680.422E-3	7.80539E-3
4.53477E-3	177.580E-12	657.392E-3	-19.8995E-3	180.814E-12	670.773E-3	-28.1703E-3
4.52976E-3	177.559E-12	653.714E-3	-27.6070E-3	180.066E-12	677.493E-3	-39.4876E-3
4.52476E-3	177.071E-12	637.405E-3	-27.7749E-3	180.656E-12	671.351E-3	-18.8271E-3
4.51976E-3	177.307E-12	645.154E-3	-6.02701E-3	180.679E-12	651.972E-3	-17.3871E-3
4.51476E-3	179.040E-12	665.331E-3	-3.27577E-3	179.558E-12	649.309E-3	-34.6567E-3
4.50975E-3	179.308E-12	668.530E-3	-18.5078E-3	180.723E-12	664.013E-3	-35.7669E-3
4.50475E-3	178.728E-12	631.372E-3	-25.0075E-3	179.983E-12	658.880E-3	-32.6644E-3
4.49975E-3	179.712E-12	597.042E-3	-17.1545E-3	178.618E-12	655.585E-3	-23.3223E-3
4.49475E-3	180.368E-12	620.421E-3	-4.08503E-3	177.851E-12	672.078E-3	-96.6016E-6
4.48974E-3	179.988E-12	664.230E-3	-9.10550E-3	177.847E-12	653.767E-3	5.99899E-3
4.48474E-3	179.886E-12	683.258E-3	-27.6008E-3	177.030E-12	629.739E-3	-9.50496E-3
4.47974E-3	180.127E-12	662.175E-3	-56.9423E-3	176.398E-12	649.371E-3	-16.0289E-3
4.47474E-3	178.678E-12	626.486E-3	-64.6984E-3	176.489E-12	661.411E-3	-16.0119E-3
4.46973E-3	177.547E-12	635.816E-3	-43.5628E-3	175.673E-12	647.725E-3	-23.6242E-3
4.46473E-3	176.901E-12	673.115E-3	-32.1337E-3	174.765E-12	641.483E-3	-25.4707E-3
4.45973E-3	175.987E-12	685.097E-3	-42.2953E-3	174.680E-12	645.323E-3	-22.0551E-3
4.45473E-3	174.731E-12	670.612E-3	-47.9598E-3	174.527E-12	653.836E-3	-17.4902E-3
4.44972E-3	174.628E-12	658.489E-3	-31.3318E-3	174.256E-12	653.994E-3	-8.63699E-3
4.44472E-3	174.911E-12	655.017E-3	-7.03687E-3	174.431E-12	637.698E-3	-11.0181E-3
4.43972E-3	173.899E-12	674.793E-3	4.15832E-3	175.411E-12	618.920E-3	-6.49078E-3
4.43472E-3	173.437E-12	709.945E-3	-6.63468E-3	174.845E-12	629.043E-3	6.13572E-3
4.42971E-3	174.186E-12	709.958E-3	-26.9514E-3	174.169E-12	665.627E-3	-8.32037E-3
4.42471E-3	174.590E-12	666.934E-3	-35.8611E-3	174.790E-12	680.743E-3	-25.2353E-3
4.41971E-3	174.439E-12	624.656E-3	-15.9163E-3	174.555E-12	663.550E-3	-7.06615E-3
4.41471E-3	175.467E-12	618.145E-3	-4.08907E-3	174.418E-12	651.496E-3	12.2866E-3
4.40970E-3	176.242E-12	635.855E-3	-23.7309E-3	173.927E-12	675.990E-3	-13.2390E-3
4.40470E-3	176.598E-12	649.313E-3	-41.4690E-3	174.033E-12	698.153E-3	-49.0559E-3
4.39970E-3	176.788E-12	668.815E-3	-39.5131E-3	173.229E-12	675.609E-3	-47.1256E-3
4.39470E-3	176.910E-12	682.737E-3	-31.4068E-3	173.311E-12	644.739E-3	-29.8509E-3
4.38969E-3	177.128E-12	682.425E-3	-22.3137E-3	172.708E-12	647.308E-3	-6.38622E-3
4.38469E-3	176.220E-12	688.501E-3	-18.5429E-3	172.448E-12	673.054E-3	9.67229E-3
4.37969E-3	176.354E-12	660.848E-3	-44.5240E-3	171.757E-12	681.421E-3	-2.65547E-3
4.37469E-3	174.481E-12	624.844E-3	-56.9328E-3	171.666E-12	667.404E-3	-11.1458E-3
4.36968E-3	173.097E-12	625.071E-3	-14.6054E-3	171.310E-12	665.486E-3	-31.5259E-3
4.36468E-3	173.286E-12	631.487E-3	20.9739E-3	171.785E-12	671.266E-3	-62.1446E-3
4.35968E-3	172.483E-12	645.998E-3	30.4154E-3	171.223E-12	658.805E-3	-54.6795E-3
4.35468E-3	170.460E-12	648.819E-3	9.49779E-3	171.917E-12	660.296E-3	-53.2875E-3
4.34967E-3	170.712E-12	630.323E-3	-30.6427E-3	171.389E-12	659.561E-3	-78.2041E-3
4.34467E-3	171.045E-12	620.498E-3	-31.5431E-3	172.216E-12	621.860E-3	-65.1468E-3
4.33967E-3	169.846E-12	634.815E-3	-7.25454E-3	172.876E-12	615.633E-3	-32.7111E-3
4.33467E-3	170.189E-12	666.284E-3	-938.625E-6	172.929E-12	651.527E-3	-38.0506E-3
4.32966E-3	169.472E-12	674.293E-3	-9.04476E-3	172.116E-12	670.148E-3	-56.2048E-3
4.32466E-3	170.925E-12	659.344E-3	-1.32772E-3	171.975E-12	666.887E-3	-56.0404E-3
4.31966E-3	171.354E-12	645.060E-3	14.6961E-3	172.013E-12	672.294E-3	-32.8281E-3
4.31466E-3	170.815E-12	653.619E-3	13.1669E-3	171.985E-12	682.606E-3	-16.5952E-3
4.30965E-3	171.065E-12	683.768E-3	6.22153E-3	171.296E-12	666.092E-3	-26.1115E-3
4.30465E-3	172.032E-12	685.486E-3	5.92358E-3	172.080E-12	646.144E-3	-35.8161E-3
4.29965E-3	171.196E-12	667.426E-3	-3.91549E-3	170.490E-12	648.040E-3	-23.2599E-3
4.29465E-3	170.992E-12	650.970E-3	-18.8364E-3	170.347E-12	661.205E-3	-5.86091E-3
4.28964E-3	170.896E-12	638.588E-3	-7.19046E-3	170.727E-12	674.430E-3	-22.0985E-3
4.28464E-3	170.311E-12	653.768E-3	-4.39701E-3	171.295E-12	658.695E-3	-39.4169E-3
4.27964E-3	168.972E-12	678.741E-3	-41.0778E-3	169.670E-12	636.073E-3	-20.3950E-3
4.27464E-3	168.542E-12	661.891E-3	-61.1516E-3	170.239E-12	662.871E-3	-4.43727E-3
4.26963E-3	168.091E-12	618.230E-3	-32.6104E-3	170.768E-12	694.224E-3	-15.6072E-3
4.26463E-3	167.696E-12	619.808E-3	8.29324E-3	168.516E-12	688.126E-3	-13.7820E-3
4.25963E-3	165.388E-12	644.399E-3	15.0736E-3	168.077E-12	665.634E-3	-2.52436E-3
4.25463E-3	164.952E-12	644.128E-3	-14.6847E-3	168.804E-12	631.671E-3	-4.89569E-3
4.24962E-3	164.784E-12	634.886E-3	-46.4755E-3	168.227E-12	618.699E-3	-5.90705E-3
4.24462E-3	164.161E-12	637.046E-3	-62.5273E-3	166.953E-12	651.163E-3	-7.89025E-3
4.23962E-3	163.809E-12	642.572E-3	-65.9707E-3	167.202E-12	684.061E-3	-20.7494E-3
4.23462E-3	164.567E-12	652.211E-3	-55.6238E-3	166.847E-12	675.617E-3	-34.8209E-3
4.22961E-3	164.146E-12	671.683E-3	-26.6572E-3	166.410E-12	653.393E-3	-42.2822E-3
4.22461E-3	163.606E-12	667.173E-3	4.29963E-3	166.014E-12	647.750E-3	-41.2849E-3
4.21961E-3	164.199E-12	639.635E-3	8.92047E-3	166.766E-12	653.915E-3	-10.6730E-3
4.21461E-3	164.460E-12	628.577E-3	11.6928E-3	165.949E-12	660.317E-3	19.1741E-3
4.20960E-3	164.315E-12	642.136E-3	7.25311E-3	165.884E-12	647.362E-3	13.1942E-3
4.20460E-3	164.523E-12	648.603E-3	-34.6118E-3	166.127E-12	631.041E-3	11.4803E-3
4.19960E-3	163.965E-12	634.573E-3	-65.6282E-3	166.088E-12	629.031E-3	1.31192E-3
4.19460E-3	164.638E-12	638.737E-3	-54.2789E-3	165.652E-12	645.135E-3	-29.6701E-3
4.18959E-3	165.362E-12	645.512E-3	-27.7335E-3	166.002E-12	652.492E-3	-23.2904E-3
4.18459E-3	164.403E-12	634.272E-3	-15.7067E-3	165.652E-12	632.856E-3	-3.00268E-3
4.17959E-3	164.119E-12	651.384E-3	-22.1039E-3	165.567E-12	625.551E-3	-23.3382E-3
4.17459E-3	164.183E-12	648.070E-3	-31.3173E-3	164.650E-12	624.820E-3	-32.1955E-3
4.16958E-3	163.301E-12	619.854E-3	-28.3662E-3	164.668E-12	634.061E-3	2.36523E-3
4.16458E-3	163.656E-12	646.850E-3	-14.5699E-3	163.693E-12	665.013E-3	9.30617E-3
4.15958E-3	163.482E-12	693.543E-3	-10.0849E-3	163.570E-12	669.065E-3	-19.7983E-3
4.15458E-3	162.959E-12	705.123E-3	-20.0049E-3	164.245E-12	652.664E-3	-40.5046E-3
4.14957E-3	163.587E-12	679.231E-3	-29.0345E-3	162.941E-12	647.471E-3	-58.3758E-3
4.14457E-3	163.940E-12	637.541E-3	-9.30772E-3	161.850E-12	633.099E-3	-42.9313E-3
4.13957E-3	163.149E-12	616.563E-3	35.3959E-3	162.237E-12	618.578E-3	4.07706E-3
4.13457E-3	162.291E-12	627.838E-3	51.1661E-3	162.141E-12	634.673E-3	11.4560E-3
4.12956E-3	162.473E-12	654.257E-3	16.0689E-3	161.836E-12	634.640E-3	-21.1492E-3
4.12456E-3	161.701E-12	658.828E-3	-28.1798E-3	161.907E-12	615.714E-3	-36.6146E-3
4.11956E-3	161.621E-12	615.083E-3	-54.7144E-3	162.021E-12	638.195E-3	-15.6231E-3
4.11456E-3	161.981E-12	577.962E-3	-53.6447E-3	162.339E-12	664.510E-3	8.43487E-3
4.10955E-3	162.303E-12	603.829E-3	-6.69623E-3	162.317E-12	649.074E-3	18.8383E-3
4.10455E-3	162.254E-12	650.123E-3	24.0506E-3	161.802E-12	627.395E-3	26.3727E-3
4.09955E-3	162.026E-12	666.615E-3	193.481E-6	161.812E-12	635.025E-3	3.16478E-3
4.09455E-3	162.701E-12	640.819E-3	-18.5250E-3	161.654E-12	652.404E-3	-20.2620E-3
4.08954E-3	163.085E-12	610.087E-3	-20.6783E-3	161.526E-12	660.552E-3	-15.8561E-3
4.08454E-3	162.856E-12	627.111E-3	-17.8916E-3	161.049E-12	667.415E-3	-17.0436E-3
4.07954E-3	162.923E-12	659.240E-3	-18.7043E-3	161.140E-12	657.358E-3	-5.70258E-3
4.07454E-3	163.864E-12	662.373E-3	-27.9133E-3	160.760E-12	640.298E-3	-3.48402E-3
4.06953E-3	163.414E-12	646.923E-3	-25.1501E-3	160.732E-12	650.501E-3	-45.8998E-3
4.06453E-3	162.495E-12	638.231E-3	-16.3449E-3	160.177E-12	668.011E-3	-66.5862E-3
4.05953E-3	161.753E-12	660.651E-3	-7.03421E-3	159.545E-12	679.369E-3	-31.4467E-3
4.05453E-3	161.365E-12	672.775E-3	-2.17567E-3	159.110E-12	672.381E-3	-14.0530E-3
4.04952E-3	159.770E-12	635.570E-3	-7.11700E-3	158.983E-12	651.478E-3	-31.6138E-3
4.04452E-3	158.212E-12	598.580E-3	-21.6999E-3	158.742E-12	638.357E-3	-30.0304E-3
4.03952E-3	157.719E-12	581.400E-3	-18.0398E-3	158.616E-12	635.510E-3	-13.9660E-3
4.03452E-3	156.595E-12	593.198E-3	9.78801E-3	158.303E-12	653.137E-3	-2.69291E-3
4.02951E-3	155.492E-12	628.480E-3	8.32050E-3	157.582E-12	659.273E-3	5.72009E-3
4.02451E-3	155.064E-12	647.701E-3	-16.6473E-3	158.555E-12	637.829E-3	-15.6569E-3
4.01951E-3	154.656E-12	653.211E-3	-42.0859E-3	158.643E-12	628.801E-3	-40.3917E-3
4.01451E-3	153.937E-12	645.760E-3	-54.2403E-3	158.004E-12	651.624E-3	-27.3997E-3
4.00950E-3	154.028E-12	623.133E-3	-28.1293E-3	156.578E-12	669.742E-3	-10.0607E-3
4.00450E-3	154.307E-12	625.908E-3	-5.10196E-3	157.533E-12	644.769E-3	-12.0399E-3
3.99950E-3	154.251E-12	638.631E-3	-3.98467E-3	156.790E-12	620.282E-3	-5.13392E-3
3.99450E-3	155.206E-12	637.727E-3	-79.1449E-6	156.136E-12	638.813E-3	7.66449E-3
3.98949E-3	155.796E-12	628.020E-3	-1.53761E-3	155.214E-12	659.875E-3	-7.34957E-3
3.98449E-3	156.187E-12	623.914E-3	1.07680E-3	156.252E-12	655.774E-3	-17.3296E-3
3.97949E-3	155.845E-12	650.880E-3	125.488E-6	155.613E-12	650.082E-3	-3.19874E-3
3.97449E-3	156.801E-12	670.121E-3	-27.0778E-3	155.152E-12	646.365E-3	-7.30516E-3
3.96948E-3	156.621E-12	671.193E-3	-40.5417E-3	155.043E-12	632.374E-3	-17.7115E-3
3.96448E-3	156.062E-12	647.604E-3	-20.3784E-3	154.339E-12	630.584E-3	-14.0988E-3
3.95948E-3	156.074E-12	622.522E-3	-2.28582E-3	154.228E-12	645.757E-3	-19.4995E-3
3.95448E-3	155.003E-12	650.354E-3	1.53182E-3	154.260E-12	647.670E-3	-30.5505E-3
3.94947E-3	153.648E-12	675.281E-3	-9.36710E-3	153.985E-12	647.095E-3	-44.7275E-3
3.94447E-3	152.862E-12	652.343E-3	-31.9036E-3	153.056E-12	657.812E-3	-68.9814E-3
3.93947E-3	152.405E-12	621.718E-3	-36.3881E-3	153.159E-12	667.593E-3	-65.4202E-3
3.93447E-3	151.314E-12	612.608E-3	-6.10841E-3	153.148E-12	665.343E-3	-18.4150E-3
3.92946E-3	150.789E-12	629.620E-3	16.1693E-3	151.926E-12	638.436E-3	15.1711E-3
3.92446E-3	150.402E-12	646.853E-3	-6.70171E-3	152.207E-12	623.933E-3	17.9177E-3
3.91946E-3	150.503E-12	624.835E-3	-27.9302E-3	152.339E-12	642.261E-3	13.6263E-3
3.91446E-3	151.218E-12	587.979E-3	-22.8988E-3	152.407E-12	654.233E-3	-999.721E-6
3.90945E-3	150.956E-12	597.174E-3	-12.6229E-3	152.035E-12	633.728E-3	-19.9472E-3
3.90445E-3	150.808E-12	651.535E-3	-1.90601E-3	151.875E-12	607.625E-3	-23.2049E-3
3.89945E-3	151.595E-12	676.339E-3	2.55939E-3	151.044E-12	626.391E-3	-10.7409E-3
3.89445E-3	151.836E-12	650.926E-3	-14.8445E-3	151.089E-12	665.620E-3	-3.49009E-3
3.88944E-3	153.202E-12	627.113E-3	-35.3139E-3	149.966E-12	690.152E-3	-3.65472E-3
3.88444E-3	153.198E-12	632.577E-3	-33.4976E-3	150.032E-12	700.433E-3	-3.64569E-3
3.87944E-3	154.247E-12	648.458E-3	-29.5016E-3	149.378E-12	683.628E-3	-9.23173E-3
3.87444E-3	154.271E-12	653.145E-3	-25.5233E-3	149.837E-12	676.580E-3	-7.66063E-3
3.86943E-3	154.200E-12	660.181E-3	-21.4356E-3	150.738E-12	681.450E-3	-4.65128E-3
3.86443E-3	153.943E-12	669.599E-3	-10.6552E-3	149.934E-12	646.335E-3	-21.2217E-3
3.85943E-3	153.439E-12	672.693E-3	6.85146E-3	149.685E-12	613.512E-3	-38.2061E-3
3.85443E-3	151.864E-12	665.372E-3	8.86623E-3	150.280E-12	625.749E-3	-24.4258E-3
3.84942E-3	151.234E-12	657.924E-3	5.51559E-3	149.875E-12	636.007E-3	5.05863E-3
3.84442E-3	150.928E-12	655.241E-3	-4.42965E-3	150.495E-12	641.883E-3	3.36294E-3
3.83942E-3	149.220E-12	646.885E-3	-19.9731E-3	150.802E-12	661.553E-3	-19.2657E-3
3.83442E-3	149.004E-12	642.113E-3	-11.5157E-3	149.631E-12	661.434E-3	-40.3971E-3
3.82941E-3	149.047E-12	657.511E-3	-12.9495E-3	149.400E-12	655.623E-3	-45.1839E-3
3.82441E-3	147.604E-12	682.913E-3	-42.1978E-3	149.762E-12	663.018E-3	-31.9201E-3
3.81941E-3	147.528E-12	678.044E-3	-54.3195E-3	150.029E-12	651.503E-3	-38.5940E-3
3.81441E-3	148.182E-12	652.204E-3	-38.1397E-3	148.626E-12	631.391E-3	-57.0290E-3
3.80940E-3	147.815E-12	638.849E-3	-2.54632E-3	148.146E-12	649.337E-3	-63.9213E-3
3.80440E-3	147.822E-12	646.835E-3	17.1647E-3	149.347E-12	665.258E-3	-51.9545E-3
3.79940E-3	148.419E-12	670.832E-3	16.9105E-3	147.543E-12	648.564E-3	-34.9467E-3
3.79440E-3	148.468E-12	677.848E-3	15.4911E-3	147.723E-12	639.638E-3	-33.0250E-3
3.78939E-3	147.676E-12	662.076E-3	-329.615E-6	148.192E-12	644.443E-3	-27.3066E-3
3.78439E-3	148.654E-12	653.708E-3	-3.29946E-3	147.716E-12	652.355E-3	-16.0782E-3
3.77939E-3	148.561E-12	654.958E-3	3.19631E-3	147.345E-12	667.736E-3	-14.0047E-3
3.77439E-3	147.276E-12	672.629E-3	-20.7503E-3	148.079E-12	674.464E-3	-18.6564E-3
3.76938E-3	147.071E-12	685.246E-3	-46.6792E-3	148.098E-12	652.640E-3	-20.8661E-3
3.76438E-3	147.365E-12	675.141E-3	-39.9322E-3	147.783E-12	637.674E-3	-19.9965E-3
3.75938E-3	146.509E-12	660.732E-3	-13.9395E-3	147.951E-12	662.368E-3	-21.7123E-3
3.75438E-3	145.530E-12	659.647E-3	11.1472E-3	147.719E-12	690.521E-3	-30.9615E-3
3.74937E-3	145.470E-12	662.186E-3	12.7855E-3	146.834E-12	688.477E-3	-33.2877E-3
3.74437E-3	145.245E-12	652.289E-3	-11.1535E-3	146.963E-12	691.849E-3	-18.7750E-3
3.73937E-3	145.019E-12	646.062E-3	-35.7114E-3	147.115E-12	702.344E-3	-8.38566E-3
3.73437E-3	143.704E-12	647.094E-3	-38.0502E-3	146.448E-12	699.693E-3	-12.0577E-3
3.72936E-3	143.229E-12	656.689E-3	-16.2089E-3	145.817E-12	691.748E-3	724.461E-6
3.72436E-3	143.641E-12	674.347E-3	-2.29483E-3	145.748E-12	668.069E-3	38.0398E-3
3.71936E-3	143.405E-12	696.872E-3	-21.4604E-3	145.191E-12	648.072E-3	44.7533E-3
3.71436E-3	142.331E-12	698.282E-3	-44.1457E-3	144.384E-12	652.571E-3	9.73263E-3
3.70935E-3	142.583E-12	669.846E-3	-41.2376E-3	144.082E-12	643.547E-3	-19.2757E-3
3.70435E-3	142.551E-12	661.453E-3	-19.4579E-3	144.330E-12	628.873E-3	-16.6934E-3
3.69935E-3	141.968E-12	682.124E-3	2.00175E-3	142.885E-12	625.754E-3	-12.0359E-3
3.69435E-3	142.140E-12	684.161E-3	-7.06638E-3	142.735E-12	632.152E-3	-10.7289E-3
3.68934E-3	142.090E-12	656.667E-3	-35.2156E-3	142.880E-12	661.025E-3	10.6866E-3
3.68434E-3	141.517E-12	633.351E-3	-37.0668E-3	142.223E-12	680.625E-3	10.4459E-3
3.67934E-3	141.831E-12	644.595E-3	-14.2346E-3	142.173E-12	675.238E-3	-15.3621E-3
3.67434E-3	142.118E-12	674.400E-3	-2.41084E-3	142.638E-12	667.750E-3	-22.3115E-3
3.66933E-3	141.873E-12	674.995E-3	-9.96000E-3	142.733E-12	664.860E-3	-18.5885E-3
3.66433E-3	142.192E-12	646.755E-3	-21.0155E-3	141.593E-12	668.408E-3	-20.7420E-3
3.65933E-3	142.712E-12	622.393E-3	-25.9004E-3	141.840E-12	679.527E-3	-16.3382E-3
3.65433E-3	142.030E-12	618.747E-3	-27.5060E-3	141.169E-12	684.358E-3	-797.494E-6
3.64932E-3	142.383E-12	644.264E-3	-25.2440E-3	141.428E-12	679.717E-3	8.64409E-3
3.64432E-3	142.587E-12	678.000E-3	-22.1110E-3	140.952E-12	678.146E-3	-1.15552E-3
3.63932E-3	141.791E-12	671.857E-3	-37.2189E-3	140.057E-12	674.839E-3	-25.9048E-3
3.63432E-3	141.484E-12	649.289E-3	-49.9371E-3	139.745E-12	652.805E-3	-56.9764E-3
3.62931E-3	140.983E-12	650.020E-3	-29.0927E-3	140.503E-12	636.223E-3	-61.8944E-3
3.62431E-3	139.847E-12	654.672E-3	-18.3775E-3	140.319E-12	642.153E-3	-26.6106E-3
3.61931E-3	138.970E-12	652.116E-3	-51.5202E-3	139.094E-12	649.221E-3	4.09698E-3
3.61431E-3	138.552E-12	645.185E-3	-72.1489E-3	139.137E-12	644.164E-3	6.89117E-3
3.60930E-3	137.875E-12	637.493E-3	-46.7696E-3	139.591E-12	644.733E-3	-7.98848E-3
3.60430E-3	136.481E-12	652.454E-3	-26.6787E-3	138.295E-12	648.628E-3	-19.7508E-3
3.59930E-3	136.751E-12	681.280E-3	-31.4497E-3	137.577E-12	655.067E-3	-21.1497E-3
3.59430E-3	136.444E-12	679.550E-3	-37.1624E-3	138.370E-12	675.948E-3	-25.6177E-3
3.58929E-3	136.307E-12	664.679E-3	-50.4600E-3	137.476E-12	694.913E-3	-22.9475E-3
3.58429E-3	135.662E-12	651.340E-3	-54.4313E-3	137.488E-12	700.071E-3	-15.7099E-3
3.57929E-3	136.856E-12	634.561E-3	-22.0875E-3	138.142E-12	688.589E-3	-12.1377E-3
3.57429E-3	136.600E-12	639.132E-3	-5.36792E-3	136.681E-12	664.755E-3	-8.78352E-3
3.56928E-3	136.887E-12	659.790E-3	-29.2377E-3	136.325E-12	642.292E-3	-20.8465E-3
3.56428E-3	138.158E-12	659.999E-3	-54.3411E-3	136.045E-12	639.491E-3	-39.3537E-3
3.55928E-3	138.882E-12	648.007E-3	-47.9017E-3	136.085E-12	656.247E-3	-50.3576E-3
3.55428E-3	138.653E-12	659.821E-3	-21.0572E-3	136.085E-12	658.810E-3	-42.8009E-3
3.54927E-3	139.062E-12	688.127E-3	-7.86913E-3	135.916E-12	642.616E-3	-8.17999E-3
3.54427E-3	138.875E-12	713.481E-3	-10.5527E-3	135.723E-12	642.241E-3	3.86115E-3
3.53927E-3	138.892E-12	710.883E-3	-20.2062E-3	136.054E-12	661.193E-3	-21.9795E-3
3.53427E-3	138.820E-12	680.658E-3	-8.32770E-3	135.386E-12	687.192E-3	-30.3118E-3
3.52926E-3	138.001E-12	659.041E-3	22.0022E-3	135.431E-12	693.432E-3	-26.2659E-3
3.52426E-3	137.122E-12	665.062E-3	17.8167E-3	136.327E-12	673.083E-3	-23.0610E-3
3.51926E-3	136.874E-12	689.486E-3	-6.14711E-3	136.370E-12	670.037E-3	-9.66834E-3
3.51426E-3	135.786E-12	699.920E-3	-16.1692E-3	135.338E-12	683.263E-3	-11.1898E-3
3.50925E-3	134.369E-12	680.899E-3	-19.4364E-3	136.977E-12	677.116E-3	-17.9692E-3
3.50425E-3	133.921E-12	660.861E-3	-4.21074E-3	136.951E-12	667.478E-3	-17.8060E-3
3.49925E-3	133.263E-12	663.176E-3	12.2712E-3	135.318E-12	678.117E-3	-11.8631E-3
3.49425E-3	132.778E-12	675.724E-3	12.3911E-3	135.372E-12	690.589E-3	3.96942E-3
3.48924E-3	133.306E-12	673.680E-3	-5.08508E-3	135.972E-12	693.729E-3	-5.52890E-3
3.48424E-3	132.874E-12	652.933E-3	-28.8516E-3	134.878E-12	682.230E-3	-31.9961E-3
3.47924E-3	132.686E-12	649.391E-3	-17.1537E-3	135.251E-12	663.251E-3	-23.3069E-3
3.47424E-3	133.109E-12	668.520E-3	6.88923E-3	135.402E-12	661.731E-3	4.52771E-3
3.46923E-3	133.625E-12	685.028E-3	2.65902E-3	134.291E-12	679.648E-3	7.52033E-3
3.46423E-3	134.262E-12	692.886E-3	-9.43104E-3	133.812E-12	694.753E-3	-12.0370E-3
3.45923E-3	134.313E-12	680.865E-3	-9.94455E-3	135.259E-12	693.668E-3	-29.0095E-3
3.45423E-3	134.699E-12	647.025E-3	-10.0824E-3	134.556E-12	673.243E-3	-35.4374E-3
3.44922E-3	134.583E-12	633.829E-3	-15.3035E-3	133.747E-12	650.518E-3	-22.2898E-3
3.44422E-3	134.357E-12	671.082E-3	-42.9137E-3	133.723E-12	653.937E-3	-2.50167E-3
3.43922E-3	134.021E-12	705.883E-3	-72.5486E-3	133.234E-12	672.624E-3	-7.51632E-3
3.43422E-3	133.455E-12	695.111E-3	-72.0455E-3	133.009E-12	674.380E-3	-33.5469E-3
3.42921E-3	132.679E-12	670.791E-3	-48.1535E-3	133.286E-12	656.031E-3	-48.8663E-3
3.42421E-3	132.940E-12	679.999E-3	-13.2280E-3	132.468E-12	650.408E-3	-46.5585E-3
3.41921E-3	131.379E-12	694.571E-3	348.110E-6	131.948E-12	674.467E-3	-42.1341E-3
3.41421E-3	130.143E-12	689.224E-3	-11.7949E-3	131.467E-12	709.243E-3	-34.6055E-3
3.40920E-3	129.775E-12	686.668E-3	-28.8810E-3	131.358E-12	712.835E-3	-9.50241E-3
3.40420E-3	128.745E-12	674.802E-3	-28.5426E-3	130.762E-12	689.258E-3	8.38772E-3
3.39920E-3	127.666E-12	657.671E-3	-5.27257E-3	129.718E-12	673.761E-3	-14.0786E-3
3.39420E-3	128.320E-12	654.027E-3	1.78345E-3	129.815E-12	665.365E-3	-31.6337E-3
3.38919E-3	127.828E-12	658.019E-3	-19.9637E-3	130.030E-12	662.935E-3	-20.7553E-3
3.38419E-3	127.042E-12	651.828E-3	-36.1575E-3	128.911E-12	659.197E-3	-14.6833E-3
3.37919E-3	127.304E-12	633.927E-3	-22.4319E-3	128.942E-12	657.062E-3	-20.5359E-3
3.37419E-3	128.027E-12	631.171E-3	12.8270E-3	129.014E-12	666.784E-3	-23.5867E-3
3.36918E-3	127.088E-12	650.707E-3	19.2312E-3	128.207E-12	678.521E-3	-21.1665E-3
3.36418E-3	127.453E-12	658.895E-3	-24.3624E-3	127.922E-12	695.220E-3	-21.8695E-3
3.35918E-3	127.528E-12	644.680E-3	-50.6179E-3	128.010E-12	701.878E-3	-31.1271E-3
3.35418E-3	127.731E-12	635.814E-3	-31.7938E-3	127.826E-12	680.771E-3	-29.7102E-3
3.34917E-3	127.308E-12	647.785E-3	-17.2431E-3	127.761E-12	647.676E-3	-22.2630E-3
3.34417E-3	127.058E-12	663.235E-3	-10.8689E-3	128.078E-12	637.363E-3	-18.2452E-3
3.33917E-3	126.812E-12	661.061E-3	-17.6667E-3	127.745E-12	651.812E-3	5.13095E-3
3.33417E-3	126.652E-12	652.367E-3	-50.3387E-3	127.320E-12	677.083E-3	15.0289E-3
3.32916E-3	126.045E-12	641.987E-3	-62.6583E-3	127.100E-12	689.549E-3	-5.74200E-3
3.32416E-3	125.602E-12	632.909E-3	-34.0109E-3	126.875E-12	677.322E-3	-9.45595E-3
3.31916E-3	125.172E-12	643.683E-3	-12.2779E-3	126.303E-12	673.824E-3	-2.37772E-3
3.31416E-3	124.371E-12	653.446E-3	-26.2177E-3	126.046E-12	676.895E-3	-27.4655E-3
3.30915E-3	124.340E-12	647.239E-3	-42.5457E-3	125.537E-12	674.075E-3	-51.0175E-3
3.30415E-3	124.592E-12	645.791E-3	-33.3810E-3	125.517E-12	681.854E-3	-26.2133E-3
3.29915E-3	124.346E-12	652.999E-3	-5.22116E-3	125.235E-12	687.812E-3	3.96016E-3
3.29415E-3	123.483E-12	650.072E-3	16.3662E-3	124.215E-12	678.512E-3	-4.68813E-3
3.28914E-3	124.063E-12	641.302E-3	5.33337E-3	124.056E-12	672.697E-3	-18.6909E-3
3.28414E-3	123.637E-12	645.047E-3	-31.0079E-3	124.359E-12	663.124E-3	-25.9935E-3
3.27914E-3	123.199E-12	654.632E-3	-38.0630E-3	124.005E-12	649.661E-3	-49.6660E-3
3.27414E-3	123.462E-12	654.603E-3	-6.20630E-3	123.331E-12	659.288E-3	-47.7491E-3
3.26913E-3	123.430E-12	657.723E-3	4.19421E-3	123.688E-12	673.971E-3	-17.0914E-3
3.26413E-3	123.191E-12	674.099E-3	-7.45570E-3	123.804E-12	662.964E-3	-1.45818E-3
3.25913E-3	123.510E-12	665.564E-3	-14.8001E-3	123.217E-12	649.863E-3	10.4924E-3
3.25413E-3	123.932E-12	645.590E-3	-11.3069E-3	123.971E-12	656.995E-3	13.6154E-3
3.24912E-3	123.317E-12	645.212E-3	1.49965E-3	124.230E-12	663.431E-3	1.57683E-3
3.24412E-3	123.540E-12	652.562E-3	-9.52695E-3	123.491E-12	666.497E-3	-4.48617E-3
3.23912E-3	123.418E-12	670.536E-3	-27.3815E-3	123.420E-12	667.469E-3	-1.94001E-3
3.23412E-3	123.233E-12	681.614E-3	-12.4957E-3	123.445E-12	648.741E-3	10.2956E-3
3.22911E-3	122.754E-12	678.114E-3	-8.81478E-3	123.066E-12	632.972E-3	17.5125E-3
3.22411E-3	122.671E-12	683.539E-3	-11.1565E-3	122.790E-12	658.628E-3	-16.5462E-3
3.21911E-3	122.473E-12	687.286E-3	10.0559E-3	122.754E-12	694.693E-3	-52.9390E-3
3.21411E-3	122.414E-12	677.685E-3	170.314E-6	122.726E-12	685.979E-3	-32.1682E-3
3.20910E-3	122.241E-12	673.431E-3	-25.2324E-3	121.965E-12	652.676E-3	-243.817E-6
3.20410E-3	121.511E-12	679.823E-3	-18.8163E-3	121.697E-12	641.573E-3	-17.4405E-3
3.19910E-3	122.213E-12	681.809E-3	-9.84225E-3	120.850E-12	655.906E-3	-42.4859E-3
3.19410E-3	121.430E-12	684.356E-3	-15.2487E-3	120.923E-12	683.165E-3	-21.7245E-3
3.18909E-3	121.229E-12	694.948E-3	-7.19638E-3	120.736E-12	694.906E-3	764.639E-6
3.18409E-3	121.090E-12	687.224E-3	-8.15044E-3	120.592E-12	674.614E-3	-1.94543E-3
3.17909E-3	120.812E-12	665.490E-3	-23.9859E-3	120.869E-12	682.047E-3	-4.09625E-3
3.17409E-3	119.926E-12	659.752E-3	-17.1219E-3	120.468E-12	716.666E-3	-15.3891E-3
3.16908E-3	120.201E-12	664.385E-3	-7.07523E-3	120.164E-12	714.206E-3	-24.3268E-3
3.16408E-3	120.198E-12	674.142E-3	-13.1820E-3	121.020E-12	692.754E-3	-30.2930E-3
3.15908E-3	119.690E-12	673.229E-3	-27.7262E-3	120.480E-12	682.611E-3	-33.1236E-3
3.15408E-3	119.236E-12	654.519E-3	-35.0136E-3	120.017E-12	677.912E-3	-21.7125E-3
3.14907E-3	119.040E-12	647.211E-3	-39.5018E-3	119.886E-12	670.568E-3	-12.3036E-3
3.14407E-3	118.904E-12	663.131E-3	-33.3486E-3	120.034E-12	670.329E-3	-7.85750E-3
3.13907E-3	118.508E-12	686.950E-3	-21.1492E-3	119.450E-12	686.657E-3	-14.5489E-3
3.13407E-3	117.974E-12	693.306E-3	-32.7908E-3	118.816E-12	688.372E-3	-29.8605E-3
3.12906E-3	118.167E-12	673.240E-3	-33.2444E-3	118.413E-12	666.893E-3	-27.8510E-3
3.12406E-3	118.733E-12	651.675E-3	-18.2462E-3	118.423E-12	649.083E-3	-13.0242E-3
3.11906E-3	118.066E-12	657.037E-3	-18.5904E-3	117.756E-12	650.789E-3	1.21715E-3
3.11406E-3	117.917E-12	674.802E-3	-8.29235E-3	117.033E-12	656.726E-3	13.7762E-3
3.10905E-3	117.659E-12	687.903E-3	474.758E-6	116.551E-12	648.898E-3	15.6632E-3
3.10405E-3	117.620E-12	699.846E-3	-22.8063E-3	116.593E-12	650.453E-3	7.64071E-3
3.09905E-3	117.328E-12	698.269E-3	-28.9204E-3	115.876E-12	665.475E-3	5.13135E-3
3.09405E-3	116.852E-12	687.651E-3	-14.3574E-3	115.712E-12	664.789E-3	-1.23162E-3
3.08904E-3	116.285E-12	686.598E-3	-19.7282E-3	115.376E-12	668.294E-3	-14.4086E-3
3.08404E-3	116.308E-12	683.468E-3	-24.0203E-3	115.170E-12	683.443E-3	-19.5468E-3
3.07904E-3	115.913E-12	665.278E-3	-15.0137E-3	115.192E-12	680.987E-3	-24.7440E-3
3.07404E-3	115.532E-12	654.644E-3	-10.3364E-3	114.870E-12	671.213E-3	-19.2371E-3
3.06903E-3	114.387E-12	669.270E-3	-4.39224E-3	114.075E-12	670.524E-3	-10.6590E-3
3.06403E-3	114.143E-12	698.210E-3	-1.56670E-3	113.821E-12	675.561E-3	-23.1634E-3
3.05903E-3	114.401E-12	706.413E-3	-15.2218E-3	113.784E-12	672.570E-3	-25.3357E-3
3.05403E-3	113.980E-12	688.748E-3	-33.2027E-3	113.525E-12	666.800E-3	-13.3829E-3
3.04902E-3	113.765E-12	676.186E-3	-24.6547E-3	113.351E-12	678.894E-3	-22.7568E-3
3.04402E-3	114.730E-12	666.650E-3	7.07839E-3	113.429E-12	698.590E-3	-37.2660E-3
3.03902E-3	114.319E-12	665.460E-3	10.2785E-3	113.601E-12	713.469E-3	-23.4447E-3
3.03402E-3	113.942E-12	684.443E-3	-14.2106E-3	113.299E-12	714.822E-3	-9.53413E-3
3.02901E-3	114.588E-12	704.254E-3	-32.2114E-3	113.686E-12	699.106E-3	-28.6212E-3
3.02401E-3	113.985E-12	701.188E-3	-42.5017E-3	113.978E-12	697.779E-3	-34.7622E-3
3.01901E-3	113.600E-12	683.180E-3	-44.1244E-3	113.375E-12	715.751E-3	-19.9543E-3
3.01401E-3	113.786E-12	668.100E-3	-34.8955E-3	112.972E-12	706.614E-3	-22.2102E-3
3.00900E-3	112.927E-12	668.243E-3	-33.8690E-3	113.878E-12	682.856E-3	-14.0627E-3
3.00400E-3	112.585E-12	682.931E-3	-36.1755E-3	113.223E-12	681.456E-3	-7.20051E-3
2.99900E-3	112.494E-12	682.840E-3	-21.1904E-3	112.115E-12	681.071E-3	-23.8123E-3
2.99400E-3	112.012E-12	671.607E-3	-10.1544E-3	111.793E-12	684.519E-3	-20.7658E-3
2.98899E-3	111.091E-12	679.124E-3	-18.3166E-3	111.358E-12	693.605E-3	-7.69101E-3
2.98399E-3	111.145E-12	696.069E-3	-27.9039E-3	110.639E-12	675.262E-3	-19.5870E-3
2.97899E-3	110.827E-12	694.070E-3	-36.9930E-3	110.012E-12	664.457E-3	-45.0095E-3
2.97399E-3	110.489E-12	684.429E-3	-36.2630E-3	109.870E-12	694.884E-3	-64.8019E-3
2.96898E-3	110.018E-12	684.132E-3	-19.0333E-3	109.609E-12	703.143E-3	-54.3470E-3
2.96398E-3	109.434E-12	686.207E-3	-14.8702E-3	109.357E-12	674.647E-3	-17.2660E-3
2.95898E-3	109.430E-12	680.417E-3	-17.3300E-3	109.093E-12	660.448E-3	-6.82781E-3
2.95398E-3	108.996E-12	666.920E-3	-12.9459E-3	109.208E-12	665.093E-3	-34.6623E-3
2.94897E-3	109.261E-12	663.347E-3	-10.8164E-3	109.223E-12	688.763E-3	-40.5888E-3
2.94397E-3	109.344E-12	667.392E-3	2.73196E-3	109.604E-12	718.022E-3	-10.7224E-3
2.93897E-3	108.968E-12	665.708E-3	13.1351E-3	109.923E-12	715.081E-3	827.114E-6
2.93397E-3	109.140E-12	674.818E-3	3.45284E-3	109.800E-12	691.459E-3	-13.5738E-3
2.92896E-3	109.223E-12	683.587E-3	-16.9223E-3	109.930E-12	689.640E-3	-25.1556E-3
2.92396E-3	108.824E-12	673.319E-3	-38.7470E-3	110.578E-12	696.045E-3	-25.2397E-3
2.91896E-3	108.928E-12	670.602E-3	-40.2679E-3	110.153E-12	682.691E-3	-24.1444E-3
2.91396E-3	108.512E-12	682.719E-3	-27.9041E-3	110.025E-12	670.683E-3	-36.2658E-3
2.90895E-3	107.467E-12	700.770E-3	-29.3088E-3	110.308E-12	669.691E-3	-44.7816E-3
2.90395E-3	107.895E-12	713.209E-3	-44.6991E-3	109.730E-12	682.618E-3	-31.9772E-3
2.89895E-3	107.336E-12	699.716E-3	-45.7124E-3	108.656E-12	704.614E-3	-22.3191E-3
2.89395E-3	106.996E-12	684.485E-3	-19.3109E-3	108.869E-12	711.927E-3	-26.2397E-3
2.88894E-3	106.724E-12	692.976E-3	538.583E-6	108.203E-12	710.645E-3	-17.9672E-3
2.88394E-3	106.334E-12	716.627E-3	-10.1057E-3	106.570E-12	706.101E-3	-3.61527E-3
2.87894E-3	105.874E-12	731.863E-3	-18.3514E-3	106.478E-12	700.186E-3	-1.42981E-3
2.87394E-3	105.354E-12	708.261E-3	-14.2955E-3	106.207E-12	701.741E-3	-10.3289E-3
2.86893E-3	105.295E-12	681.236E-3	-19.2670E-3	105.892E-12	697.073E-3	-22.3483E-3
2.86393E-3	105.133E-12	687.311E-3	-24.7167E-3	106.152E-12	685.206E-3	-34.0826E-3
2.85893E-3	105.418E-12	704.855E-3	-15.2498E-3	106.077E-12	681.221E-3	-43.5097E-3
2.85393E-3	105.718E-12	704.722E-3	-12.5982E-3	105.480E-12	692.885E-3	-34.8827E-3
2.84892E-3	105.804E-12	683.660E-3	-6.25381E-3	104.695E-12	702.008E-3	-21.1580E-3
2.84392E-3	106.075E-12	686.651E-3	16.9290E-3	104.974E-12	695.040E-3	-20.5650E-3
2.83892E-3	105.748E-12	712.775E-3	14.5674E-3	104.828E-12	689.223E-3	-14.6953E-3
2.83392E-3	105.936E-12	719.952E-3	-3.74208E-3	105.059E-12	688.502E-3	-2.08112E-3
2.82891E-3	105.795E-12	702.194E-3	-1.31082E-3	105.488E-12	699.927E-3	-6.65176E-3
2.82391E-3	105.318E-12	684.207E-3	7.46435E-3	105.166E-12	709.369E-3	-20.4562E-3
2.81891E-3	104.739E-12	679.802E-3	13.9858E-3	104.712E-12	702.543E-3	-22.3184E-3
2.81391E-3	104.318E-12	680.826E-3	19.9559E-3	105.619E-12	703.337E-3	-17.6075E-3
2.80890E-3	103.758E-12	681.832E-3	11.1072E-3	104.925E-12	703.414E-3	-8.86615E-3
2.80390E-3	102.917E-12	689.490E-3	-4.73086E-3	104.318E-12	689.411E-3	-4.55921E-3
2.79890E-3	102.434E-12	692.225E-3	-12.9038E-3	104.173E-12	681.893E-3	-6.28762E-3
2.79390E-3	102.188E-12	683.930E-3	-9.44327E-3	103.154E-12	691.213E-3	4.20165E-3
2.78889E-3	101.696E-12	689.969E-3	7.66321E-3	102.559E-12	695.938E-3	10.3743E-3
2.78389E-3	101.200E-12	695.708E-3	18.6014E-3	102.517E-12	692.823E-3	-8.86379E-3
2.77889E-3	101.007E-12	688.343E-3	-15.4873E-3	101.907E-12	684.654E-3	-24.7924E-3
2.77389E-3	100.906E-12	687.753E-3	-53.3212E-3	101.016E-12	680.775E-3	-16.6670E-3
2.76888E-3	100.679E-12	695.419E-3	-35.3486E-3	101.021E-12	706.245E-3	1.71150E-3
2.76388E-3	100.121E-12	694.418E-3	10.7542E-3	100.107E-12	716.839E-3	235.674E-6
2.75888E-3	100.506E-12	685.761E-3	25.3540E-3	100.298E-12	691.480E-3	-31.1602E-3
2.75388E-3	100.709E-12	690.443E-3	3.51990E-3	100.087E-12	689.254E-3	-61.3122E-3
2.74887E-3	100.234E-12	694.197E-3	-20.1999E-3	99.7212E-12	698.091E-3	-53.2272E-3
2.74387E-3	100.093E-12	680.624E-3	-28.7649E-3	99.5184E-12	702.089E-3	-7.42057E-3
2.73887E-3	100.170E-12	679.651E-3	-11.1029E-3	100.233E-12	720.900E-3	24.8941E-3
2.73387E-3	99.9198E-12	693.381E-3	4.48203E-3	100.102E-12	716.803E-3	22.2355E-3
2.72886E-3	99.5767E-12	704.590E-3	-12.5232E-3	99.5289E-12	694.336E-3	10.0085E-3
2.72386E-3	99.1063E-12	709.586E-3	-26.4816E-3	100.085E-12	691.404E-3	882.664E-6
2.71886E-3	98.8999E-12	695.116E-3	-7.58513E-3	99.7731E-12	688.473E-3	-10.9983E-3
2.71386E-3	98.9788E-12	681.954E-3	9.48565E-3	98.8115E-12	679.086E-3	-25.9118E-3
2.70885E-3	97.7998E-12	699.762E-3	-112.139E-6	99.4271E-12	675.008E-3	-35.0023E-3
2.70385E-3	97.7809E-12	711.612E-3	-21.3556E-3	99.3973E-12	674.077E-3	-38.4790E-3
2.69885E-3	97.8200E-12	688.827E-3	-33.7211E-3	98.0727E-12	680.771E-3	-44.9600E-3
2.69385E-3	97.7951E-12	670.622E-3	-22.9250E-3	98.0745E-12	688.780E-3	-38.1751E-3
2.68884E-3	97.0891E-12	676.839E-3	-8.15749E-3	98.0403E-12	701.146E-3	-9.51770E-3
2.68384E-3	96.8451E-12	701.433E-3	-4.30231E-3	97.5449E-12	718.871E-3	10.0044E-3
2.67884E-3	96.8398E-12	720.910E-3	-8.15438E-3	97.1194E-12	707.985E-3	3.04946E-3
2.67384E-3	96.9790E-12	708.070E-3	-15.8837E-3	97.1364E-12	689.701E-3	-5.96101E-3
2.66883E-3	96.4527E-12	693.092E-3	-19.3541E-3	95.9621E-12	700.130E-3	-9.89944E-3
2.66383E-3	96.3232E-12	697.561E-3	-20.7924E-3	96.0005E-12	695.665E-3	-17.8542E-3
2.65883E-3	95.8091E-12	693.021E-3	-24.4965E-3	95.6992E-12	679.668E-3	-11.8228E-3
2.65383E-3	95.4956E-12	682.206E-3	-39.0893E-3	95.7788E-12	696.538E-3	3.97900E-3
2.64882E-3	95.7248E-12	686.954E-3	-56.4266E-3	95.0197E-12	724.745E-3	-2.57661E-3
2.64382E-3	95.8260E-12	693.827E-3	-53.1440E-3	95.0613E-12	729.099E-3	-19.3748E-3
2.63882E-3	95.1291E-12	691.202E-3	-33.6191E-3	95.4868E-12	721.157E-3	-24.9298E-3
2.63382E-3	95.4086E-12	690.074E-3	-18.5899E-3	95.6416E-12	716.172E-3	-33.7563E-3
2.62881E-3	95.3838E-12	695.642E-3	-6.61307E-3	94.9999E-12	701.322E-3	-34.7418E-3
2.62381E-3	94.9499E-12	699.776E-3	-11.1141E-3	95.2580E-12	700.082E-3	-23.8338E-3
2.61881E-3	94.6360E-12	703.901E-3	-27.9771E-3	94.8380E-12	730.664E-3	-18.1962E-3
2.61381E-3	94.7304E-12	706.791E-3	-15.0304E-3	95.1900E-12	739.078E-3	-8.70070E-3
2.60880E-3	94.4287E-12	702.461E-3	4.82319E-3	94.8332E-12	717.835E-3	-1.34774E-3
2.60380E-3	94.1947E-12	700.163E-3	-1.74639E-3	94.5699E-12	719.298E-3	-11.2331E-3
2.59880E-3	94.1234E-12	699.257E-3	-17.9872E-3	94.6327E-12	731.452E-3	-27.4832E-3
2.59380E-3	94.1452E-12	693.114E-3	-35.6118E-3	94.5484E-12	723.075E-3	-20.7620E-3
2.58879E-3	93.7649E-12	688.574E-3	-40.9034E-3	93.6591E-12	708.914E-3	1.81312E-3
2.58379E-3	93.6168E-12	696.566E-3	-24.1375E-3	93.3473E-12	707.372E-3	9.43450E-3
2.57879E-3	93.3400E-12	715.369E-3	-22.8434E-3	93.3548E-12	717.642E-3	11.4219E-3
2.57379E-3	92.9239E-12	726.517E-3	-41.2740E-3	92.5272E-12	726.156E-3	9.08405E-3
2.56878E-3	92.3646E-12	714.405E-3	-44.4694E-3	91.7466E-12	717.195E-3	2.02952E-3
2.56378E-3	91.7475E-12	702.988E-3	-25.4717E-3	91.5421E-12	710.733E-3	-2.54538E-3
2.55878E-3	90.8675E-12	707.752E-3	-1.34821E-3	91.1505E-12	713.603E-3	-10.1284E-3
2.55378E-3	90.7742E-12	710.836E-3	3.00930E-3	90.7124E-12	701.030E-3	-13.2933E-3
2.54877E-3	90.3859E-12	708.696E-3	-15.8956E-3	90.3998E-12	688.453E-3	-8.14253E-3
2.54377E-3	89.7739E-12	704.318E-3	-28.4121E-3	90.5079E-12	700.680E-3	-7.07217E-3
2.53877E-3	89.5898E-12	712.308E-3	-24.3720E-3	90.0858E-12	711.603E-3	-16.9205E-3
2.53377E-3	89.5166E-12	716.704E-3	-19.5305E-3	89.5592E-12	695.528E-3	-20.4606E-3
2.52876E-3	89.4292E-12	699.737E-3	-22.9737E-3	90.0830E-12	690.909E-3	-16.2384E-3
2.52376E-3	89.1746E-12	688.914E-3	-27.3397E-3	90.2755E-12	710.163E-3	-27.9684E-3
2.51876E-3	89.2072E-12	696.955E-3	-30.6050E-3	89.4636E-12	730.411E-3	-27.7002E-3
2.51376E-3	89.9818E-12	710.904E-3	-38.7932E-3	89.4199E-12	731.350E-3	3.70864E-3
2.50875E-3	89.4846E-12	717.996E-3	-24.5627E-3	89.7338E-12	709.326E-3	17.6411E-3
2.50375E-3	89.7038E-12	720.974E-3	-8.70225E-3	89.8006E-12	694.452E-3	1.98236E-3
2.49875E-3	89.8222E-12	722.076E-3	-30.4569E-3	89.2923E-12	699.939E-3	-24.2711E-3
2.49375E-3	89.3551E-12	712.686E-3	-47.8775E-3	88.9789E-12	719.370E-3	-35.9779E-3
2.48874E-3	89.4038E-12	694.656E-3	-36.9701E-3	88.9198E-12	727.021E-3	-28.8340E-3
2.48374E-3	89.0405E-12	698.443E-3	-27.6409E-3	88.3539E-12	707.314E-3	-28.0648E-3
2.47874E-3	88.7717E-12	726.032E-3	-25.8058E-3	88.3089E-12	701.811E-3	-18.4731E-3
2.47374E-3	87.9547E-12	739.127E-3	-26.1614E-3	87.6751E-12	716.371E-3	-4.19142E-3
2.46873E-3	87.6695E-12	742.597E-3	-41.6756E-3	86.4784E-12	727.900E-3	-10.2250E-3
2.46373E-3	86.8716E-12	746.896E-3	-40.1919E-3	86.4454E-12	740.038E-3	-12.6650E-3
2.45873E-3	86.4906E-12	736.748E-3	-10.6863E-3	85.9430E-12	738.886E-3	-5.51808E-3
2.45373E-3	85.5578E-12	725.810E-3	-8.93078E-3	85.5765E-12	726.001E-3	-10.8450E-3
2.44872E-3	85.0728E-12	726.789E-3	-26.5538E-3	85.4938E-12	721.161E-3	-27.9812E-3
2.44372E-3	85.0857E-12	717.314E-3	-31.2230E-3	84.9238E-12	723.857E-3	-33.4632E-3
2.43872E-3	85.2562E-12	698.475E-3	-36.8528E-3	84.6023E-12	736.222E-3	-17.1650E-3
2.43372E-3	84.7101E-12	706.135E-3	-31.2329E-3	84.4245E-12	746.625E-3	1.11792E-3
2.42871E-3	85.1149E-12	719.123E-3	-7.22204E-3	84.4347E-12	730.336E-3	6.25655E-3
2.42371E-3	85.1485E-12	716.000E-3	-4.02036E-3	84.0921E-12	706.806E-3	-4.28521E-3
2.41871E-3	84.9474E-12	716.547E-3	-8.54980E-3	84.1333E-12	706.773E-3	-29.9687E-3
2.41371E-3	85.0281E-12	714.770E-3	14.4625E-3	84.1170E-12	712.046E-3	-39.7734E-3
2.40870E-3	84.9129E-12	720.858E-3	18.6034E-3	83.8876E-12	708.352E-3	-19.6951E-3
2.40370E-3	84.7250E-12	740.583E-3	-13.2401E-3	83.8989E-12	708.474E-3	-9.24603E-3
2.39870E-3	84.8077E-12	740.561E-3	-29.5910E-3	84.2390E-12	716.982E-3	-22.2951E-3
2.39370E-3	84.4307E-12	721.284E-3	-26.4352E-3	84.2542E-12	726.270E-3	-22.7165E-3
2.38869E-3	83.9365E-12	722.301E-3	-20.9905E-3	83.8652E-12	737.939E-3	-7.74054E-3
2.38369E-3	83.4883E-12	743.607E-3	-10.1680E-3	83.6104E-12	747.164E-3	-7.20577E-3
2.37869E-3	83.1456E-12	758.875E-3	-4.10970E-3	83.3598E-12	737.865E-3	-6.40438E-3
2.37369E-3	82.1478E-12	759.544E-3	-5.89651E-3	82.9849E-12	726.021E-3	155.605E-6
2.36868E-3	81.5427E-12	734.109E-3	-7.35479E-3	82.7892E-12	729.030E-3	-21.3644E-3
2.36368E-3	80.7922E-12	699.375E-3	-15.6200E-3	81.9484E-12	730.867E-3	-39.2155E-3
2.35868E-3	80.9214E-12	696.522E-3	-24.5015E-3	81.9806E-12	724.812E-3	-15.0146E-3
2.35368E-3	80.4983E-12	719.596E-3	-27.9872E-3	81.3154E-12	731.534E-3	11.3989E-3
2.34867E-3	80.4054E-12	733.975E-3	-35.4426E-3	81.0388E-12	747.234E-3	15.5072E-3
2.34367E-3	80.1321E-12	735.282E-3	-39.5646E-3	80.6211E-12	755.219E-3	4.20079E-3
2.33867E-3	80.1847E-12	728.532E-3	-38.7235E-3	80.5980E-12	759.221E-3	-9.76134E-3
2.33367E-3	80.0968E-12	722.470E-3	-33.2222E-3	80.6339E-12	758.959E-3	-9.82087E-3
2.32866E-3	80.0448E-12	728.949E-3	-26.1745E-3	80.6761E-12	767.943E-3	-11.9754E-3
2.32366E-3	80.4431E-12	734.817E-3	-24.9724E-3	80.2183E-12	770.419E-3	-21.6977E-3
2.31866E-3	80.1559E-12	731.224E-3	-21.8847E-3	80.1066E-12	753.999E-3	-20.8471E-3
2.31366E-3	80.1879E-12	729.988E-3	-4.98236E-3	80.3694E-12	753.840E-3	-10.9987E-3
2.30865E-3	79.8757E-12	740.329E-3	13.3826E-3	80.4049E-12	764.740E-3	-724.505E-6
2.30365E-3	80.0098E-12	750.294E-3	11.1444E-3	80.0960E-12	760.092E-3	6.62999E-3
2.29865E-3	79.5112E-12	749.921E-3	-16.7800E-3	79.8927E-12	746.179E-3	7.04655E-3
2.29365E-3	79.2658E-12	745.578E-3	-43.3338E-3	79.7122E-12	742.153E-3	-7.69232E-3
2.28864E-3	78.4694E-12	733.342E-3	-40.2985E-3	79.4474E-12	750.400E-3	-27.7097E-3
2.28364E-3	78.3565E-12	720.370E-3	-25.8466E-3	79.1265E-12	752.451E-3	-13.3809E-3
2.27864E-3	77.8255E-12	727.136E-3	-8.63452E-3	78.3209E-12	736.042E-3	9.26957E-3
2.27364E-3	77.2262E-12	742.287E-3	1.03839E-3	77.8595E-12	728.717E-3	-4.95816E-3
2.26863E-3	77.1093E-12	757.041E-3	-8.75668E-3	77.7124E-12	740.200E-3	-23.9154E-3
2.26363E-3	76.9817E-12	769.754E-3	-16.5418E-3	76.9558E-12	748.984E-3	-24.2835E-3
2.25863E-3	76.2100E-12	771.268E-3	-11.9943E-3	76.4424E-12	753.248E-3	-16.0175E-3
2.25363E-3	75.8481E-12	771.589E-3	-16.2467E-3	76.0827E-12	744.030E-3	-12.5367E-3
2.24862E-3	75.7254E-12	770.475E-3	-33.5545E-3	76.1899E-12	734.948E-3	-18.2486E-3
2.24362E-3	75.2184E-12	755.196E-3	-39.6807E-3	75.6857E-12	746.883E-3	-19.7386E-3
2.23862E-3	75.1487E-12	733.850E-3	-39.5645E-3	75.3422E-12	763.371E-3	-10.1857E-3
2.23362E-3	75.2605E-12	734.017E-3	-37.3596E-3	75.2926E-12	770.560E-3	-3.87714E-3
2.22861E-3	75.4583E-12	759.503E-3	-22.2439E-3	74.8539E-12	755.687E-3	-10.4620E-3
2.22361E-3	75.0805E-12	788.215E-3	-8.88349E-3	75.0520E-12	737.107E-3	-27.1578E-3
2.21861E-3	75.0881E-12	793.384E-3	-8.40369E-3	75.1677E-12	746.073E-3	-44.2109E-3
2.21361E-3	75.1770E-12	768.073E-3	-11.1655E-3	74.4161E-12	756.918E-3	-34.8509E-3
2.20860E-3	74.7951E-12	749.499E-3	-22.2742E-3	74.1627E-12	757.879E-3	-8.54152E-3
2.20360E-3	74.6290E-12	766.907E-3	-31.3490E-3	74.3716E-12	764.614E-3	-4.79278E-3
2.19860E-3	74.1784E-12	788.334E-3	-21.2363E-3	74.1755E-12	760.898E-3	-23.6422E-3
2.19360E-3	73.8741E-12	782.471E-3	-13.6804E-3	73.7536E-12	749.034E-3	-35.6486E-3
2.18859E-3	73.6629E-12	769.959E-3	-22.8232E-3	73.3142E-12	753.077E-3	-35.6052E-3
2.18359E-3	72.9659E-12	772.458E-3	-17.5186E-3	73.0353E-12	762.896E-3	-20.8413E-3
2.17859E-3	72.6209E-12	769.489E-3	7.42200E-3	72.7804E-12	764.643E-3	13.9613E-3
2.17359E-3	72.5287E-12	767.764E-3	9.59626E-3	72.4902E-12	762.408E-3	28.5438E-3
2.16858E-3	72.1159E-12	779.117E-3	-6.69189E-3	72.2484E-12	764.758E-3	-4.51038E-3
2.16358E-3	71.9674E-12	765.633E-3	-15.2629E-3	71.9114E-12	776.127E-3	-36.3508E-3
2.15858E-3	71.5580E-12	752.329E-3	-15.5109E-3	71.5116E-12	782.926E-3	-27.2163E-3
2.15358E-3	71.1253E-12	769.088E-3	-1.22139E-3	71.1378E-12	771.415E-3	-16.1214E-3
2.14857E-3	70.9518E-12	780.271E-3	13.6100E-3	70.3643E-12	749.633E-3	-22.4423E-3
2.14357E-3	70.6135E-12	779.678E-3	1.46095E-3	70.3788E-12	750.866E-3	-21.6003E-3
2.13857E-3	70.2338E-12	768.306E-3	-15.7825E-3	70.2349E-12	779.251E-3	-19.9034E-3
2.13357E-3	70.0747E-12	751.634E-3	-14.0340E-3	69.5719E-12	789.402E-3	-11.4157E-3
2.12856E-3	69.6932E-12	764.087E-3	-13.6503E-3	69.5225E-12	775.549E-3	3.97996E-3
2.12356E-3	69.2558E-12	790.500E-3	-19.3254E-3	69.5570E-12	774.535E-3	-7.69648E-3
2.11856E-3	69.0494E-12	779.752E-3	-17.2916E-3	69.3781E-12	798.215E-3	-19.3506E-3
2.11356E-3	68.8481E-12	751.655E-3	-17.9085E-3	69.1832E-12	823.999E-3	-13.4102E-3
2.10855E-3	68.5098E-12	751.965E-3	-14.3262E-3	69.2117E-12	821.675E-3	-13.3666E-3
2.10355E-3	68.1006E-12	766.561E-3	6.99786E-3	69.0544E-12	798.835E-3	-11.8737E-3
2.09855E-3	68.0073E-12	776.582E-3	10.8170E-3	68.8213E-12	782.458E-3	-15.5842E-3
2.09355E-3	68.0073E-12	786.413E-3	-1.37992E-3	68.7163E-12	789.956E-3	-21.0221E-3
2.08854E-3	68.0486E-12	789.544E-3	1.49748E-3	68.3469E-12	802.166E-3	-17.0075E-3
2.08354E-3	67.6191E-12	781.253E-3	9.06409E-3	68.0584E-12	802.383E-3	-6.35063E-3
2.07854E-3	67.6518E-12	784.263E-3	8.51122E-3	67.9991E-12	815.290E-3	10.8277E-3
2.07354E-3	67.6210E-12	807.687E-3	10.3985E-3	67.9199E-12	827.137E-3	20.1292E-3
2.06853E-3	67.4068E-12	819.689E-3	11.5463E-3	67.6366E-12	821.689E-3	9.99799E-3
2.06353E-3	67.0003E-12	811.927E-3	-6.86330E-3	67.6118E-12	824.993E-3	-11.1493E-3
2.05853E-3	67.1160E-12	802.801E-3	-30.9091E-3	67.2283E-12	833.580E-3	-21.9071E-3
2.05353E-3	66.6850E-12	794.415E-3	-29.4605E-3	66.6309E-12	825.369E-3	-14.1955E-3
2.04852E-3	66.0383E-12	795.519E-3	-10.4830E-3	66.1648E-12	806.799E-3	-2.44928E-3
2.04352E-3	65.3310E-12	802.858E-3	-4.37024E-3	65.7115E-12	800.233E-3	-4.26275E-3
2.03852E-3	64.8452E-12	806.649E-3	-10.9879E-3	65.2050E-12	815.713E-3	-14.2971E-3
2.03352E-3	64.2702E-12	801.538E-3	-22.8482E-3	64.9819E-12	827.950E-3	-17.6303E-3
2.02851E-3	64.0334E-12	791.287E-3	-27.6059E-3	64.6469E-12	820.143E-3	-10.3698E-3
2.02351E-3	63.4353E-12	796.936E-3	-14.9217E-3	63.9561E-12	808.288E-3	-18.5663E-3
2.01851E-3	63.1227E-12	808.869E-3	-12.4473E-3	63.6614E-12	811.293E-3	-46.8981E-3
2.01351E-3	62.9495E-12	811.794E-3	-25.1821E-3	63.4976E-12	822.389E-3	-51.2297E-3
2.00850E-3	63.2106E-12	810.097E-3	-21.8564E-3	63.0496E-12	829.467E-3	-24.6443E-3
2.00350E-3	62.9271E-12	805.420E-3	-3.45224E-3	62.9881E-12	839.086E-3	-1.58929E-3
1.99850E-3	63.1217E-12	802.652E-3	-641.924E-6	62.9004E-12	839.730E-3	-10.0480E-3
1.99350E-3	63.5076E-12	813.301E-3	-3.36055E-3	63.1732E-12	832.447E-3	-31.9714E-3
1.98849E-3	63.5524E-12	832.176E-3	-1.36588E-3	62.8876E-12	845.133E-3	-36.4153E-3
1.98349E-3	63.3296E-12	836.137E-3	-3.68175E-3	63.0044E-12	866.679E-3	-35.8491E-3
1.97849E-3	63.6112E-12	834.274E-3	-3.76501E-3	62.9689E-12	866.823E-3	-30.6238E-3
1.97349E-3	63.2987E-12	856.076E-3	676.785E-6	62.8002E-12	856.139E-3	-22.2684E-3
1.96848E-3	62.9335E-12	878.062E-3	7.77853E-3	62.4288E-12	850.757E-3	-35.3443E-3
1.96348E-3	62.6603E-12	868.603E-3	5.40081E-3	62.3160E-12	851.119E-3	-51.3374E-3
1.95848E-3	61.8466E-12	852.821E-3	-1.88565E-3	61.9707E-12	849.955E-3	-43.5620E-3
1.95348E-3	60.9200E-12	853.919E-3	-1.44538E-3	61.4138E-12	846.039E-3	-22.1110E-3
1.94847E-3	60.6486E-12	851.544E-3	519.776E-6	60.7766E-12	850.922E-3	-6.37091E-3
1.94347E-3	59.7773E-12	836.842E-3	-10.1910E-3	60.4707E-12	857.556E-3	-15.2086E-3
1.93847E-3	58.8215E-12	833.323E-3	-29.1157E-3	59.9290E-12	860.550E-3	-43.7369E-3
1.93347E-3	58.3811E-12	837.718E-3	-32.0313E-3	59.1072E-12	867.719E-3	-44.0477E-3
1.92846E-3	58.0363E-12	824.126E-3	-20.7409E-3	58.4314E-12	871.403E-3	-6.62506E-3
1.92346E-3	57.5905E-12	816.116E-3	-5.18127E-3	58.2952E-12	864.882E-3	11.1183E-3
1.91846E-3	57.5324E-12	832.173E-3	6.68933E-3	57.8102E-12	862.907E-3	-114.633E-6
1.91346E-3	57.4437E-12	839.540E-3	-2.72695E-3	57.5597E-12	877.164E-3	-14.8794E-3
1.90845E-3	57.3346E-12	838.093E-3	-28.4675E-3	57.3743E-12	895.435E-3	-30.9311E-3
1.90345E-3	57.6678E-12	839.268E-3	-34.9025E-3	57.2337E-12	902.936E-3	-31.7226E-3
1.89845E-3	57.8701E-12	841.877E-3	-12.9743E-3	57.1653E-12	892.328E-3	-11.4487E-3
1.89345E-3	57.8951E-12	853.780E-3	-2.18008E-3	57.3016E-12	875.395E-3	-4.48494E-3
1.88844E-3	57.7945E-12	871.531E-3	-13.8638E-3	57.0437E-12	874.667E-3	-14.6059E-3
1.88344E-3	57.7015E-12	876.515E-3	-21.4934E-3	56.8895E-12	894.053E-3	-22.1029E-3
1.87844E-3	57.5703E-12	865.992E-3	-14.2845E-3	57.0116E-12	911.773E-3	-22.2709E-3
1.87344E-3	57.2229E-12	872.248E-3	-9.83150E-3	56.5831E-12	913.593E-3	-3.69519E-3
1.86843E-3	56.5332E-12	897.094E-3	-13.2066E-3	56.1397E-12	897.388E-3	6.72913E-3
1.86343E-3	55.6553E-12	912.966E-3	-17.7888E-3	56.0331E-12	882.655E-3	-11.0312E-3
1.85843E-3	55.1336E-12	900.583E-3	-29.8035E-3	55.7527E-12	892.496E-3	-27.4277E-3
1.85343E-3	54.4166E-12	872.097E-3	-39.4308E-3	55.0873E-12	907.615E-3	-24.7645E-3
1.84842E-3	53.9706E-12	862.161E-3	-34.9252E-3	54.8643E-12	910.262E-3	-9.98359E-3
1.84342E-3	53.0185E-12	871.290E-3	-24.9783E-3	54.2574E-12	903.805E-3	1.91356E-3
1.83842E-3	52.3928E-12	881.216E-3	-24.9864E-3	53.8504E-12	900.696E-3	-6.50099E-3
1.83342E-3	52.3790E-12	885.192E-3	-33.5598E-3	53.5178E-12	913.858E-3	-27.4527E-3
1.82841E-3	52.0322E-12	877.083E-3	-39.8389E-3	53.0757E-12	932.163E-3	-36.4223E-3
1.82341E-3	51.7450E-12	864.313E-3	-34.0434E-3	52.5836E-12	919.328E-3	-32.2951E-3
1.81841E-3	51.6468E-12	878.635E-3	-17.1600E-3	51.9200E-12	890.278E-3	-22.7184E-3
1.81341E-3	51.6416E-12	898.644E-3	-7.03108E-3	51.6906E-12	888.413E-3	-13.6170E-3
1.80840E-3	51.6658E-12	897.581E-3	-10.3194E-3	51.6908E-12	913.878E-3	-13.9686E-3
1.80340E-3	51.8159E-12	898.675E-3	-15.0272E-3	51.3947E-12	943.113E-3	-19.1718E-3
1.79840E-3	51.8318E-12	906.259E-3	-4.10196E-3	51.0210E-12	941.653E-3	-19.7638E-3
1.79340E-3	51.7756E-12	915.680E-3	6.46492E-3	51.0094E-12	922.904E-3	-12.4659E-3
1.78839E-3	51.6922E-12	927.405E-3	-2.54048E-3	50.7040E-12	924.081E-3	-3.04642E-3
1.78339E-3	51.6780E-12	931.575E-3	-9.28960E-3	50.5683E-12	927.869E-3	-5.32353E-3
1.77839E-3	51.2080E-12	929.370E-3	-10.0899E-3	50.7093E-12	933.535E-3	-3.23739E-3
1.77339E-3	50.6651E-12	935.301E-3	-10.7390E-3	50.4254E-12	956.360E-3	10.3326E-3
1.76838E-3	50.2647E-12	949.336E-3	-8.17593E-3	49.9568E-12	965.536E-3	4.57896E-3
1.76338E-3	49.7803E-12	954.583E-3	-16.4819E-3	50.0726E-12	949.358E-3	-13.8346E-3
1.75838E-3	49.2367E-12	953.180E-3	-30.2730E-3	49.8515E-12	942.319E-3	-20.1401E-3
1.75338E-3	48.6054E-12	956.100E-3	-32.6349E-3	49.2331E-12	954.314E-3	-15.0156E-3
1.74837E-3	48.1129E-12	952.071E-3	-30.2689E-3	48.9466E-12	964.447E-3	-11.0702E-3
1.74337E-3	47.7593E-12	948.328E-3	-22.1278E-3	48.8579E-12	963.142E-3	-20.8016E-3
1.73837E-3	47.4386E-12	947.810E-3	-7.63507E-3	48.2209E-12	956.032E-3	-36.7635E-3
1.73337E-3	46.8487E-12	934.068E-3	-6.13845E-3	47.8001E-12	952.007E-3	-44.0130E-3
1.72836E-3	46.5466E-12	924.674E-3	-20.3227E-3	47.6945E-12	960.502E-3	-31.9443E-3
1.72336E-3	46.4888E-12	934.204E-3	-16.6244E-3	46.9634E-12	977.233E-3	765.250E-6
1.71836E-3	46.0985E-12	940.861E-3	1.92987E-3	46.2165E-12	973.749E-3	26.5809E-3
1.71336E-3	46.0582E-12	939.484E-3	481.175E-6	46.2380E-12	960.933E-3	16.7730E-3
1.70835E-3	45.6617E-12	944.957E-3	-22.7040E-3	45.8893E-12	973.195E-3	-15.9580E-3
1.70335E-3	45.2771E-12	953.659E-3	-38.3805E-3	45.3324E-12	1.00258E+0	-31.1137E-3
1.69835E-3	45.3622E-12	963.905E-3	-29.0564E-3	44.9648E-12	1.02585E+0	-15.9635E-3
1.69335E-3	45.0518E-12	977.411E-3	-11.5299E-3	44.8100E-12	1.01618E+0	1.62533E-3
1.68834E-3	44.6524E-12	980.863E-3	5.12606E-3	44.4939E-12	984.124E-3	-3.99394E-3
1.68334E-3	44.2485E-12	971.448E-3	-61.9156E-6	44.3633E-12	983.134E-3	-27.4823E-3
1.67834E-3	44.2560E-12	964.226E-3	-18.4336E-3	44.0442E-12	1.02239E+0	-37.2190E-3
1.67334E-3	43.6215E-12	961.497E-3	-6.35530E-3	44.0728E-12	1.05586E+0	-19.0572E-3
1.66833E-3	43.3023E-12	966.177E-3	11.8687E-3	43.9398E-12	1.06770E+0	1.88899E-3
1.66333E-3	43.1847E-12	989.294E-3	8.51435E-3	43.6253E-12	1.05756E+0	-5.69880E-3
1.65833E-3	42.8066E-12	1.01345E+0	-3.47941E-3	43.2359E-12	1.03878E+0	-24.8619E-3
1.65333E-3	42.2727E-12	1.01640E+0	-30.2554E-3	42.9285E-12	1.04702E+0	-28.3029E-3
1.64832E-3	42.2403E-12	1.00436E+0	-48.2960E-3	42.8272E-12	1.06650E+0	-17.0344E-3
1.64332E-3	41.8443E-12	1.00560E+0	-24.2751E-3	42.4442E-12	1.06540E+0	-8.07484E-3
1.63832E-3	41.3344E-12	1.02730E+0	9.15879E-3	41.6720E-12	1.05280E+0	-15.5209E-3
1.63332E-3	41.0336E-12	1.04287E+0	9.74404E-3	41.3695E-12	1.04927E+0	-38.6808E-3
1.62831E-3	40.6985E-12	1.04635E+0	-17.3339E-3	41.0734E-12	1.05655E+0	-46.5442E-3
1.62331E-3	40.3236E-12	1.04266E+0	-26.3286E-3	40.2197E-12	1.06033E+0	-17.7071E-3
1.61831E-3	39.7329E-12	1.03353E+0	-12.3864E-3	39.7403E-12	1.05471E+0	3.35735E-3
1.61331E-3	39.2757E-12	1.03828E+0	-11.9775E-3	39.3113E-12	1.04187E+0	1.38718E-3
1.60830E-3	38.9533E-12	1.05479E+0	-23.3823E-3	38.6969E-12	1.03198E+0	-8.13116E-3
1.60330E-3	38.6614E-12	1.06841E+0	-33.5028E-3	38.1765E-12	1.04514E+0	-23.1012E-3
1.59830E-3	38.2042E-12	1.06926E+0	-24.7281E-3	38.0235E-12	1.07492E+0	-19.8297E-3
1.59330E-3	37.8789E-12	1.04961E+0	-8.25778E-3	37.4583E-12	1.08935E+0	-3.97257E-3
1.58829E-3	37.4742E-12	1.04426E+0	-6.01607E-3	37.2797E-12	1.08883E+0	-1.83529E-3
1.58329E-3	37.4134E-12	1.06277E+0	-12.9475E-3	37.1802E-12	1.09047E+0	-8.73781E-3
1.57829E-3	37.2230E-12	1.07285E+0	-30.3130E-3	36.8356E-12	1.09684E+0	-15.8908E-3
1.57329E-3	37.1641E-12	1.07347E+0	-43.2497E-3	36.5907E-12	1.10910E+0	-17.2632E-3
1.56828E-3	36.6875E-12	1.08381E+0	-32.3880E-3	36.5813E-12	1.11894E+0	-12.0663E-3
1.56328E-3	36.6734E-12	1.09674E+0	-5.69179E-3	36.2761E-12	1.11818E+0	-771.223E-6
1.55828E-3	36.4522E-12	1.10646E+0	-875.104E-6	35.9642E-12	1.12444E+0	-5.04804E-3
1.55328E-3	36.1239E-12	1.11986E+0	-20.1822E-3	35.7910E-12	1.13890E+0	-30.2448E-3
1.54827E-3	35.6517E-12	1.12645E+0	-25.9372E-3	35.4033E-12	1.14371E+0	-39.1228E-3
1.54327E-3	35.1636E-12	1.12675E+0	-12.2252E-3	35.0040E-12	1.13917E+0	-26.4623E-3
1.53827E-3	34.7783E-12	1.13374E+0	-492.623E-6	34.7349E-12	1.11920E+0	-14.9370E-3
1.53327E-3	34.1517E-12	1.14257E+0	-10.0840E-3	34.2630E-12	1.11085E+0	-16.3720E-3
1.52826E-3	33.4761E-12	1.13952E+0	-35.3013E-3	33.6453E-12	1.13881E+0	-19.9366E-3
1.52326E-3	32.7608E-12	1.12886E+0	-43.5927E-3	32.9797E-12	1.16556E+0	-15.3723E-3
1.51826E-3	31.9773E-12	1.12048E+0	-16.5185E-3	32.5594E-12	1.16464E+0	-4.21713E-3
1.51326E-3	31.4277E-12	1.11345E+0	4.12730E-3	32.0662E-12	1.14606E+0	4.40797E-3
1.50825E-3	30.9458E-12	1.11846E+0	-8.71374E-3	31.7458E-12	1.14365E+0	-2.28493E-3
1.50325E-3	30.5132E-12	1.13119E+0	-22.7058E-3	31.1316E-12	1.15997E+0	-8.25773E-3
1.49825E-3	30.0613E-12	1.12357E+0	-28.4483E-3	30.8182E-12	1.17465E+0	-614.982E-6
1.49325E-3	29.8387E-12	1.10717E+0	-24.8843E-3	30.4823E-12	1.18358E+0	2.83269E-3
1.48824E-3	29.7515E-12	1.10119E+0	-15.7072E-3	30.1676E-12	1.16716E+0	-4.67214E-3
1.48324E-3	29.6482E-12	1.10466E+0	-17.6444E-3	29.9039E-12	1.14819E+0	-19.0576E-3
1.47824E-3	29.2928E-12	1.12137E+0	-24.8462E-3	29.5566E-12	1.16506E+0	-36.3151E-3
1.47324E-3	29.1859E-12	1.13788E+0	-17.0764E-3	29.1278E-12	1.18521E+0	-38.7558E-3
1.46823E-3	29.1561E-12	1.14457E+0	-8.49811E-3	28.9178E-12	1.18661E+0	-18.6437E-3
1.46323E-3	28.9158E-12	1.16220E+0	-13.5513E-3	28.7382E-12	1.18109E+0	-4.14201E-3
1.45823E-3	28.5537E-12	1.18917E+0	-16.8727E-3	28.2546E-12	1.16410E+0	-9.28777E-3
1.45323E-3	28.2011E-12	1.19947E+0	-18.8119E-3	27.9447E-12	1.16039E+0	-10.8882E-3
1.44822E-3	27.8826E-12	1.19847E+0	-19.6323E-3	27.6392E-12	1.19176E+0	-10.2891E-3
1.44322E-3	27.2688E-12	1.20102E+0	-6.90024E-3	27.2852E-12	1.20767E+0	-11.8496E-3
1.43822E-3	26.6377E-12	1.20310E+0	855.417E-6	26.8896E-12	1.18960E+0	-5.07074E-3
1.43322E-3	26.1471E-12	1.19775E+0	-11.7498E-3	26.7054E-12	1.17757E+0	-11.5659E-3
1.42821E-3	25.5719E-12	1.18128E+0	-19.3801E-3	26.1176E-12	1.17071E+0	-37.3806E-3
1.42321E-3	24.8472E-12	1.16184E+0	-20.2433E-3	25.5687E-12	1.16274E+0	-36.5259E-3
1.41821E-3	24.1464E-12	1.14174E+0	-20.4690E-3	25.2539E-12	1.16371E+0	-9.20871E-3
1.41321E-3	23.8484E-12	1.12915E+0	-9.89034E-3	24.8415E-12	1.15515E+0	-2.03215E-3
1.40820E-3	23.4566E-12	1.14164E+0	1.71285E-3	23.9344E-12	1.13463E+0	-7.72677E-3
1.40320E-3	23.0675E-12	1.15320E+0	-466.091E-6	23.5220E-12	1.13044E+0	-20.1016E-3
1.39820E-3	22.7401E-12	1.14260E+0	-7.24307E-3	23.2220E-12	1.13911E+0	-38.1465E-3
1.39320E-3	22.6373E-12	1.13549E+0	-8.93667E-3	22.7133E-12	1.13098E+0	-31.9863E-3
1.38819E-3	22.4230E-12	1.13421E+0	-8.83953E-3	22.1794E-12	1.11073E+0	-11.6197E-3
1.38319E-3	22.1898E-12	1.13541E+0	299.840E-6	21.9881E-12	1.10088E+0	-7.12619E-3
1.37819E-3	22.0727E-12	1.14333E+0	3.70165E-3	21.5308E-12	1.11097E+0	-12.7892E-3
1.37319E-3	21.8599E-12	1.14945E+0	-8.07111E-3	21.2338E-12	1.14547E+0	-19.1974E-3
1.36818E-3	21.5972E-12	1.14959E+0	-15.9892E-3	20.9461E-12	1.16822E+0	-22.7388E-3
1.36318E-3	21.3469E-12	1.15244E+0	-12.8136E-3	20.6809E-12	1.13924E+0	-7.04111E-3
1.35818E-3	21.0264E-12	1.17031E+0	-12.8953E-3	20.3528E-12	1.10105E+0	8.93741E-3
1.35318E-3	20.6332E-12	1.18827E+0	-23.6427E-3	20.1149E-12	1.09310E+0	-1.75758E-3
1.34817E-3	20.2173E-12	1.17865E+0	-30.3950E-3	19.7171E-12	1.09995E+0	-12.7558E-3
1.34317E-3	19.6493E-12	1.15002E+0	-27.2224E-3	19.3449E-12	1.10730E+0	-11.6789E-3
1.33817E-3	19.0739E-12	1.13541E+0	-17.5478E-3	19.1519E-12	1.09460E+0	-16.0846E-3
1.33317E-3	18.7538E-12	1.13186E+0	-8.36216E-3	18.8350E-12	1.06074E+0	-26.4429E-3
1.32816E-3	18.2121E-12	1.11237E+0	-8.80566E-3	18.2539E-12	1.03733E+0	-31.9920E-3
1.32316E-3	17.5781E-12	1.08390E+0	-19.3624E-3	17.8920E-12	1.04215E+0	-34.2795E-3
1.31816E-3	17.1453E-12	1.07337E+0	-26.5076E-3	17.4596E-12	1.05328E+0	-26.4751E-3
1.31316E-3	16.8345E-12	1.06870E+0	-23.2550E-3	17.0220E-12	1.03982E+0	-4.76125E-3
1.30815E-3	16.4411E-12	1.05655E+0	-17.0192E-3	16.6034E-12	1.02013E+0	-436.375E-6
1.30315E-3	16.1008E-12	1.04479E+0	-21.0931E-3	16.2924E-12	1.01623E+0	-16.9550E-3
1.29815E-3	15.7890E-12	1.02958E+0	-35.1695E-3	15.8865E-12	1.01387E+0	-30.1076E-3
1.29315E-3	15.5154E-12	1.01280E+0	-38.2173E-3	15.5312E-12	1.00704E+0	-33.4469E-3
1.28814E-3	15.1653E-12	1.00768E+0	-25.5173E-3	15.2528E-12	987.079E-3	-22.2584E-3
1.28314E-3	14.8855E-12	1.01753E+0	-12.4443E-3	14.9400E-12	956.875E-3	-6.42872E-3
1.27814E-3	14.6074E-12	1.02022E+0	-10.7550E-3	14.6812E-12	942.681E-3	-12.6574E-3
1.27314E-3	14.3687E-12	999.666E-3	-24.2798E-3	14.3040E-12	949.465E-3	-24.8811E-3
1.26813E-3	14.0489E-12	971.339E-3	-40.8987E-3	13.9912E-12	965.466E-3	-11.5568E-3
1.26313E-3	13.9019E-12	953.610E-3	-32.7981E-3	13.8068E-12	967.227E-3	5.25875E-3
1.25813E-3	13.4384E-12	939.985E-3	-6.20248E-3	13.5849E-12	931.180E-3	909.834E-6
1.25313E-3	13.0968E-12	933.930E-3	8.91706E-3	13.2439E-12	884.129E-3	-13.4882E-3
1.24812E-3	12.8066E-12	933.936E-3	-317.139E-6	12.9218E-12	873.405E-3	-25.3974E-3
1.24312E-3	12.4956E-12	922.811E-3	-21.7878E-3	12.5839E-12	889.791E-3	-23.0462E-3
1.23812E-3	12.2288E-12	907.573E-3	-22.7698E-3	12.3325E-12	886.754E-3	-15.2844E-3
1.23312E-3	11.9875E-12	895.120E-3	-274.981E-6	12.0942E-12	849.950E-3	-15.0986E-3
1.22811E-3	11.5833E-12	888.983E-3	11.4897E-3	11.7621E-12	812.238E-3	-12.3074E-3
1.22311E-3	11.2702E-12	881.437E-3	-2.22754E-3	11.4561E-12	800.152E-3	-8.97964E-3
1.21811E-3	11.0676E-12	861.390E-3	-23.1326E-3	11.1306E-12	797.868E-3	-14.8438E-3
1.21311E-3	10.8074E-12	836.347E-3	-28.7679E-3	10.8096E-12	781.808E-3	-25.4173E-3
1.20810E-3	10.3686E-12	825.813E-3	-20.6585E-3	10.5188E-12	751.819E-3	-25.9496E-3
1.20310E-3	10.1284E-12	829.537E-3	-15.2322E-3	10.2005E-12	727.460E-3	-21.3360E-3
1.19810E-3	9.94333E-12	820.588E-3	-17.5856E-3	9.88077E-12	725.350E-3	-28.4387E-3
1.19310E-3	9.69744E-12	793.535E-3	-25.8065E-3	9.61041E-12	727.237E-3	-27.4939E-3
1.18809E-3	9.25022E-12	761.362E-3	-21.5494E-3	9.28752E-12	716.799E-3	-8.91246E-3
1.18309E-3	9.13449E-12	743.089E-3	-2.26270E-3	9.10566E-12	692.807E-3	-8.26335E-3
1.17809E-3	8.90381E-12	739.084E-3	729.422E-6	8.92652E-12	661.752E-3	-24.9278E-3
1.17309E-3	8.64720E-12	737.464E-3	-12.9813E-3	8.65110E-12	642.312E-3	-31.7505E-3
1.16808E-3	8.32436E-12	727.634E-3	-29.6356E-3	8.45408E-12	633.564E-3	-30.7740E-3
1.16308E-3	8.19044E-12	703.736E-3	-37.5860E-3	8.24385E-12	623.857E-3	-18.9441E-3
1.15808E-3	8.10171E-12	680.777E-3	-18.5073E-3	7.96694E-12	600.925E-3	-4.81732E-3
1.15308E-3	7.82148E-12	665.905E-3	-4.60488E-3	7.78613E-12	570.480E-3	-13.0298E-3
1.14807E-3	7.56951E-12	655.906E-3	-16.1836E-3	7.63161E-12	555.697E-3	-31.6285E-3
1.14307E-3	7.48968E-12	643.453E-3	-25.0780E-3	7.39935E-12	559.429E-3	-30.9072E-3
1.13807E-3	7.27279E-12	630.126E-3	-26.2833E-3	7.24781E-12	563.136E-3	-8.64617E-3
1.13307E-3	7.10501E-12	625.475E-3	-18.6231E-3	7.14307E-12	549.361E-3	7.99141E-3
1.12806E-3	6.91900E-12	618.255E-3	-11.0670E-3	6.94466E-12	522.516E-3	1.24828E-3
1.12306E-3	6.76268E-12	599.912E-3	-11.1297E-3	6.71012E-12	504.493E-3	-19.3719E-3
1.11806E-3	6.61754E-12	577.969E-3	-19.0595E-3	6.50721E-12	493.953E-3	-26.4435E-3
1.11306E-3	6.31538E-12	556.499E-3	-25.7171E-3	6.30943E-12	485.599E-3	-13.5027E-3
1.10805E-3	6.09788E-12	534.136E-3	-16.4121E-3	6.11012E-12	475.704E-3	-6.35903E-3
1.10305E-3	5.98164E-12	517.670E-3	-8.43404E-3	5.95508E-12	451.717E-3	-8.34134E-3
1.09805E-3	5.76799E-12	516.594E-3	-10.2567E-3	5.76611E-12	434.623E-3	-5.98493E-3
1.09305E-3	5.49106E-12	521.088E-3	-14.2274E-3	5.58628E-12	425.915E-3	-11.6662E-3
1.08804E-3	5.31020E-12	501.743E-3	-14.4811E-3	5.42092E-12	409.112E-3	-23.9080E-3
1.08304E-3	5.27803E-12	459.005E-3	-10.1309E-3	5.34104E-12	393.631E-3	-16.1354E-3
1.07804E-3	5.14534E-12	423.756E-3	-15.7981E-3	5.14518E-12	375.893E-3	-5.05469E-3
1.07304E-3	4.85377E-12	411.145E-3	-26.3541E-3	4.98263E-12	353.296E-3	-13.3890E-3
1.06803E-3	4.77698E-12	413.193E-3	-34.8503E-3	4.80934E-12	342.953E-3	-19.0626E-3
1.06303E-3	4.78678E-12	399.857E-3	-36.0996E-3	4.74043E-12	351.038E-3	-7.74572E-3
1.05803E-3	4.65312E-12	378.774E-3	-17.4916E-3	4.63652E-12	349.506E-3	-2.47716E-3
1.05303E-3	4.51847E-12	377.905E-3	-4.45557E-3	4.47000E-12	322.135E-3	-8.17787E-3
1.04802E-3	4.43708E-12	380.247E-3	-11.7308E-3	4.39992E-12	298.808E-3	-16.9557E-3
1.04302E-3	4.52573E-12	374.596E-3	-17.3298E-3	4.40667E-12	285.492E-3	-32.7941E-3
1.03802E-3	4.35950E-12	361.118E-3	-16.1080E-3	4.22226E-12	269.707E-3	-30.0989E-3
1.03302E-3	4.17282E-12	344.080E-3	798.069E-6	4.03990E-12	257.471E-3	-7.71041E-3
1.02801E-3	3.93846E-12	328.986E-3	18.0751E-3	3.87883E-12	237.744E-3	-2.22447E-3
1.02301E-3	3.75439E-12	309.312E-3	9.45894E-3	3.65805E-12	217.837E-3	-12.1014E-3
1.01801E-3	3.60208E-12	290.710E-3	-2.20190E-3	3.62122E-12	216.580E-3	-19.5272E-3
1.01301E-3	3.52317E-12	262.208E-3	-641.479E-6	3.50890E-12	217.765E-3	-17.7125E-3
1.00800E-3	3.42794E-12	231.728E-3	12.9899E-3	3.39455E-12	203.858E-3	-7.73419E-3
1.00300E-3	3.29763E-12	225.620E-3	21.8448E-3	3.29824E-12	191.710E-3	817.540E-6
997.999E-6	3.19826E-12	227.438E-3	9.85803E-3	3.25914E-12	192.168E-3	-12.6664E-3
992.997E-6	3.06381E-12	222.351E-3	-14.1098E-3	3.21159E-12	188.394E-3	-39.8510E-3
987.994E-6	3.02568E-12	208.113E-3	-20.7741E-3	3.04565E-12	184.475E-3	-36.7931E-3
982.991E-6	2.95455E-12	187.805E-3	-7.15430E-3	2.95603E-12	181.333E-3	-7.25646E-3
977.989E-6	2.83350E-12	177.171E-3	-2.61003E-3	2.90888E-12	165.229E-3	8.92133E-3
972.986E-6	2.78156E-12	177.758E-3	-4.93557E-3	2.80228E-12	147.775E-3	-4.63880E-3
967.984E-6	2.79253E-12	174.145E-3	-5.11563E-3	2.78630E-12	143.278E-3	-24.9224E-3
962.981E-6	2.79853E-12	156.776E-3	-9.66683E-3	2.75757E-12	147.128E-3	-26.0028E-3
957.979E-6	2.67026E-12	138.268E-3	-7.45293E-3	2.63144E-12	151.412E-3	-16.2776E-3
952.976E-6	2.60759E-12	139.760E-3	531.380E-6	2.56936E-12	142.599E-3	-14.5351E-3
947.974E-6	2.65970E-12	152.736E-3	-4.13306E-3	2.59573E-12	119.473E-3	-29.1285E-3
942.971E-6	2.63102E-12	146.151E-3	-16.7849E-3	2.60941E-12	108.512E-3	-40.7063E-3
937.969E-6	2.55071E-12	127.232E-3	-22.7194E-3	2.51742E-12	125.524E-3	-35.2988E-3
932.966E-6	2.48644E-12	124.116E-3	-14.7290E-3	2.45474E-12	134.506E-3	-24.3888E-3
927.964E-6	2.49565E-12	138.292E-3	-3.22124E-3	2.45745E-12	109.756E-3	-10.4773E-3
922.961E-6	2.43158E-12	156.884E-3	-9.58799E-3	2.41382E-12	87.7462E-3	-8.59688E-3
917.959E-6	2.30250E-12	159.499E-3	-27.5153E-3	2.39861E-12	85.4292E-3	-23.0470E-3
912.956E-6	2.25804E-12	133.864E-3	-34.6185E-3	2.33615E-12	91.7441E-3	-28.0227E-3
907.954E-6	2.27738E-12	103.675E-3	-21.9057E-3	2.23627E-12	102.856E-3	-21.9424E-3
902.951E-6	2.19737E-12	100.638E-3	-4.34586E-3	2.20333E-12	96.2725E-3	-9.62495E-3
897.949E-6	2.08311E-12	117.541E-3	-3.23615E-3	2.20230E-12	83.0447E-3	1.22810E-3
892.946E-6	2.08419E-12	120.645E-3	-16.1400E-3	2.14172E-12	93.2030E-3	-11.0033E-3
887.944E-6	2.04855E-12	100.670E-3	-29.7392E-3	2.12909E-12	108.622E-3	-26.7611E-3
882.941E-6	1.93165E-12	83.6721E-3	-24.5792E-3	2.09244E-12	112.431E-3	-13.5570E-3
877.939E-6	1.92812E-12	85.8168E-3	-7.07224E-3	2.02306E-12	99.3085E-3	-1.62229E-3
872.936E-6	1.97884E-12	92.7427E-3	-4.54367E-3	1.97582E-12	75.2570E-3	-15.6513E-3
867.934E-6	1.94943E-12	87.2519E-3	-16.1233E-3	1.99273E-12	62.5282E-3	-21.3094E-3
862.931E-6	1.82164E-12	76.9275E-3	-27.0313E-3	1.92958E-12	69.4217E-3	-9.69994E-3
857.929E-6	1.82278E-12	71.6335E-3	-22.6745E-3	1.89817E-12	80.5459E-3	8.38130E-3
852.926E-6	1.87192E-12	71.9791E-3	-4.09187E-3	1.85988E-12	66.9173E-3	20.8406E-3
847.924E-6	1.87459E-12	74.3762E-3	13.4335E-3	1.89042E-12	50.8633E-3	7.26835E-3
842.921E-6	1.77199E-12	76.2696E-3	10.1605E-3	1.84827E-12	58.8243E-3	-17.7210E-3
837.919E-6	1.75442E-12	78.1557E-3	-13.7923E-3	1.83050E-12	59.0564E-3	-28.5044E-3
832.916E-6	1.79687E-12	67.8430E-3	-36.4360E-3	1.84550E-12	52.9239E-3	-23.7765E-3
827.914E-6	1.78660E-12	50.7736E-3	-33.2355E-3	1.80428E-12	46.7987E-3	-18.2424E-3
822.911E-6	1.73797E-12	48.1221E-3	-7.30983E-3	1.75272E-12	30.8285E-3	-20.3882E-3
817.909E-6	1.70468E-12	55.5908E-3	5.78729E-3	1.73805E-12	38.8391E-3	-27.1223E-3
812.906E-6	1.72154E-12	61.6602E-3	-7.10230E-3	1.73467E-12	66.8642E-3	-33.5268E-3
807.904E-6	1.71740E-12	61.6011E-3	-23.1046E-3	1.76701E-12	71.2816E-3	-22.0263E-3
802.901E-6	1.64871E-12	53.9399E-3	-18.9349E-3	1.69521E-12	61.7229E-3	-641.697E-6
797.899E-6	1.64589E-12	50.6525E-3	2.81030E-3	1.60921E-12	48.3514E-3	-1.23137E-3
792.896E-6	1.66113E-12	54.2981E-3	11.8541E-3	1.61331E-12	31.5927E-3	-14.6318E-3
787.894E-6	1.61744E-12	52.4916E-3	-10.6993E-3	1.63237E-12	33.6490E-3	-18.0037E-3
782.891E-6	1.55706E-12	46.9201E-3	-30.3785E-3	1.57659E-12	48.9343E-3	-16.6867E-3
777.889E-6	1.56065E-12	36.9145E-3	-21.6962E-3	1.55220E-12	48.7015E-3	-16.8653E-3
772.886E-6	1.52507E-12	43.2454E-3	-10.3679E-3	1.53814E-12	37.7468E-3	-16.8526E-3
767.884E-6	1.54166E-12	63.0862E-3	-11.9713E-3	1.54986E-12	35.5121E-3	-21.4759E-3
762.881E-6	1.50083E-12	71.8244E-3	-18.3956E-3	1.51586E-12	37.2538E-3	-28.6864E-3
757.879E-6	1.50564E-12	68.1985E-3	-15.9037E-3	1.49430E-12	39.0754E-3	-20.0640E-3
752.876E-6	1.53695E-12	54.8996E-3	3.43363E-3	1.48620E-12	40.8175E-3	-5.71080E-3
747.874E-6	1.48754E-12	47.3812E-3	16.3838E-3	1.46073E-12	37.8235E-3	-12.9882E-3
742.871E-6	1.45623E-12	51.1696E-3	3.94779E-3	1.45434E-12	35.3461E-3	-26.5187E-3
737.869E-6	1.49778E-12	57.5528E-3	-14.1982E-3	1.40167E-12	40.8102E-3	-28.1738E-3
732.866E-6	1.47048E-12	51.5160E-3	-19.7078E-3	1.38524E-12	51.7998E-3	-24.5536E-3
727.864E-6	1.40409E-12	36.0792E-3	-17.1177E-3	1.40505E-12	59.8118E-3	-19.6565E-3
722.861E-6	1.42222E-12	31.7239E-3	-16.1002E-3	1.32896E-12	58.8876E-3	-18.1682E-3
717.859E-6	1.45750E-12	39.0190E-3	-16.1152E-3	1.35893E-12	53.2250E-3	-31.5475E-3
712.856E-6	1.37656E-12	42.2808E-3	-19.8138E-3	1.32325E-12	56.7925E-3	-40.8254E-3
707.854E-6	1.37283E-12	31.8610E-3	-31.9496E-3	1.33998E-12	67.0713E-3	-33.3188E-3
702.851E-6	1.32682E-12	19.9130E-3	-32.9393E-3	1.30954E-12	66.8316E-3	-28.9575E-3
697.849E-6	1.36062E-12	23.3371E-3	-19.0539E-3	1.30314E-12	57.2284E-3	-24.8179E-3
692.846E-6	1.30024E-12	43.6571E-3	-11.5878E-3	1.30062E-12	45.5246E-3	-13.3038E-3
687.844E-6	1.27323E-12	63.6732E-3	-9.17555E-3	1.27102E-12	33.3647E-3	-14.0791E-3
682.841E-6	1.26530E-12	59.3716E-3	-12.1920E-3	1.21241E-12	37.1587E-3	-17.7582E-3
677.839E-6	1.26477E-12	41.3407E-3	-15.3857E-3	1.22423E-12	52.0590E-3	-5.76780E-3
672.836E-6	1.21747E-12	38.0723E-3	-9.00733E-3	1.24927E-12	47.3835E-3	-556.501E-6
667.834E-6	1.16956E-12	38.4408E-3	-11.9108E-3	1.23021E-12	34.7506E-3	-9.44015E-3
662.831E-6	1.15369E-12	37.2333E-3	-26.0132E-3	1.11276E-12	41.2711E-3	-15.4332E-3
657.829E-6	1.14274E-12	45.8829E-3	-31.7876E-3	1.11939E-12	55.6297E-3	-11.9458E-3
652.826E-6	1.12670E-12	44.9130E-3	-28.5099E-3	1.15225E-12	50.5695E-3	-675.432E-6
647.824E-6	1.09356E-12	30.6842E-3	-25.6921E-3	1.10888E-12	34.9541E-3	3.28683E-3
642.821E-6	1.12159E-12	22.2903E-3	-25.2464E-3	1.08433E-12	28.6338E-3	-12.7585E-3
637.819E-6	1.08984E-12	30.7743E-3	-24.1931E-3	1.07448E-12	35.0366E-3	-29.5596E-3
632.816E-6	1.08451E-12	36.6426E-3	-14.6655E-3	1.08407E-12	54.2569E-3	-23.3318E-3
627.814E-6	1.08776E-12	35.3732E-3	-7.24650E-3	1.05918E-12	64.6226E-3	-10.2005E-3
622.811E-6	1.04307E-12	35.8928E-3	-15.2414E-3	1.00433E-12	45.9054E-3	-15.7061E-3
617.809E-6	1.05871E-12	32.0306E-3	-22.8179E-3	1.00639E-12	29.0888E-3	-23.3699E-3
612.806E-6	1.03742E-12	39.6502E-3	-23.1446E-3	1.01978E-12	40.5821E-3	-20.0792E-3
607.804E-6	990.084E-15	58.5702E-3	-21.3250E-3	1.00223E-12	52.8216E-3	-16.4970E-3
602.801E-6	1.02754E-12	61.6135E-3	-15.7095E-3	959.723E-15	59.5570E-3	-9.97341E-3
597.799E-6	976.020E-15	48.5148E-3	-10.6590E-3	974.032E-15	60.0737E-3	-4.35663E-3
592.796E-6	937.079E-15	40.4267E-3	-9.20691E-3	971.294E-15	44.7302E-3	-15.0348E-3
587.794E-6	911.602E-15	43.8943E-3	-15.3184E-3	936.670E-15	33.3691E-3	-29.9631E-3
582.791E-6	897.659E-15	53.3956E-3	-20.9953E-3	891.599E-15	41.8821E-3	-35.7490E-3
577.789E-6	903.737E-15	57.0248E-3	-14.6263E-3	927.035E-15	51.6211E-3	-28.6528E-3
572.786E-6	809.690E-15	53.7711E-3	-8.91825E-3	853.845E-15	36.3553E-3	-9.26409E-3
567.784E-6	794.641E-15	60.8640E-3	-9.59875E-3	821.557E-15	19.9296E-3	-6.20665E-3
562.781E-6	772.127E-15	72.8735E-3	-13.4237E-3	785.956E-15	28.4501E-3	-23.3875E-3
557.779E-6	778.833E-15	76.7051E-3	-22.0501E-3	849.067E-15	49.4983E-3	-25.7062E-3
552.776E-6	796.916E-15	68.7776E-3	-22.1228E-3	768.378E-15	69.6941E-3	-7.11840E-3
547.774E-6	799.968E-15	50.6180E-3	-8.43919E-3	699.321E-15	63.9664E-3	4.61483E-3
542.771E-6	742.926E-15	40.2091E-3	3.19760E-3	709.409E-15	40.2983E-3	-4.12560E-3
537.769E-6	702.068E-15	42.5929E-3	4.87549E-3	779.103E-15	33.0390E-3	-24.8668E-3
532.766E-6	728.147E-15	39.5461E-3	-5.36899E-3	770.506E-15	33.9322E-3	-37.6605E-3
527.764E-6	674.550E-15	37.4584E-3	-21.2479E-3	702.059E-15	37.3034E-3	-29.3632E-3
522.761E-6	694.264E-15	44.4611E-3	-19.8910E-3	655.420E-15	38.6113E-3	-11.6641E-3
517.759E-6	634.057E-15	54.5624E-3	-3.02683E-3	679.249E-15	33.3742E-3	-944.066E-6
512.756E-6	654.042E-15	61.5072E-3	474.365E-6	650.885E-15	39.3586E-3	-3.17657E-3
507.754E-6	651.034E-15	59.1125E-3	-12.0526E-3	625.634E-15	47.8544E-3	-23.9474E-3
502.751E-6	666.040E-15	50.0045E-3	-20.0645E-3	607.333E-15	40.4992E-3	-38.6050E-3
497.749E-6	622.713E-15	42.5677E-3	-16.7505E-3	611.579E-15	29.0634E-3	-17.8129E-3
492.746E-6	533.855E-15	48.9723E-3	-12.1604E-3	571.697E-15	27.3792E-3	-1.95464E-3
487.744E-6	586.860E-15	57.5957E-3	-14.6359E-3	577.434E-15	24.4712E-3	-14.4655E-3
482.741E-6	555.758E-15	54.9019E-3	-24.5207E-3	534.125E-15	21.6307E-3	-16.1234E-3
477.739E-6	468.539E-15	48.7932E-3	-31.2918E-3	560.344E-15	35.3726E-3	-7.01998E-3
472.736E-6	445.337E-15	42.0669E-3	-30.8409E-3	510.165E-15	44.8881E-3	-16.4004E-3
467.734E-6	513.399E-15	32.4181E-3	-30.5733E-3	525.205E-15	32.4050E-3	-21.2819E-3
462.731E-6	488.384E-15	30.8955E-3	-28.6344E-3	477.537E-15	34.4461E-3	-11.5352E-3
457.729E-6	444.918E-15	39.4881E-3	-16.8949E-3	461.711E-15	56.8231E-3	-18.0756E-3
452.726E-6	396.404E-15	45.9014E-3	-15.3645E-3	413.494E-15	58.6676E-3	-25.9142E-3
447.724E-6	415.115E-15	46.2442E-3	-29.7173E-3	461.363E-15	40.5116E-3	-10.8169E-3
442.721E-6	425.613E-15	45.6241E-3	-27.2403E-3	440.768E-15	24.2714E-3	-4.82226E-3
437.719E-6	385.749E-15	48.7355E-3	-14.1047E-3	417.731E-15	19.1816E-3	-25.3294E-3
432.716E-6	360.489E-15	49.7759E-3	-14.0072E-3	379.802E-15	33.3203E-3	-34.1845E-3
427.714E-6	400.005E-15	41.8776E-3	-17.5408E-3	377.997E-15	50.4159E-3	-20.7811E-3
422.711E-6	376.925E-15	37.1059E-3	-14.5424E-3	415.874E-15	47.5961E-3	-8.88524E-3
417.709E-6	331.305E-15	38.6750E-3	-4.47851E-3	373.664E-15	30.3752E-3	-9.86046E-3
412.706E-6	372.574E-15	35.4935E-3	11.4169E-3	314.442E-15	21.6588E-3	-17.3975E-3
407.704E-6	353.531E-15	38.0941E-3	12.7688E-3	288.520E-15	25.1153E-3	-15.1969E-3
402.701E-6	341.786E-15	46.6615E-3	-9.00970E-3	330.887E-15	34.9166E-3	-3.16264E-3
397.699E-6	296.106E-15	44.9366E-3	-18.9475E-3	296.088E-15	52.6801E-3	2.86522E-3
392.696E-6	276.156E-15	35.6386E-3	-14.2345E-3	275.162E-15	54.0105E-3	-3.59850E-3
387.694E-6	293.961E-15	34.7512E-3	-19.7895E-3	260.400E-15	33.2242E-3	-11.0718E-3
382.691E-6	261.429E-15	38.4307E-3	-30.0249E-3	267.175E-15	25.0236E-3	-14.5253E-3
377.689E-6	231.600E-15	31.7084E-3	-31.6488E-3	274.316E-15	32.9678E-3	-18.3062E-3
372.686E-6	263.984E-15	29.4485E-3	-27.1605E-3	220.928E-15	33.5985E-3	-17.5529E-3
367.684E-6	239.517E-15	41.0905E-3	-14.8094E-3	213.865E-15	28.9097E-3	-8.05346E-3
362.681E-6	183.374E-15	46.1150E-3	2.20433E-3	230.859E-15	24.0484E-3	7.80838E-3
357.679E-6	150.293E-15	48.5843E-3	833.043E-6	214.449E-15	13.0595E-3	12.2242E-3
352.676E-6	222.009E-15	51.1648E-3	-7.13225E-3	189.486E-15	15.3424E-3	-9.70385E-3
347.674E-6	161.950E-15	37.1010E-3	1.00767E-3	200.586E-15	27.7767E-3	-27.4427E-3
342.671E-6	82.1251E-15	28.6390E-3	1.91254E-3	180.679E-15	30.5669E-3	-21.1676E-3
337.669E-6	138.408E-15	28.5945E-3	-9.30510E-3	154.635E-15	31.6349E-3	-18.7560E-3
332.666E-6	164.845E-15	20.3926E-3	-6.57018E-3	166.205E-15	35.9476E-3	-26.1328E-3
327.664E-6	171.838E-15	17.6263E-3	-7.13090E-3	153.440E-15	43.5490E-3	-20.8286E-3
322.661E-6	124.885E-15	18.7145E-3	-19.2580E-3	118.432E-15	44.5997E-3	-5.32209E-3
317.659E-6	61.9573E-15	22.0277E-3	-20.9656E-3	71.9496E-15	29.1658E-3	4.30301E-3
312.656E-6	99.2062E-15	29.9222E-3	-20.0800E-3	114.622E-15	11.1445E-3	-2.27777E-3
307.654E-6	107.237E-15	37.6727E-3	-25.9678E-3	133.726E-15	13.7754E-3	-27.8849E-3
302.651E-6	92.1871E-15	31.4900E-3	-27.3243E-3	79.3959E-15	24.5138E-3	-48.2713E-3
297.649E-6	95.7185E-15	16.5153E-3	-26.6388E-3	28.5536E-15	22.2444E-3	-34.7420E-3
292.646E-6	114.526E-15	14.8257E-3	-33.5272E-3	31.8670E-15	16.2135E-3	-2.07178E-3
287.644E-6	67.7120E-15	19.1642E-3	-29.2036E-3	109.190E-15	7.42826E-3	489.737E-6
282.641E-6	45.3383E-15	22.6125E-3	-13.7944E-3	77.4079E-15	5.12775E-3	-25.8207E-3
277.639E-6	46.2451E-15	38.1878E-3	-12.0530E-3	71.3131E-15	19.7568E-3	-34.9610E-3
272.636E-6	45.8702E-15	43.3023E-3	-15.6490E-3	21.4648E-15	30.5760E-3	-24.3006E-3
267.634E-6	7.23492E-15	23.0514E-3	-14.4711E-3	64.7039E-15	25.6546E-3	-14.2926E-3
262.631E-6	-2.05986E-15	20.9819E-3	-12.8950E-3	26.8534E-15	10.2793E-3	-8.44625E-3
257.629E-6	10.3303E-15	26.1460E-3	-12.2120E-3	-18.9230E-15	860.700E-6	-19.2230E-3
252.626E-6	22.9035E-15	8.87846E-3	-7.28820E-3	-30.7464E-15	9.35136E-3	-41.0613E-3
247.624E-6	3.81695E-15	-256.888E-6	-6.11644E-3	32.9394E-15	23.2705E-3	-40.8600E-3
242.621E-6	-1.63262E-15	-1.16511E-3	-12.1027E-3	48.1895E-15	23.1315E-3	-29.0340E-3
237.619E-6	-44.8891E-15	-1.35705E-3	-16.8589E-3	-11.4767E-15	9.57035E-3	-34.8557E-3
232.616E-6	26.2343E-15	14.2991E-3	-26.5312E-3	-22.5851E-15	6.94322E-3	-41.9858E-3
227.614E-6	-79.1647E-15	22.7478E-3	-29.7573E-3	-6.67238E-15	15.4253E-3	-38.7138E-3
222.611E-6	-51.4373E-15	7.43375E-3	-25.1694E-3	-4.57102E-15	17.7757E-3	-33.3738E-3
217.609E-6	6.74664E-15	-1.26688E-3	-25.1407E-3	-32.7169E-15	15.6944E-3	-21.0553E-3
212.606E-6	-40.3115E-15	12.1866E-3	-21.5894E-3	-4.96339E-15	11.2239E-3	-13.7231E-3
207.604E-6	-63.2432E-15	23.3783E-3	-21.5843E-3	-47.6880E-15	83.1214E-6	-15.6721E-3
202.601E-6	-88.6600E-15	25.4845E-3	-27.0711E-3	-101.809E-15	-1.07501E-3	-12.7868E-3
197.599E-6	-80.7865E-15	26.0125E-3	-18.7262E-3	-66.8530E-15	15.9699E-3	-12.4809E-3
192.596E-6	-14.2931E-15	18.0504E-3	-3.90785E-3	-20.6581E-15	22.3918E-3	-16.1521E-3
187.594E-6	-52.3790E-15	13.6287E-3	-7.14397E-3	-28.4619E-15	8.39947E-3	-19.1556E-3
182.591E-6	-46.2929E-15	13.4870E-3	-11.1917E-3	-125.891E-15	2.14545E-3	-21.4145E-3
177.589E-6	-34.7660E-15	802.630E-6	100.534E-6	-73.6715E-15	4.12456E-3	-24.9963E-3
172.586E-6	-98.6872E-15	-10.4323E-3	-634.356E-6	-38.2014E-15	3.83262E-3	-21.0545E-3
167.584E-6	-135.265E-15	-6.49102E-3	-14.5895E-3	-62.4585E-15	10.3990E-3	-9.19742E-3
162.581E-6	-114.565E-15	4.06189E-3	-26.7079E-3	-88.1107E-15	13.7131E-3	-6.77513E-3
157.579E-6	-36.5970E-15	6.92154E-3	-29.2480E-3	-180.649E-15	3.66879E-3	-14.0670E-3
152.576E-6	-74.5260E-15	3.32286E-3	-17.8810E-3	-50.1381E-15	-2.26831E-3	-27.2232E-3
147.574E-6	-100.850E-15	-578.046E-6	-14.1969E-3	-66.3996E-15	5.69523E-3	-28.1254E-3
142.571E-6	-78.5892E-15	-3.30988E-3	-20.1125E-3	-156.958E-15	10.7461E-3	-5.37674E-3
137.569E-6	-90.7788E-15	-436.018E-6	-11.2253E-3	-111.278E-15	-718.410E-6	4.62051E-3
132.566E-6	-99.8120E-15	256.025E-6	-2.32738E-3	-96.0889E-15	-18.0805E-3	-13.3366E-3
127.564E-6	-86.9685E-15	1.11557E-3	-7.41258E-3	-82.3996E-15	-17.7943E-3	-32.2819E-3
122.561E-6	-93.0546E-15	10.5722E-3	-13.0857E-3	-149.329E-15	-1.21712E-3	-33.4162E-3
117.559E-6	-114.696E-15	14.2399E-3	-13.9452E-3	-110.493E-15	6.96150E-3	-23.5759E-3
112.556E-6	-128.943E-15	10.3920E-3	-14.9047E-3	-93.4992E-15	-1.98689E-3	-18.4951E-3
107.554E-6	-171.685E-15	10.4562E-3	-12.2396E-3	-107.223E-15	-18.5226E-3	-17.8358E-3
102.551E-6	-90.8137E-15	8.22482E-3	-1.53251E-3	-131.385E-15	-20.2452E-3	-23.7787E-3
97.5488E-6	-113.562E-15	5.51750E-3	-301.662E-6	-111.827E-15	-6.30709E-3	-28.8937E-3
92.5463E-6	-206.746E-15	6.29930E-3	-8.59293E-3	-140.592E-15	10.5525E-3	-20.0634E-3
87.5438E-6	-154.691E-15	883.423E-6	-3.00815E-3	-151.099E-15	19.6888E-3	-9.60008E-3
82.5413E-6	-114.513E-15	-6.55315E-3	504.987E-6	-146.704E-15	10.6243E-3	-12.3042E-3
77.5388E-6	-104.459E-15	-9.69474E-3	-9.77630E-3	-105.087E-15	359.131E-6	-28.1373E-3
72.5363E-6	-141.316E-15	-10.6701E-3	-18.4743E-3	-99.6115E-15	2.00515E-3	-35.5330E-3
67.5338E-6	-165.015E-15	-11.5263E-3	-24.8527E-3	-162.783E-15	754.281E-6	-24.7038E-3
62.5313E-6	-131.934E-15	-11.2780E-3	-23.0584E-3	-133.835E-15	-9.14393E-3	-18.2059E-3
57.5288E-6	-82.5129E-15	-4.14500E-3	-12.0112E-3	-128.577E-15	-12.5688E-3	-19.7670E-3
52.5263E-6	-199.081E-15	4.32603E-3	-3.27584E-3	-178.233E-15	-11.4092E-3	-23.8578E-3
47.5238E-6	-145.100E-15	3.82067E-3	-7.01169E-3	-210.835E-15	-18.2588E-3	-26.7240E-3
42.5213E-6	-122.944E-15	-2.91126E-3	-19.9625E-3	-173.089E-15	-24.6765E-3	-24.2558E-3
37.5188E-6	-163.698E-15	-6.39029E-3	-24.5259E-3	-119.954E-15	-22.7660E-3	-19.7929E-3
32.5163E-6	-161.466E-15	-1.54185E-3	-19.7299E-3	-123.319E-15	-15.3221E-3	-8.75672E-3
27.5138E-6	-196.047E-15	-2.35811E-3	-13.7124E-3	-195.550E-15	-5.87477E-3	-8.81306E-3
22.5113E-6	-140.287E-15	-15.7678E-3	-18.3309E-3	-213.337E-15	6.15243E-3	-20.0897E-3
17.5088E-6	-164.771E-15	-14.4470E-3	-31.0673E-3	-163.916E-15	19.6089E-3	-16.6009E-3
12.5063E-6	-230.549E-15	-2.63875E-3	-26.2289E-3	-166.951E-15	20.1915E-3	-8.82453E-3
7.50375E-6	-146.112E-15	1.50244E-3	-12.9644E-3	-205.987E-15	9.20326E-3	-18.0101E-3
2.50125E-6	-173.682E-15	1.93588E-3	-14.6401E-3	-206.868E-15	8.18098E-3	-32.0741E-3
-2.50125E-6	-202.212E-15	3.20489E-3	-17.2270E-3	-168.634E-15	13.8361E-3	-37.6459E-3
-7.50375E-6	-193.588E-15	-2.52774E-3	-14.6113E-3	-174.999E-15	8.87161E-3	-33.7457E-3
-12.5063E-6	-143.792E-15	-17.8529E-3	-27.2454E-3	-182.558E-15	-8.06925E-3	-10.5221E-3
-17.5088E-6	-205.961E-15	-20.1061E-3	-40.1759E-3	-180.012E-15	-16.6526E-3	4.80221E-3
-22.5113E-6	-245.782E-15	-12.0567E-3	-35.4785E-3	-173.891E-15	-11.5664E-3	-9.84648E-3
-27.5138E-6	-231.238E-15	-3.42855E-3	-23.6803E-3	-195.960E-15	640.189E-6	-24.4709E-3
-32.5163E-6	-128.830E-15	11.0059E-3	-20.5698E-3	-185.811E-15	22.4185E-3	-24.5270E-3
-37.5188E-6	-161.213E-15	11.7163E-3	-25.4058E-3	-195.550E-15	29.1156E-3	-18.0104E-3
-42.5213E-6	-176.280E-15	3.75087E-3	-23.8013E-3	-213.573E-15	11.8038E-3	-12.9558E-3
-47.5238E-6	-213.791E-15	9.75692E-3	-17.5446E-3	-213.634E-15	-3.22549E-3	-17.4085E-3
-52.5263E-6	-199.291E-15	12.8451E-3	-13.7852E-3	-188.505E-15	5.11465E-3	-27.9078E-3
-57.5288E-6	-187.633E-15	7.56274E-3	-14.3440E-3	-166.323E-15	29.1158E-3	-27.5486E-3
-62.5313E-6	-197.826E-15	2.43554E-3	-22.4731E-3	-183.230E-15	31.7276E-3	-8.70934E-3
-67.5338E-6	-207.853E-15	-2.98981E-3	-33.0874E-3	-251.388E-15	7.28029E-3	-769.514E-6
-72.5363E-6	-220.566E-15	-2.00501E-3	-37.8256E-3	-212.518E-15	-9.96062E-3	-15.6276E-3
-77.5388E-6	-204.112E-15	693.543E-6	-25.6856E-3	-179.768E-15	-122.140E-6	-30.9100E-3
-82.5413E-6	-218.377E-15	4.92118E-3	-11.2096E-3	-191.984E-15	12.5242E-3	-34.6106E-3
-87.5438E-6	-236.121E-15	16.8078E-3	-19.6465E-3	-267.075E-15	2.55733E-3	-24.3488E-3
-92.5463E-6	-224.899E-15	15.3953E-3	-30.3551E-3	-285.385E-15	-12.0849E-3	-13.7787E-3
-97.5488E-6	-199.046E-15	151.070E-6	-28.9312E-3	-227.916E-15	-4.07114E-3	-16.4902E-3
-102.551E-6	-243.899E-15	-3.21776E-3	-24.5970E-3	-204.976E-15	15.5167E-3	-21.2769E-3
-107.554E-6	-238.327E-15	9.97495E-3	-12.5217E-3	-263.927E-15	28.0597E-3	-18.2395E-3
-112.556E-6	-200.075E-15	11.6006E-3	-4.62728E-3	-290.931E-15	22.7271E-3	-6.35293E-3
-117.559E-6	-270.815E-15	-8.88337E-3	-19.0697E-3	-247.491E-15	266.226E-6	8.20403E-3
-122.561E-6	-234.028E-15	-12.1947E-3	-33.5773E-3	-227.280E-15	-13.2483E-3	1.99938E-3
-127.564E-6	-244.980E-15	6.81321E-3	-29.7022E-3	-246.776E-15	-6.22597E-3	-19.2080E-3
-132.566E-6	-252.147E-15	10.4318E-3	-22.6789E-3	-273.998E-15	9.46366E-3	-28.4132E-3
-137.569E-6	-271.818E-15	6.20155E-3	-24.2152E-3	-232.511E-15	16.9999E-3	-18.1345E-3
-142.571E-6	-258.564E-15	10.7318E-3	-23.0483E-3	-248.991E-15	11.2578E-3	-5.54089E-3
-147.574E-6	-227.794E-15	14.7565E-3	-14.8233E-3	-253.185E-15	1.56902E-3	-8.78379E-3
-152.576E-6	-238.745E-15	18.6406E-3	-4.29660E-3	-274.285E-15	4.00980E-3	-20.9491E-3
-157.579E-6	-341.598E-15	16.0324E-3	7.68584E-3	-292.020E-15	16.1667E-3	-37.8292E-3
-162.581E-6	-266.543E-15	16.5426E-3	8.39059E-3	-303.818E-15	12.9037E-3	-43.3783E-3
-167.584E-6	-276.927E-15	31.8433E-3	-1.11488E-3	-315.109E-15	-2.50988E-3	-18.2366E-3
-172.586E-6	-285.211E-15	35.9493E-3	-81.4121E-6	-278.846E-15	-8.73909E-3	-3.04147E-3
-177.589E-6	-300.042E-15	26.2786E-3	3.35843E-3	-322.355E-15	-3.89635E-3	-17.6615E-3
-182.591E-6	-326.845E-15	26.5052E-3	-6.74422E-3	-322.285E-15	7.32707E-3	-20.0426E-3
-187.594E-6	-292.186E-15	25.9360E-3	-19.8208E-3	-305.832E-15	21.8292E-3	-8.38473E-3
-192.596E-6	-267.973E-15	13.1658E-3	-28.4174E-3	-265.060E-15	18.0611E-3	-104.649E-6
-197.599E-6	-339.148E-15	7.43932E-3	-29.3730E-3	-323.166E-15	-3.78431E-3	599.417E-6
-202.601E-6	-300.783E-15	9.46960E-3	-25.4108E-3	-392.380E-15	-2.84530E-3	-13.7059E-3
-207.604E-6	-293.799E-15	478.420E-6	-23.0814E-3	-349.071E-15	16.0537E-3	-28.1058E-3
-212.606E-6	-343.708E-15	89.1553E-6	-22.0625E-3	-318.353E-15	17.4418E-3	-34.5670E-3
-217.609E-6	-401.195E-15	18.2448E-3	-21.1419E-3	-357.241E-15	17.9294E-3	-40.3159E-3
-222.611E-6	-351.722E-15	29.5192E-3	-20.3879E-3	-364.617E-15	26.5117E-3	-42.4504E-3
-227.614E-6	-367.059E-15	32.3166E-3	-23.6426E-3	-397.690E-15	28.8476E-3	-32.7919E-3
-232.616E-6	-359.839E-15	35.1457E-3	-23.1543E-3	-358.488E-15	37.0733E-3	-12.5638E-3
-237.619E-6	-417.430E-15	28.4687E-3	-21.3349E-3	-364.242E-15	45.2622E-3	-2.16820E-3
-242.621E-6	-386.773E-15	14.7985E-3	-23.1968E-3	-395.876E-15	36.3518E-3	-5.45490E-3
-247.624E-6	-358.697E-15	15.5901E-3	-17.2866E-3	-416.898E-15	26.5905E-3	-10.1544E-3
-252.626E-6	-405.528E-15	33.4104E-3	-10.8618E-3	-395.353E-15	25.4618E-3	-17.6128E-3
-257.629E-6	-446.910E-15	44.8113E-3	-16.7874E-3	-387.157E-15	29.4258E-3	-22.3477E-3
-262.631E-6	-428.530E-15	44.7626E-3	-25.1287E-3	-464.680E-15	46.6426E-3	-20.1617E-3
-267.634E-6	-440.109E-15	44.7502E-3	-20.0958E-3	-470.322E-15	54.4134E-3	-13.8123E-3
-272.636E-6	-461.611E-15	43.8852E-3	-11.9070E-3	-467.915E-15	29.8868E-3	-8.26848E-3
-277.639E-6	-529.517E-15	34.6483E-3	-7.50691E-3	-460.259E-15	9.81689E-3	-16.3306E-3
-282.641E-6	-408.789E-15	20.3512E-3	2.94876E-3	-467.156E-15	19.0471E-3	-24.4738E-3
-287.644E-6	-466.625E-15	12.7650E-3	5.87715E-3	-451.043E-15	33.0362E-3	-20.9486E-3
-292.646E-6	-509.898E-15	18.8091E-3	-5.16020E-3	-485.258E-15	44.8133E-3	-14.2345E-3
-297.649E-6	-521.268E-15	26.6871E-3	-9.21715E-3	-531.549E-15	56.2547E-3	-18.3909E-3
-302.651E-6	-529.752E-15	22.9814E-3	-9.10237E-3	-514.476E-15	56.7470E-3	-30.0727E-3
-307.654E-6	-529.046E-15	20.9762E-3	-9.15329E-3	-507.501E-15	52.6719E-3	-24.8999E-3
-312.656E-6	-575.921E-15	24.9897E-3	-3.17052E-3	-579.034E-15	51.7730E-3	-18.6208E-3
-317.659E-6	-597.379E-15	26.0185E-3	-10.8328E-3	-638.116E-15	51.5512E-3	-23.6162E-3
-322.661E-6	-603.439E-15	32.7244E-3	-29.1271E-3	-608.165E-15	39.9029E-3	-21.2831E-3
-327.664E-6	-581.545E-15	38.1996E-3	-25.6989E-3	-559.302E-15	30.9573E-3	-20.4602E-3
-332.666E-6	-660.699E-15	34.8501E-3	-10.1426E-3	-608.662E-15	43.6699E-3	-28.9078E-3
-337.669E-6	-639.616E-15	40.1102E-3	-11.9416E-3	-660.690E-15	52.9515E-3	-24.4679E-3
-342.671E-6	-608.732E-15	49.1707E-3	-11.7583E-3	-713.887E-15	53.0442E-3	-5.62770E-3
-347.674E-6	-692.856E-15	47.9174E-3	3.26240E-3	-676.307E-15	50.5642E-3	-545.393E-6
-352.676E-6	-712.753E-15	41.7192E-3	7.89774E-3	-669.723E-15	49.3643E-3	-7.70482E-3
-357.679E-6	-669.322E-15	43.3727E-3	756.688E-6	-726.774E-15	53.4443E-3	-11.6639E-3
-362.681E-6	-688.854E-15	49.3392E-3	-7.14342E-3	-732.032E-15	53.3328E-3	-12.0654E-3
-367.684E-6	-762.802E-15	51.8014E-3	-18.5113E-3	-726.286E-15	53.6855E-3	-11.6180E-3
-372.686E-6	-792.378E-15	53.6840E-3	-20.2133E-3	-759.454E-15	46.5896E-3	-13.6363E-3
-377.689E-6	-763.883E-15	51.6281E-3	-6.47575E-3	-796.781E-15	30.9968E-3	-21.7847E-3
-382.691E-6	-738.902E-15	42.0391E-3	-5.04339E-3	-811.761E-15	36.7638E-3	-31.6324E-3
-387.694E-6	-815.318E-15	47.3084E-3	-12.9431E-3	-784.077E-15	65.1122E-3	-24.8895E-3
-392.696E-6	-862.324E-15	63.6842E-3	-11.7202E-3	-847.789E-15	82.9744E-3	-12.5232E-3
-397.699E-6	-820.777E-15	64.2097E-3	-15.9873E-3	-867.006E-15	76.9987E-3	-9.00503E-3
-402.701E-6	-847.589E-15	54.5697E-3	-19.2504E-3	-888.395E-15	63.3368E-3	-10.2595E-3
-407.704E-6	-942.115E-15	46.8983E-3	-13.3454E-3	-865.603E-15	56.2362E-3	-19.8465E-3
-412.706E-6	-928.155E-15	51.4563E-3	-12.6671E-3	-924.955E-15	53.2751E-3	-21.6267E-3
-417.709E-6	-895.030E-15	60.2690E-3	-12.5869E-3	-948.715E-15	50.9864E-3	-5.27762E-3
-422.711E-6	-942.987E-15	59.1921E-3	-15.1829E-3	-937.424E-15	55.0533E-3	1.33972E-3
-427.714E-6	-993.436E-15	59.9483E-3	-21.4758E-3	-996.575E-15	58.0870E-3	-9.40427E-3
-432.716E-6	-1.08330E-12	72.9683E-3	-18.2077E-3	-1.06385E-12	62.7795E-3	-22.6796E-3
-437.719E-6	-1.04535E-12	87.3411E-3	-8.57346E-3	-1.04744E-12	74.2976E-3	-22.7003E-3
-442.721E-6	-1.07637E-12	89.4836E-3	-12.0420E-3	-1.04828E-12	72.0628E-3	-5.30702E-3
-447.724E-6	-1.10119E-12	83.7362E-3	-26.9504E-3	-1.09016E-12	63.3819E-3	1.19715E-3
-452.726E-6	-1.08379E-12	67.8633E-3	-31.7468E-3	-1.15320E-12	58.6446E-3	-17.6046E-3
-457.729E-6	-1.09852E-12	54.2719E-3	-28.4777E-3	-1.15416E-12	54.2987E-3	-32.9166E-3
-462.731E-6	-1.17017E-12	61.0740E-3	-17.9086E-3	-1.13945E-12	65.4438E-3	-26.5227E-3
-467.734E-6	-1.19424E-12	64.8642E-3	-9.80313E-3	-1.16723E-12	82.9506E-3	-20.4265E-3
-472.736E-6	-1.18273E-12	57.1865E-3	-13.8240E-3	-1.26469E-12	83.7921E-3	-24.0111E-3
-477.739E-6	-1.15573E-12	53.8421E-3	-11.2731E-3	-1.30343E-12	82.3592E-3	-25.9356E-3
-482.741E-6	-1.27817E-12	57.7096E-3	-3.38961E-3	-1.22468E-12	87.9047E-3	-29.5646E-3
-487.744E-6	-1.23484E-12	66.6948E-3	-5.71722E-3	-1.23261E-12	85.1662E-3	-25.0700E-3
-492.746E-6	-1.25858E-12	78.1291E-3	-2.50364E-3	-1.32586E-12	83.7017E-3	-6.40384E-3
-497.749E-6	-1.28702E-12	83.9188E-3	609.628E-6	-1.35912E-12	82.6706E-3	-2.05249E-3
-502.751E-6	-1.33548E-12	80.9651E-3	-15.3052E-3	-1.32875E-12	72.5003E-3	-17.8847E-3
-507.754E-6	-1.41835E-12	89.9481E-3	-28.5927E-3	-1.36451E-12	75.8152E-3	-28.1064E-3
-512.756E-6	-1.39174E-12	101.667E-3	-30.6287E-3	-1.41694E-12	95.1973E-3	-23.6614E-3
-517.759E-6	-1.40824E-12	87.5958E-3	-29.1652E-3	-1.49759E-12	100.769E-3	-10.3907E-3
-522.761E-6	-1.55187E-12	68.2386E-3	-26.9704E-3	-1.46615E-12	88.3487E-3	9.56269E-3
-527.764E-6	-1.56825E-12	66.1791E-3	-24.5674E-3	-1.50815E-12	81.4598E-3	10.2135E-3
-532.766E-6	-1.56999E-12	77.5747E-3	-21.4122E-3	-1.55584E-12	81.7642E-3	-10.1562E-3
-537.769E-6	-1.61565E-12	92.0495E-3	-20.6420E-3	-1.59748E-12	84.4974E-3	-12.2527E-3
-542.771E-6	-1.67266E-12	97.8141E-3	-13.6008E-3	-1.61894E-12	93.8730E-3	-2.26284E-3
-547.774E-6	-1.65059E-12	87.2780E-3	-3.74844E-3	-1.65219E-12	91.0166E-3	-498.492E-6
-552.776E-6	-1.67031E-12	76.8374E-3	-1.20492E-3	-1.69294E-12	74.4824E-3	-902.544E-6
-557.779E-6	-1.70108E-12	80.9517E-3	3.26006E-3	-1.69185E-12	71.6941E-3	-8.85817E-3
-562.781E-6	-1.74719E-12	86.9975E-3	2.89748E-3	-1.74068E-12	78.3544E-3	-24.5990E-3
-567.784E-6	-1.79066E-12	91.0640E-3	-6.74329E-3	-1.80084E-12	85.7939E-3	-22.2790E-3
-572.786E-6	-1.81261E-12	90.7161E-3	-7.77612E-3	-1.84646E-12	89.6346E-3	-1.34925E-3
-577.789E-6	-1.82842E-12	79.3162E-3	-6.99218E-3	-1.81793E-12	82.7584E-3	1.50400E-3
-582.791E-6	-1.86595E-12	66.4871E-3	-12.7861E-3	-1.82882E-12	86.0678E-3	-12.1108E-3
-587.794E-6	-1.87104E-12	66.9182E-3	-18.0713E-3	-1.91281E-12	96.5688E-3	-22.3707E-3
-592.796E-6	-1.88026E-12	69.8932E-3	-22.3408E-3	-1.96260E-12	93.5913E-3	-26.1646E-3
-597.799E-6	-1.94573E-12	66.9646E-3	-17.9286E-3	-1.92417E-12	83.4667E-3	-19.1007E-3
-602.801E-6	-1.98490E-12	65.2013E-3	-9.92801E-3	-1.97185E-12	71.7071E-3	-16.7185E-3
-607.804E-6	-1.96689E-12	66.4873E-3	-5.93920E-3	-1.96936E-12	62.0147E-3	-27.3811E-3
-612.806E-6	-1.96427E-12	77.5393E-3	7.19257E-3	-2.07550E-12	68.3794E-3	-33.4268E-3
-617.809E-6	-2.10345E-12	96.2893E-3	15.1679E-3	-2.05366E-12	82.9160E-3	-21.6796E-3
-622.811E-6	-2.13436E-12	104.182E-3	3.30299E-3	-2.09158E-12	81.9585E-3	-8.71383E-3
-627.814E-6	-2.11122E-12	98.9063E-3	-4.07170E-3	-2.15051E-12	80.3813E-3	-8.18963E-3
-632.816E-6	-2.13444E-12	92.7202E-3	-3.42930E-3	-2.15721E-12	90.8357E-3	-18.1877E-3
-637.819E-6	-2.19573E-12	85.6224E-3	-10.9286E-3	-2.22386E-12	97.9611E-3	-36.2010E-3
-642.821E-6	-2.29396E-12	72.4583E-3	-28.7270E-3	-2.29509E-12	99.0266E-3	-35.1944E-3
-647.824E-6	-2.24628E-12	58.2919E-3	-40.2604E-3	-2.28425E-12	86.7525E-3	-14.5212E-3
-652.826E-6	-2.29763E-12	51.6646E-3	-40.9281E-3	-2.32794E-12	65.6611E-3	-17.3516E-3
-657.829E-6	-2.39992E-12	54.4287E-3	-36.1564E-3	-2.31610E-12	58.9237E-3	-31.2603E-3
-662.831E-6	-2.37078E-12	69.9332E-3	-21.0848E-3	-2.36671E-12	71.5743E-3	-25.8737E-3
-667.834E-6	-2.34551E-12	86.9143E-3	-10.0957E-3	-2.39774E-12	84.7993E-3	-9.26306E-3
-672.836E-6	-2.35137E-12	84.7214E-3	-16.1634E-3	-2.41127E-12	84.9187E-3	8.94216E-3
-677.839E-6	-2.39941E-12	70.5606E-3	-21.3074E-3	-2.38853E-12	76.1254E-3	13.5334E-3
-682.841E-6	-2.42175E-12	64.9951E-3	-18.8810E-3	-2.43020E-12	64.5166E-3	-2.58662E-3
-687.844E-6	-2.40272E-12	72.1960E-3	-19.0287E-3	-2.42720E-12	60.1914E-3	-19.0699E-3
-692.846E-6	-2.42005E-12	79.3507E-3	-18.0058E-3	-2.38349E-12	61.9655E-3	-15.0672E-3
-697.849E-6	-2.46057E-12	71.2110E-3	-14.4199E-3	-2.45753E-12	65.6095E-3	-2.39378E-3
-702.851E-6	-2.45540E-12	54.5247E-3	-16.6110E-3	-2.49208E-12	62.2589E-3	782.096E-6
-707.854E-6	-2.45727E-12	52.8920E-3	-21.7576E-3	-2.52019E-12	59.0403E-3	-5.36365E-3
-712.856E-6	-2.50839E-12	66.1272E-3	-18.7213E-3	-2.47807E-12	70.4338E-3	-17.7406E-3
-717.859E-6	-2.53194E-12	72.6544E-3	-13.7964E-3	-2.54415E-12	74.5741E-3	-24.3091E-3
-722.861E-6	-2.50089E-12	71.4056E-3	-17.1736E-3	-2.59645E-12	64.9509E-3	-18.9588E-3
-727.864E-6	-2.57791E-12	69.6746E-3	-22.3171E-3	-2.63537E-12	52.0254E-3	-19.3354E-3
-732.866E-6	-2.60568E-12	59.4098E-3	-22.2560E-3	-2.67973E-12	44.2876E-3	-23.1665E-3
-737.869E-6	-2.68549E-12	52.7877E-3	-20.5150E-3	-2.67821E-12	53.4444E-3	-15.0921E-3
-742.871E-6	-2.66756E-12	60.4631E-3	-9.35413E-3	-2.70633E-12	74.7239E-3	-10.3774E-3
-747.874E-6	-2.66494E-12	58.6971E-3	-10.2519E-3	-2.75591E-12	87.7489E-3	-10.9962E-3
-752.876E-6	-2.75861E-12	50.7227E-3	-32.7391E-3	-2.74698E-12	77.6259E-3	-4.78967E-3
-757.879E-6	-2.81006E-12	46.7372E-3	-33.7161E-3	-2.74236E-12	67.3429E-3	-7.25092E-3
-762.881E-6	-2.75377E-12	40.0052E-3	-14.7167E-3	-2.82617E-12	79.2282E-3	-19.1303E-3
-767.884E-6	-2.73067E-12	41.2884E-3	-7.27386E-3	-2.83677E-12	93.5487E-3	-15.7665E-3
-772.886E-6	-2.86479E-12	52.9246E-3	-9.89016E-3	-2.84135E-12	90.4519E-3	-4.98485E-3
-777.889E-6	-2.82886E-12	58.3900E-3	-13.7034E-3	-2.85087E-12	68.9232E-3	-5.78233E-3
-782.891E-6	-2.76230E-12	49.6452E-3	-21.1007E-3	-2.89166E-12	47.2049E-3	-7.49983E-3
-787.894E-6	-2.84882E-12	33.8248E-3	-22.3792E-3	-2.90110E-12	45.4677E-3	-11.4328E-3
-792.896E-6	-2.88662E-12	31.9335E-3	-13.1464E-3	-2.87675E-12	61.9843E-3	-18.4460E-3
-797.899E-6	-2.82631E-12	49.1979E-3	-10.5776E-3	-2.93709E-12	75.1791E-3	-10.4608E-3
-802.901E-6	-2.85079E-12	56.6985E-3	-22.4613E-3	-2.88201E-12	66.2110E-3	-1.38601E-3
-807.904E-6	-2.82557E-12	50.3780E-3	-37.2803E-3	-2.92510E-12	50.9728E-3	-13.3237E-3
-812.906E-6	-2.88957E-12	58.5257E-3	-34.3645E-3	-2.90789E-12	47.5360E-3	-27.8785E-3
-817.909E-6	-2.93019E-12	78.2409E-3	-14.3918E-3	-3.03334E-12	48.3005E-3	-26.6615E-3
-822.911E-6	-2.92459E-12	78.4504E-3	-10.7249E-3	-3.03107E-12	53.2502E-3	-13.2705E-3
-827.914E-6	-2.97943E-12	56.8355E-3	-33.0034E-3	-2.92729E-12	62.9832E-3	1.42658E-3
-832.916E-6	-3.04866E-12	38.5360E-3	-42.3900E-3	-3.00218E-12	60.4523E-3	-2.67795E-3
-837.919E-6	-3.06906E-12	33.9978E-3	-21.7474E-3	-3.19125E-12	58.7167E-3	-19.5105E-3
-842.921E-6	-3.08564E-12	43.5378E-3	-4.26968E-3	-3.16751E-12	75.2629E-3	-26.0342E-3
-847.924E-6	-3.15607E-12	60.2255E-3	1.88749E-3	-3.11473E-12	85.1958E-3	-19.5602E-3
-852.926E-6	-3.22841E-12	71.6359E-3	-584.272E-6	-3.17254E-12	76.0553E-3	-5.68078E-3
-857.929E-6	-3.19569E-12	69.8506E-3	-21.5884E-3	-3.25216E-12	63.3728E-3	-2.88113E-3
-862.931E-6	-3.31113E-12	67.2372E-3	-28.9467E-3	-3.31929E-12	56.2370E-3	-24.4360E-3
-867.934E-6	-3.32814E-12	64.5369E-3	-9.24945E-3	-3.27327E-12	58.9490E-3	-43.9098E-3
-872.936E-6	-3.30431E-12	60.1113E-3	1.26183E-3	-3.24315E-12	59.7268E-3	-39.9897E-3
-877.939E-6	-3.32336E-12	74.7914E-3	-11.0435E-3	-3.32602E-12	62.5053E-3	-19.9084E-3
-882.941E-6	-3.33747E-12	94.3636E-3	-23.3792E-3	-3.37867E-12	65.8090E-3	-11.3890E-3
-887.944E-6	-3.34735E-12	90.1462E-3	-16.8645E-3	-3.37919E-12	48.7306E-3	-29.4953E-3
-892.946E-6	-3.42601E-12	79.8393E-3	-9.79684E-3	-3.35141E-12	51.6161E-3	-41.7841E-3
-897.949E-6	-3.33721E-12	82.7381E-3	-15.7802E-3	-3.38504E-12	81.6903E-3	-22.1262E-3
-902.951E-6	-3.40760E-12	82.2206E-3	-22.7754E-3	-3.49004E-12	90.2215E-3	-2.52985E-3
-907.954E-6	-3.52990E-12	78.2562E-3	-24.4519E-3	-3.49535E-12	77.6305E-3	-8.51384E-3
-912.956E-6	-3.48141E-12	78.0860E-3	-14.9468E-3	-3.51898E-12	71.6708E-3	-19.8484E-3
-917.959E-6	-3.41111E-12	74.8303E-3	2.42805E-3	-3.50764E-12	85.3366E-3	-22.9008E-3
-922.961E-6	-3.49766E-12	77.4876E-3	6.49440E-3	-3.56684E-12	105.625E-3	-17.8401E-3
-927.964E-6	-3.57393E-12	89.3318E-3	-3.58119E-3	-3.63085E-12	116.990E-3	-8.86611E-3
-932.966E-6	-3.65615E-12	90.2075E-3	-21.5168E-3	-3.74571E-12	127.902E-3	-4.80334E-3
-937.969E-6	-3.65759E-12	82.6425E-3	-40.6166E-3	-3.64715E-12	135.767E-3	-14.8808E-3
-942.971E-6	-3.65650E-12	82.2856E-3	-34.0799E-3	-3.65585E-12	131.009E-3	-23.8061E-3
-947.974E-6	-3.77976E-12	95.4267E-3	-16.1478E-3	-3.79463E-12	126.376E-3	-28.1360E-3
-952.976E-6	-3.83389E-12	118.799E-3	-10.8664E-3	-3.98290E-12	132.494E-3	-25.6319E-3
-957.979E-6	-3.86397E-12	131.774E-3	-12.0083E-3	-3.85044E-12	139.744E-3	-12.5511E-3
-962.981E-6	-3.92353E-12	125.640E-3	-20.3907E-3	-3.85668E-12	144.787E-3	-14.1431E-3
-967.984E-6	-3.98668E-12	118.794E-3	-29.6448E-3	-3.98346E-12	154.345E-3	-24.2425E-3
-972.986E-6	-4.00373E-12	124.495E-3	-29.7653E-3	-4.01371E-12	162.709E-3	-17.6461E-3
-977.989E-6	-4.07935E-12	131.986E-3	-32.2250E-3	-4.06452E-12	157.824E-3	-6.20485E-3
-982.991E-6	-4.09046E-12	136.320E-3	-33.1218E-3	-4.04454E-12	135.910E-3	-10.9682E-3
-987.994E-6	-4.15615E-12	139.690E-3	-18.6849E-3	-4.06479E-12	122.585E-3	-26.3208E-3
-992.997E-6	-4.10091E-12	131.693E-3	-11.9918E-3	-4.17618E-12	136.175E-3	-35.0914E-3
-997.999E-6	-4.21073E-12	131.422E-3	-28.1397E-3	-4.24389E-12	156.306E-3	-27.0198E-3
-1.00300E-3	-4.19697E-12	149.458E-3	-33.9482E-3	-4.20499E-12	167.456E-3	-12.8767E-3
-1.00800E-3	-4.27645E-12	156.014E-3	-22.4972E-3	-4.20632E-12	170.651E-3	-7.81553E-3
-1.01301E-3	-4.26585E-12	151.637E-3	-23.5601E-3	-4.29744E-12	174.253E-3	-13.8431E-3
-1.01801E-3	-4.32830E-12	156.077E-3	-22.2887E-3	-4.40433E-12	192.426E-3	-26.2428E-3
-1.02301E-3	-4.38023E-12	166.587E-3	-9.60372E-3	-4.43068E-12	216.938E-3	-34.9505E-3
-1.02801E-3	-4.48200E-12	172.861E-3	-11.7662E-3	-4.42328E-12	220.667E-3	-27.5167E-3
-1.03302E-3	-4.44361E-12	179.199E-3	-21.1984E-3	-4.53009E-12	210.895E-3	-10.0067E-3
-1.03802E-3	-4.56599E-12	186.673E-3	-17.7338E-3	-4.61653E-12	211.851E-3	-10.5743E-3
-1.04302E-3	-4.71429E-12	192.299E-3	-17.0086E-3	-4.71982E-12	227.294E-3	-23.5387E-3
-1.04802E-3	-4.75579E-12	205.507E-3	-26.9735E-3	-4.77832E-12	250.209E-3	-17.2468E-3
-1.05303E-3	-4.84825E-12	216.355E-3	-32.0360E-3	-4.82691E-12	268.708E-3	-4.57233E-3
-1.05803E-3	-4.93100E-12	213.379E-3	-27.7875E-3	-4.90758E-12	274.910E-3	-14.1232E-3
-1.06303E-3	-5.04919E-12	218.789E-3	-14.9424E-3	-5.10108E-12	272.415E-3	-37.4559E-3
-1.06803E-3	-5.19051E-12	232.121E-3	-2.74102E-3	-5.22145E-12	281.879E-3	-47.4862E-3
-1.07304E-3	-5.22221E-12	245.525E-3	-4.04495E-3	-5.24874E-12	309.388E-3	-36.6667E-3
-1.07804E-3	-5.31400E-12	276.440E-3	-9.58691E-3	-5.32357E-12	331.425E-3	-14.7721E-3
-1.08304E-3	-5.50065E-12	293.069E-3	-10.4392E-3	-5.48989E-12	336.096E-3	4.88289E-3
-1.08804E-3	-5.56288E-12	277.878E-3	-7.51910E-3	-5.71031E-12	337.339E-3	13.4596E-3
-1.09305E-3	-5.56090E-12	276.758E-3	-5.58897E-3	-5.68706E-12	350.570E-3	5.02992E-3
-1.09805E-3	-5.68736E-12	294.589E-3	-7.55315E-3	-5.73165E-12	364.724E-3	-14.5575E-3
-1.10305E-3	-5.91420E-12	306.761E-3	-7.67721E-3	-5.92397E-12	367.725E-3	-21.3872E-3
-1.10805E-3	-5.93139E-12	311.150E-3	-13.6695E-3	-6.04739E-12	368.432E-3	-16.5678E-3
-1.11306E-3	-6.00025E-12	315.259E-3	-23.3345E-3	-6.06775E-12	365.909E-3	-15.1991E-3
-1.11806E-3	-6.14681E-12	326.553E-3	-27.6481E-3	-6.17162E-12	369.642E-3	-24.3310E-3
-1.12306E-3	-6.34727E-12	347.843E-3	-25.5019E-3	-6.21573E-12	384.893E-3	-30.8245E-3
-1.12806E-3	-6.41514E-12	373.647E-3	-7.65043E-3	-6.38593E-12	403.420E-3	-22.6376E-3
-1.13307E-3	-6.40467E-12	378.738E-3	-267.892E-6	-6.48614E-12	426.801E-3	-20.8370E-3
-1.13807E-3	-6.64671E-12	376.241E-3	-19.1916E-3	-6.71713E-12	451.316E-3	-22.3960E-3
-1.14307E-3	-6.92107E-12	387.933E-3	-21.0694E-3	-6.80651E-12	475.868E-3	-13.0880E-3
-1.14807E-3	-6.97651E-12	397.012E-3	-5.08270E-3	-6.95086E-12	495.936E-3	-16.4594E-3
-1.15308E-3	-7.07425E-12	420.557E-3	-5.94972E-3	-7.14585E-12	512.812E-3	-25.5974E-3
-1.15808E-3	-7.32325E-12	459.657E-3	-15.7696E-3	-7.39255E-12	525.957E-3	-11.5972E-3
-1.16308E-3	-7.54667E-12	469.684E-3	-28.6819E-3	-7.56568E-12	531.316E-3	7.94955E-3
-1.16808E-3	-7.79866E-12	457.691E-3	-37.8095E-3	-7.72466E-12	547.880E-3	3.74939E-3
-1.17309E-3	-7.94177E-12	469.644E-3	-23.6578E-3	-7.95359E-12	574.073E-3	-12.1755E-3
-1.17809E-3	-8.12362E-12	502.431E-3	-10.9855E-3	-8.26006E-12	587.175E-3	-7.83935E-3
-1.18309E-3	-8.39568E-12	526.233E-3	-25.0564E-3	-8.42597E-12	594.621E-3	5.48032E-3
-1.18809E-3	-8.53942E-12	545.886E-3	-32.4577E-3	-8.54729E-12	606.951E-3	-1.97690E-3
-1.19310E-3	-8.67898E-12	564.277E-3	-23.1463E-3	-8.78932E-12	618.939E-3	-21.2851E-3
-1.19810E-3	-8.89258E-12	574.752E-3	-21.9437E-3	-8.98288E-12	629.274E-3	-28.4357E-3
-1.20310E-3	-9.11126E-12	596.663E-3	-26.5820E-3	-9.16424E-12	651.660E-3	-18.8257E-3
-1.20810E-3	-9.23865E-12	627.735E-3	-26.3459E-3	-9.30200E-12	682.094E-3	-12.3731E-3
-1.21311E-3	-9.42866E-12	640.965E-3	-17.2706E-3	-9.51165E-12	693.318E-3	-17.5539E-3
-1.21811E-3	-9.78546E-12	642.637E-3	-11.7298E-3	-9.69387E-12	697.435E-3	-15.6643E-3
-1.22311E-3	-9.87176E-12	641.327E-3	-18.9121E-3	-9.92553E-12	724.668E-3	-19.3520E-3
-1.22811E-3	-10.0042E-12	643.343E-3	-25.2991E-3	-10.1396E-12	752.249E-3	-37.5267E-3
-1.23312E-3	-10.1903E-12	669.964E-3	-26.3291E-3	-10.3044E-12	752.960E-3	-32.0473E-3
-1.23812E-3	-10.5559E-12	700.821E-3	-24.9938E-3	-10.5937E-12	756.851E-3	-12.8101E-3
-1.24312E-3	-10.7565E-12	715.150E-3	-21.2221E-3	-10.8506E-12	784.992E-3	-19.3384E-3
-1.24812E-3	-10.8988E-12	729.065E-3	-15.9353E-3	-11.1150E-12	818.279E-3	-28.2457E-3
-1.25313E-3	-11.1916E-12	747.822E-3	-6.25560E-3	-11.3123E-12	838.881E-3	-15.2089E-3
-1.25813E-3	-11.6452E-12	756.062E-3	-7.28696E-3	-11.6947E-12	846.990E-3	3.88818E-3
-1.26313E-3	-11.9672E-12	754.611E-3	-22.4297E-3	-12.0135E-12	858.066E-3	8.51816E-3
-1.26813E-3	-12.1778E-12	759.344E-3	-29.0768E-3	-12.2949E-12	868.808E-3	-4.57145E-3
-1.27314E-3	-12.6111E-12	784.430E-3	-26.7620E-3	-12.6070E-12	873.250E-3	-21.3574E-3
-1.27814E-3	-13.0031E-12	833.554E-3	-26.3261E-3	-12.8227E-12	893.846E-3	-34.2443E-3
-1.28314E-3	-13.2769E-12	872.787E-3	-27.8518E-3	-13.1107E-12	928.299E-3	-30.1180E-3
-1.28814E-3	-13.4439E-12	877.259E-3	-26.0580E-3	-13.3544E-12	934.685E-3	-14.2553E-3
-1.29315E-3	-13.7485E-12	870.842E-3	-17.7939E-3	-13.8521E-12	919.254E-3	-2.56403E-3
-1.29815E-3	-14.0098E-12	875.035E-3	-5.88777E-3	-14.0936E-12	932.269E-3	31.7905E-6
-1.30315E-3	-14.3284E-12	890.645E-3	687.282E-6	-14.2423E-12	978.701E-3	-10.6469E-3
-1.30815E-3	-14.4768E-12	921.752E-3	-2.40349E-3	-14.6234E-12	1.00976E+0	-13.5255E-3
-1.31316E-3	-14.8440E-12	946.413E-3	-5.98348E-3	-15.0023E-12	999.465E-3	-3.34872E-3
-1.31816E-3	-15.3950E-12	944.982E-3	-2.92735E-3	-15.1926E-12	980.362E-3	-8.69010E-3
-1.32316E-3	-15.5004E-12	948.271E-3	-6.79378E-3	-15.4513E-12	976.357E-3	-25.8532E-3
-1.32816E-3	-15.5495E-12	968.841E-3	-10.7821E-3	-15.8613E-12	991.761E-3	-29.6178E-3
-1.33317E-3	-16.1049E-12	985.027E-3	-8.42715E-3	-16.1637E-12	1.01932E+0	-18.8411E-3
-1.33817E-3	-16.4140E-12	993.740E-3	-21.3725E-3	-16.4564E-12	1.03268E+0	-2.54314E-3
-1.34317E-3	-16.3885E-12	1.01106E+0	-31.3551E-3	-16.7241E-12	1.03550E+0	1.85317E-3
-1.34817E-3	-16.7068E-12	1.02156E+0	-17.3112E-3	-17.0457E-12	1.05201E+0	-16.2067E-3
-1.35318E-3	-17.3214E-12	1.01397E+0	-7.66439E-3	-17.2859E-12	1.07890E+0	-23.7202E-3
-1.35818E-3	-17.6626E-12	1.02433E+0	-10.8699E-3	-17.7434E-12	1.10288E+0	-2.29083E-3
-1.36318E-3	-18.0388E-12	1.04366E+0	-9.86820E-3	-18.2263E-12	1.10830E+0	10.9303E-3
-1.36818E-3	-18.4638E-12	1.05376E+0	-12.1868E-3	-18.6200E-12	1.09760E+0	-104.588E-6
-1.37319E-3	-18.9361E-12	1.07301E+0	-13.6796E-3	-19.2006E-12	1.10301E+0	-9.42757E-3
-1.37819E-3	-19.3811E-12	1.08277E+0	-10.4700E-3	-19.5803E-12	1.12433E+0	-14.6206E-3
-1.38319E-3	-19.8101E-12	1.08053E+0	-19.4018E-3	-19.9515E-12	1.14859E+0	-21.0034E-3
-1.38819E-3	-20.1873E-12	1.08817E+0	-30.5921E-3	-20.4164E-12	1.16577E+0	-19.6354E-3
-1.39320E-3	-20.7423E-12	1.09239E+0	-28.1423E-3	-20.9438E-12	1.16746E+0	-21.4757E-3
-1.39820E-3	-21.0502E-12	1.09695E+0	-27.0228E-3	-21.2080E-12	1.16456E+0	-28.1361E-3
-1.40320E-3	-21.3843E-12	1.11871E+0	-28.7751E-3	-21.6505E-12	1.15781E+0	-29.0332E-3
-1.40820E-3	-21.6902E-12	1.13311E+0	-25.0483E-3	-21.8902E-12	1.15558E+0	-20.4634E-3
-1.41321E-3	-22.2221E-12	1.12525E+0	-32.3281E-3	-22.2719E-12	1.15388E+0	-14.9675E-3
-1.41821E-3	-22.3636E-12	1.12632E+0	-39.8823E-3	-22.4926E-12	1.15074E+0	-15.6339E-3
-1.42321E-3	-22.6145E-12	1.13618E+0	-23.2040E-3	-22.6955E-12	1.16496E+0	-9.86482E-3
-1.42821E-3	-22.8547E-12	1.14368E+0	-11.7781E-3	-23.2157E-12	1.18293E+0	-4.82488E-3
-1.43322E-3	-23.4790E-12	1.16295E+0	-26.0731E-3	-23.5016E-12	1.19304E+0	-5.51474E-3
-1.43822E-3	-23.6289E-12	1.17718E+0	-34.2839E-3	-23.6105E-12	1.18640E+0	-6.72751E-3
-1.44322E-3	-23.8796E-12	1.17345E+0	-32.4399E-3	-23.9590E-12	1.16382E+0	-17.3650E-3
-1.44822E-3	-24.4653E-12	1.17253E+0	-27.0650E-3	-24.4893E-12	1.15188E+0	-37.8846E-3
-1.45323E-3	-24.8554E-12	1.17521E+0	-9.82867E-3	-24.7678E-12	1.16187E+0	-36.5988E-3
-1.45823E-3	-25.1734E-12	1.17176E+0	-5.94965E-3	-25.2222E-12	1.17951E+0	-16.1942E-3
-1.46323E-3	-25.6687E-12	1.17850E+0	-31.7969E-3	-25.6922E-12	1.19030E+0	-7.51937E-3
-1.46823E-3	-26.3206E-12	1.18707E+0	-42.6352E-3	-26.2159E-12	1.19094E+0	-15.0240E-3
-1.47324E-3	-26.7468E-12	1.18204E+0	-22.9143E-3	-26.9062E-12	1.18383E+0	-29.4616E-3
-1.47824E-3	-27.0385E-12	1.18656E+0	-12.0652E-3	-27.3548E-12	1.19546E+0	-31.3605E-3
-1.48324E-3	-27.4925E-12	1.20239E+0	-8.72326E-3	-27.6867E-12	1.21827E+0	-15.6575E-3
-1.48824E-3	-28.0175E-12	1.20926E+0	-11.5634E-3	-28.1601E-12	1.21410E+0	-736.171E-6
-1.49325E-3	-28.4409E-12	1.21414E+0	-26.6205E-3	-28.6814E-12	1.19492E+0	-671.117E-6
-1.49825E-3	-28.6125E-12	1.21568E+0	-24.2730E-3	-28.9777E-12	1.18848E+0	-15.6246E-3
-1.50325E-3	-29.0385E-12	1.20092E+0	-8.58763E-3	-29.4112E-12	1.19370E+0	-29.8251E-3
-1.50825E-3	-29.4246E-12	1.19216E+0	-8.78782E-3	-29.6447E-12	1.19764E+0	-23.4855E-3
-1.51326E-3	-29.7306E-12	1.19801E+0	-6.25930E-3	-29.8137E-12	1.19088E+0	-5.82922E-3
-1.51826E-3	-30.0413E-12	1.18990E+0	6.60955E-3	-30.2465E-12	1.16622E+0	-6.95392E-3
-1.52326E-3	-30.5392E-12	1.17647E+0	-7.07834E-3	-30.5593E-12	1.14257E+0	-21.0179E-3
-1.52826E-3	-30.8423E-12	1.17138E+0	-25.6522E-3	-30.7160E-12	1.14112E+0	-34.4031E-3
-1.53327E-3	-31.0906E-12	1.16424E+0	-15.4449E-3	-31.0487E-12	1.14914E+0	-40.8448E-3
-1.53827E-3	-31.4947E-12	1.16549E+0	-8.53183E-3	-31.3148E-12	1.14026E+0	-21.5055E-3
-1.54327E-3	-31.8601E-12	1.17670E+0	-9.91400E-3	-31.5896E-12	1.12956E+0	-3.74724E-3
-1.54827E-3	-32.2788E-12	1.16618E+0	-7.15475E-3	-32.1715E-12	1.14265E+0	-13.1097E-3
-1.55328E-3	-32.8448E-12	1.13842E+0	-9.39857E-3	-32.5408E-12	1.15188E+0	-27.3033E-3
-1.55828E-3	-33.1047E-12	1.14109E+0	-18.2971E-3	-32.7435E-12	1.14481E+0	-29.3969E-3
-1.56328E-3	-33.5680E-12	1.16238E+0	-29.1904E-3	-33.5525E-12	1.14149E+0	-21.4301E-3
-1.56828E-3	-34.0895E-12	1.16711E+0	-35.7749E-3	-34.1279E-12	1.15055E+0	-13.2016E-3
-1.57329E-3	-34.5944E-12	1.15717E+0	-24.0574E-3	-34.2749E-12	1.15241E+0	-5.47326E-3
-1.57829E-3	-34.7734E-12	1.14291E+0	-2.01345E-3	-34.8675E-12	1.13545E+0	-14.8132E-3
-1.58329E-3	-35.1559E-12	1.13406E+0	-2.78506E-3	-35.5884E-12	1.12403E+0	-28.4636E-3
-1.58829E-3	-35.5433E-12	1.13387E+0	-17.1048E-3	-35.9374E-12	1.13301E+0	-16.5914E-3
-1.59330E-3	-35.8842E-12	1.12916E+0	-18.3675E-3	-36.1079E-12	1.14503E+0	-4.03167E-3
-1.59830E-3	-36.4014E-12	1.12176E+0	-13.7699E-3	-36.4726E-12	1.13110E+0	-14.6955E-3
-1.60330E-3	-36.7494E-12	1.12598E+0	-8.80610E-3	-36.9424E-12	1.10665E+0	-30.8632E-3
-1.60830E-3	-37.0644E-12	1.12438E+0	-3.01913E-3	-37.2308E-12	1.10122E+0	-27.4274E-3
-1.61331E-3	-37.3571E-12	1.10772E+0	-6.18545E-3	-37.6518E-12	1.09711E+0	-14.1389E-3
-1.61831E-3	-37.7384E-12	1.09923E+0	-12.7803E-3	-37.8566E-12	1.08567E+0	-10.7857E-3
-1.62331E-3	-38.0265E-12	1.10295E+0	-13.9556E-3	-38.2221E-12	1.07799E+0	-16.6917E-3
-1.62831E-3	-38.4905E-12	1.09536E+0	-14.7247E-3	-38.5634E-12	1.07128E+0	-33.6604E-3
-1.63332E-3	-38.7603E-12	1.09057E+0	-4.28345E-3	-38.8472E-12	1.06680E+0	-45.6912E-3
-1.63832E-3	-39.1953E-12	1.09791E+0	8.88069E-3	-39.1115E-12	1.06721E+0	-26.6508E-3
-1.64332E-3	-39.7691E-12	1.09003E+0	1.35039E-3	-39.6701E-12	1.05709E+0	-11.5917E-3
-1.64832E-3	-39.8510E-12	1.07961E+0	-16.7630E-3	-39.9512E-12	1.04162E+0	-29.3328E-3
-1.65333E-3	-39.8412E-12	1.08217E+0	-15.3366E-3	-39.7939E-12	1.05774E+0	-47.9874E-3
-1.65833E-3	-40.5055E-12	1.07338E+0	-1.93631E-3	-40.4661E-12	1.08945E+0	-41.7264E-3
-1.66333E-3	-40.9371E-12	1.05573E+0	-11.0680E-3	-41.0274E-12	1.08924E+0	-17.6731E-3
-1.66833E-3	-41.0765E-12	1.04458E+0	-22.4026E-3	-41.0753E-12	1.06280E+0	-10.3451E-3
-1.67334E-3	-41.3837E-12	1.02566E+0	-25.9580E-3	-41.3545E-12	1.03282E+0	-31.9875E-3
-1.67834E-3	-41.8312E-12	1.01563E+0	-30.3367E-3	-42.1747E-12	1.01553E+0	-39.4229E-3
-1.68334E-3	-42.3744E-12	1.02415E+0	-13.4944E-3	-42.5713E-12	1.01928E+0	-26.6113E-3
-1.68834E-3	-42.8426E-12	1.02379E+0	3.65720E-3	-42.7215E-12	1.02729E+0	-14.8738E-3
-1.69335E-3	-43.2156E-12	1.02210E+0	-6.08114E-3	-43.2262E-12	1.02528E+0	5.79605E-3
-1.69835E-3	-43.3624E-12	1.02760E+0	-16.8839E-3	-43.7397E-12	1.01690E+0	19.4095E-3
-1.70335E-3	-44.0814E-12	1.02185E+0	-16.4269E-3	-44.2700E-12	1.00904E+0	-865.714E-6
-1.70835E-3	-44.6914E-12	1.01709E+0	-22.7989E-3	-44.6593E-12	1.01185E+0	-31.5426E-3
-1.71336E-3	-44.7419E-12	1.03369E+0	-29.2510E-3	-44.8759E-12	1.02196E+0	-36.7320E-3
-1.71836E-3	-45.2062E-12	1.04286E+0	-26.3932E-3	-45.0783E-12	1.01791E+0	-30.5689E-3
-1.72336E-3	-45.8853E-12	1.03519E+0	-32.3517E-3	-45.7789E-12	998.761E-3	-31.8909E-3
-1.72836E-3	-45.6888E-12	1.03019E+0	-30.9399E-3	-45.9487E-12	984.138E-3	-24.6077E-3
-1.73337E-3	-46.0675E-12	1.02273E+0	-14.7650E-3	-45.8836E-12	986.568E-3	-21.5847E-3
-1.73837E-3	-46.4135E-12	1.01055E+0	-20.8729E-3	-46.1750E-12	992.197E-3	-28.8126E-3
-1.74337E-3	-46.3769E-12	1.01169E+0	-37.0454E-3	-46.6372E-12	981.247E-3	-32.0622E-3
-1.74837E-3	-46.5853E-12	1.01532E+0	-30.4265E-3	-46.5520E-12	964.606E-3	-37.4221E-3
-1.75338E-3	-46.9106E-12	1.00396E+0	-15.4650E-3	-46.8242E-12	955.496E-3	-52.8320E-3
-1.75838E-3	-46.9956E-12	992.170E-3	-11.0865E-3	-47.2712E-12	956.015E-3	-67.0649E-3
-1.76338E-3	-47.3173E-12	979.659E-3	-9.67710E-3	-47.5653E-12	963.815E-3	-50.1712E-3
-1.76838E-3	-47.9224E-12	958.399E-3	-21.8745E-3	-47.6416E-12	966.705E-3	-19.7744E-3
-1.77339E-3	-47.8895E-12	953.373E-3	-39.3848E-3	-48.0412E-12	957.541E-3	-17.1894E-3
-1.77839E-3	-48.1979E-12	961.977E-3	-29.3348E-3	-48.5386E-12	945.397E-3	-28.5905E-3
-1.78339E-3	-48.8898E-12	948.009E-3	-15.3283E-3	-48.8608E-12	946.042E-3	-25.4186E-3
-1.78839E-3	-49.3349E-12	935.046E-3	-14.1235E-3	-49.3957E-12	954.254E-3	-24.4862E-3
-1.79340E-3	-49.5017E-12	943.787E-3	-10.8237E-3	-49.7628E-12	951.249E-3	-25.5174E-3
-1.79840E-3	-50.1656E-12	945.251E-3	-22.0643E-3	-50.1460E-12	937.459E-3	-11.6263E-3
-1.80340E-3	-50.7083E-12	932.588E-3	-36.7131E-3	-50.5711E-12	940.248E-3	-10.6161E-3
-1.80840E-3	-50.9139E-12	929.841E-3	-25.6547E-3	-51.0251E-12	954.700E-3	-23.7589E-3
-1.81341E-3	-51.1941E-12	945.637E-3	-18.6978E-3	-51.2793E-12	948.564E-3	-20.1276E-3
-1.81841E-3	-51.4890E-12	975.145E-3	-35.3546E-3	-51.7247E-12	923.469E-3	-2.34307E-3
-1.82341E-3	-51.5469E-12	986.644E-3	-34.7902E-3	-51.7228E-12	896.258E-3	7.01437E-3
-1.82841E-3	-51.3947E-12	957.915E-3	-21.2665E-3	-51.7383E-12	884.568E-3	-11.6209E-3
-1.83342E-3	-52.0763E-12	929.641E-3	-23.1851E-3	-52.1797E-12	896.132E-3	-27.5227E-3
-1.83842E-3	-52.1951E-12	913.852E-3	-9.83182E-3	-52.5957E-12	915.876E-3	-19.4132E-3
-1.84342E-3	-52.1865E-12	894.542E-3	2.43966E-3	-52.4435E-12	916.879E-3	-11.8074E-3
-1.84842E-3	-52.2890E-12	901.668E-3	-19.2540E-3	-52.3098E-12	896.449E-3	-5.65562E-3
-1.85343E-3	-52.8018E-12	922.847E-3	-25.7074E-3	-52.8425E-12	891.557E-3	-1.38600E-3
-1.85843E-3	-52.7916E-12	908.664E-3	-10.7797E-3	-53.1390E-12	904.790E-3	-3.55908E-3
-1.86343E-3	-53.1616E-12	901.858E-3	-7.32145E-3	-53.1751E-12	910.371E-3	-9.76856E-3
-1.86843E-3	-53.7312E-12	916.979E-3	-2.90393E-3	-53.4668E-12	904.007E-3	-8.23301E-3
-1.87344E-3	-53.9262E-12	905.004E-3	-1.41597E-3	-54.0901E-12	879.024E-3	-8.52986E-3
-1.87844E-3	-54.6513E-12	899.342E-3	-11.3649E-3	-54.2488E-12	857.900E-3	-24.5617E-3
-1.88344E-3	-55.1913E-12	914.973E-3	-13.5734E-3	-54.6787E-12	871.456E-3	-34.0864E-3
-1.88844E-3	-55.6985E-12	901.544E-3	-5.02623E-3	-55.2873E-12	901.756E-3	-28.9260E-3
-1.89345E-3	-56.2196E-12	881.922E-3	-10.0082E-3	-55.8314E-12	906.190E-3	-11.5946E-3
-1.89845E-3	-56.7620E-12	893.313E-3	-18.6421E-3	-56.4141E-12	885.571E-3	-146.458E-6
-1.90345E-3	-56.8338E-12	902.702E-3	-8.26482E-3	-57.0116E-12	881.894E-3	-17.7138E-3
-1.90845E-3	-57.4730E-12	896.317E-3	-12.4539E-3	-57.0105E-12	896.561E-3	-32.9534E-3
-1.91346E-3	-57.8406E-12	902.493E-3	-25.6071E-3	-57.2473E-12	891.454E-3	-20.7573E-3
-1.91846E-3	-57.7956E-12	908.564E-3	-19.4945E-3	-57.8937E-12	864.904E-3	-11.5328E-3
-1.92346E-3	-58.0639E-12	899.103E-3	-24.7039E-3	-58.1477E-12	844.152E-3	-18.6251E-3
-1.92846E-3	-58.3324E-12	901.237E-3	-35.8939E-3	-58.2269E-12	848.288E-3	-25.4946E-3
-1.93347E-3	-58.1802E-12	893.676E-3	-19.6291E-3	-58.6696E-12	870.362E-3	-23.4368E-3
-1.93847E-3	-58.5745E-12	868.563E-3	-12.2032E-3	-58.7922E-12	882.331E-3	-20.3463E-3
-1.94347E-3	-58.8984E-12	868.816E-3	-19.1220E-3	-58.6713E-12	874.390E-3	-14.4980E-3
-1.94847E-3	-59.0672E-12	877.730E-3	-371.190E-6	-58.6966E-12	862.881E-3	-6.32277E-3
-1.95348E-3	-59.3170E-12	861.738E-3	10.8849E-3	-59.0038E-12	847.435E-3	-15.9268E-3
-1.95848E-3	-59.6813E-12	850.362E-3	-2.34155E-3	-58.9979E-12	828.564E-3	-30.7875E-3
-1.96348E-3	-60.0837E-12	857.022E-3	-10.8884E-3	-59.1749E-12	832.250E-3	-26.4149E-3
-1.96848E-3	-60.4324E-12	860.864E-3	-14.7323E-3	-59.5026E-12	847.424E-3	-15.0288E-3
-1.97349E-3	-60.8318E-12	872.910E-3	-23.6405E-3	-59.8148E-12	842.249E-3	-5.25301E-3
-1.97849E-3	-61.5658E-12	866.971E-3	-21.9823E-3	-60.0378E-12	833.813E-3	1.83752E-3
-1.98349E-3	-61.6520E-12	839.694E-3	-12.3972E-3	-60.6876E-12	837.467E-3	-15.5111E-3
-1.98849E-3	-62.0407E-12	847.273E-3	-18.7758E-3	-61.3226E-12	843.026E-3	-37.7236E-3
-1.99350E-3	-62.3581E-12	864.914E-3	-29.6835E-3	-62.1207E-12	857.189E-3	-30.3675E-3
-1.99850E-3	-62.5197E-12	853.694E-3	-30.9234E-3	-61.9736E-12	872.724E-3	-24.9030E-3
-2.00350E-3	-62.5336E-12	845.551E-3	-26.9665E-3	-62.5651E-12	865.026E-3	-36.3093E-3
-2.00850E-3	-62.8851E-12	852.846E-3	-20.7124E-3	-63.1834E-12	849.229E-3	-40.4490E-3
-2.01351E-3	-62.8583E-12	854.276E-3	-17.5079E-3	-63.5368E-12	850.996E-3	-26.8323E-3
-2.01851E-3	-62.7811E-12	846.073E-3	-24.7648E-3	-63.8172E-12	851.687E-3	2.13124E-3
-2.02351E-3	-63.0897E-12	834.758E-3	-26.8586E-3	-63.9455E-12	828.107E-3	14.5558E-3
-2.02851E-3	-63.4256E-12	827.686E-3	-17.6976E-3	-64.1691E-12	807.894E-3	-71.6385E-6
-2.03352E-3	-63.4654E-12	830.845E-3	-16.8875E-3	-64.6338E-12	815.246E-3	-15.8445E-3
-2.03852E-3	-63.8287E-12	831.779E-3	-16.4531E-3	-64.5401E-12	832.767E-3	-28.0261E-3
-2.04352E-3	-63.8473E-12	823.435E-3	-13.5395E-3	-64.3710E-12	835.842E-3	-34.7746E-3
-2.04852E-3	-64.2689E-12	821.224E-3	-21.3004E-3	-65.0342E-12	817.268E-3	-29.3073E-3
-2.05353E-3	-64.5093E-12	819.441E-3	-22.3401E-3	-64.9800E-12	802.135E-3	-24.6103E-3
-2.05853E-3	-65.1250E-12	804.638E-3	-19.8891E-3	-65.2311E-12	813.418E-3	-30.5769E-3
-2.06353E-3	-65.4671E-12	790.427E-3	-30.7125E-3	-65.3580E-12	828.116E-3	-42.1027E-3
-2.06853E-3	-65.9988E-12	795.760E-3	-26.9214E-3	-65.7236E-12	827.197E-3	-40.0104E-3
-2.07354E-3	-66.2227E-12	805.236E-3	-21.1095E-3	-65.8467E-12	828.540E-3	-23.7334E-3
-2.07854E-3	-66.6738E-12	812.252E-3	-42.9565E-3	-66.3616E-12	833.009E-3	-26.8698E-3
-2.08354E-3	-66.8566E-12	824.227E-3	-52.0658E-3	-66.4770E-12	829.235E-3	-39.9242E-3
-2.08854E-3	-66.8822E-12	821.672E-3	-36.8066E-3	-66.8344E-12	824.270E-3	-34.8897E-3
-2.09355E-3	-67.0024E-12	810.863E-3	-36.7821E-3	-67.1087E-12	814.117E-3	-13.2369E-3
-2.09855E-3	-66.9371E-12	808.585E-3	-40.8980E-3	-67.5043E-12	797.509E-3	8.29503E-3
-2.10355E-3	-66.8596E-12	800.127E-3	-32.9843E-3	-67.9081E-12	797.308E-3	14.4650E-3
-2.10855E-3	-67.0594E-12	790.055E-3	-28.7459E-3	-68.0867E-12	799.294E-3	3.93340E-3
-2.11356E-3	-66.9559E-12	794.344E-3	-18.8026E-3	-68.2347E-12	792.806E-3	-17.6565E-3
-2.11856E-3	-67.1619E-12	796.708E-3	205.218E-6	-68.6083E-12	812.904E-3	-14.1681E-3
-2.12356E-3	-67.5179E-12	788.781E-3	-2.77824E-3	-69.2457E-12	828.540E-3	7.00380E-3
-2.12856E-3	-67.9539E-12	792.412E-3	-27.9807E-3	-69.4733E-12	806.180E-3	-3.55152E-3
-2.13357E-3	-68.2064E-12	795.834E-3	-31.0700E-3	-69.5561E-12	791.899E-3	-31.1717E-3
-2.13857E-3	-68.6294E-12	782.625E-3	-12.4490E-3	-69.8142E-12	790.530E-3	-43.2736E-3
-2.14357E-3	-68.9124E-12	785.755E-3	-9.77899E-3	-70.1006E-12	784.662E-3	-35.3028E-3
-2.14857E-3	-68.5755E-12	791.942E-3	-18.9677E-3	-70.3822E-12	782.655E-3	-23.1513E-3
-2.15358E-3	-69.5446E-12	775.316E-3	-24.1975E-3	-70.1200E-12	776.263E-3	-24.8341E-3
-2.15858E-3	-70.5143E-12	762.679E-3	-22.3394E-3	-70.6034E-12	774.676E-3	-34.5304E-3
-2.16358E-3	-70.8412E-12	764.141E-3	-5.29497E-3	-71.3468E-12	790.567E-3	-32.8144E-3
-2.16858E-3	-70.9585E-12	778.915E-3	-7.67084E-3	-71.3982E-12	789.451E-3	-20.3873E-3
-2.17359E-3	-71.8870E-12	807.370E-3	-32.1642E-3	-71.4084E-12	772.312E-3	-12.1286E-3
-2.17859E-3	-72.0130E-12	815.726E-3	-30.2617E-3	-71.5512E-12	768.085E-3	-11.0679E-3
-2.18359E-3	-71.9992E-12	794.630E-3	-16.9915E-3	-71.8579E-12	770.296E-3	-16.1289E-3
-2.18859E-3	-72.3101E-12	784.035E-3	-15.0988E-3	-71.9759E-12	770.473E-3	-23.8841E-3
-2.19360E-3	-72.6953E-12	790.075E-3	-7.51396E-3	-72.2338E-12	779.833E-3	-31.4471E-3
-2.19860E-3	-72.4404E-12	783.344E-3	3.24525E-3	-72.1420E-12	784.151E-3	-26.9319E-3
-2.20360E-3	-72.8414E-12	778.486E-3	-3.63337E-3	-72.3342E-12	766.961E-3	-11.8169E-3
-2.20860E-3	-73.6702E-12	789.113E-3	-20.5154E-3	-73.2120E-12	763.104E-3	-6.90670E-3
-2.21361E-3	-73.8093E-12	785.275E-3	-29.8256E-3	-73.2998E-12	772.579E-3	-15.1672E-3
-2.21861E-3	-73.7782E-12	770.560E-3	-21.2582E-3	-73.4602E-12	781.014E-3	-9.71810E-3
-2.22361E-3	-74.3753E-12	770.251E-3	311.436E-6	-73.7566E-12	786.889E-3	12.9100E-3
-2.22861E-3	-74.8697E-12	773.990E-3	4.54509E-3	-74.1322E-12	776.905E-3	17.9843E-3
-2.23362E-3	-75.4172E-12	780.579E-3	-15.3056E-3	-74.6578E-12	762.851E-3	-830.000E-6
-2.23862E-3	-75.0807E-12	790.178E-3	-20.5709E-3	-75.0613E-12	760.065E-3	-16.7570E-3
-2.24362E-3	-75.4328E-12	776.432E-3	-8.23072E-3	-75.0874E-12	773.694E-3	-24.8844E-3
-2.24862E-3	-75.9393E-12	750.993E-3	-25.6394E-3	-75.4716E-12	777.748E-3	-28.3422E-3
-2.25363E-3	-76.4241E-12	755.008E-3	-46.0788E-3	-75.4661E-12	753.817E-3	-25.0226E-3
-2.25863E-3	-76.0596E-12	763.291E-3	-27.2387E-3	-75.7992E-12	735.778E-3	-27.3557E-3
-2.26363E-3	-76.2901E-12	750.652E-3	-6.87190E-3	-76.0765E-12	742.588E-3	-26.3086E-3
-2.26863E-3	-76.5017E-12	754.192E-3	-6.83921E-3	-75.6347E-12	759.481E-3	-18.5165E-3
-2.27364E-3	-76.7086E-12	758.026E-3	-19.9262E-3	-76.0255E-12	767.957E-3	-19.2838E-3
-2.27864E-3	-77.2358E-12	750.615E-3	-33.3386E-3	-76.6178E-12	759.822E-3	-21.9885E-3
-2.28364E-3	-77.4330E-12	763.185E-3	-27.0081E-3	-76.4350E-12	744.561E-3	-16.5409E-3
-2.28864E-3	-77.4252E-12	763.675E-3	-5.46945E-3	-76.6144E-12	747.062E-3	-11.7657E-3
-2.29365E-3	-78.3794E-12	738.448E-3	6.13477E-3	-77.3570E-12	760.398E-3	-17.5922E-3
-2.29865E-3	-79.3672E-12	729.545E-3	8.17591E-3	-77.7034E-12	764.164E-3	-16.0240E-3
-2.30365E-3	-79.2943E-12	746.152E-3	10.8308E-3	-77.6627E-12	749.991E-3	-11.0256E-3
-2.30865E-3	-79.7409E-12	755.420E-3	797.284E-6	-78.1786E-12	726.345E-3	-22.8207E-3
-2.31366E-3	-80.5856E-12	760.145E-3	-15.0639E-3	-78.5259E-12	724.918E-3	-28.5307E-3
-2.31866E-3	-80.3084E-12	778.642E-3	-11.0074E-3	-78.8976E-12	751.303E-3	-20.6216E-3
-2.32366E-3	-80.7005E-12	776.553E-3	-17.6520E-3	-79.2611E-12	767.169E-3	-19.4478E-3
-2.32866E-3	-80.8316E-12	756.098E-3	-48.5994E-3	-79.9368E-12	749.803E-3	-24.3412E-3
-2.33367E-3	-80.8669E-12	752.155E-3	-48.5702E-3	-80.1137E-12	735.539E-3	-30.2634E-3
-2.33867E-3	-81.1173E-12	747.543E-3	-29.9320E-3	-80.1238E-12	741.740E-3	-40.9648E-3
-2.34367E-3	-81.0074E-12	740.256E-3	-29.4140E-3	-80.6245E-12	743.944E-3	-52.2883E-3
-2.34867E-3	-80.3634E-12	738.878E-3	-24.6325E-3	-80.7559E-12	745.814E-3	-52.4105E-3
-2.35368E-3	-79.8779E-12	733.126E-3	-27.6364E-3	-80.5993E-12	748.791E-3	-53.8573E-3
-2.35868E-3	-79.6844E-12	744.908E-3	-55.0454E-3	-81.1337E-12	734.952E-3	-50.1699E-3
-2.36368E-3	-79.6362E-12	770.208E-3	-51.1571E-3	-81.2310E-12	722.524E-3	-30.0136E-3
-2.36868E-3	-79.5935E-12	774.770E-3	-13.8038E-3	-81.0740E-12	733.721E-3	-20.7614E-3
-2.37369E-3	-79.6144E-12	753.995E-3	3.38006E-3	-81.5352E-12	747.656E-3	-17.8582E-3
-2.37869E-3	-79.9262E-12	725.013E-3	1.91436E-3	-82.0783E-12	746.759E-3	-7.37491E-3
-2.38369E-3	-80.7855E-12	703.314E-3	-13.2976E-3	-81.6317E-12	740.213E-3	-7.94449E-3
-2.38869E-3	-81.3049E-12	702.373E-3	-36.6744E-3	-81.9468E-12	740.875E-3	-12.2666E-3
-2.39370E-3	-81.6385E-12	726.595E-3	-37.9962E-3	-82.8960E-12	755.132E-3	-6.88497E-3
-2.39870E-3	-82.2295E-12	743.448E-3	-27.3120E-3	-83.0277E-12	763.091E-3	-7.12272E-3
-2.40370E-3	-82.6847E-12	734.176E-3	-33.3468E-3	-83.0804E-12	742.921E-3	-17.6888E-3
-2.40870E-3	-83.6089E-12	731.881E-3	-37.0776E-3	-83.4646E-12	725.797E-3	-30.8431E-3
-2.41371E-3	-84.1519E-12	735.990E-3	-23.7627E-3	-83.9338E-12	731.399E-3	-35.5579E-3
-2.41871E-3	-84.3160E-12	727.582E-3	-15.8810E-3	-84.3041E-12	738.771E-3	-26.7944E-3
-2.42371E-3	-84.3207E-12	739.598E-3	-13.7367E-3	-84.1768E-12	731.342E-3	-10.9566E-3
-2.42871E-3	-85.1746E-12	750.516E-3	1.40782E-3	-84.7024E-12	709.761E-3	-1.45599E-3
-2.43372E-3	-84.6060E-12	733.532E-3	6.72883E-3	-84.7691E-12	699.937E-3	-9.44241E-3
-2.43872E-3	-84.2319E-12	729.851E-3	-15.3122E-3	-84.7844E-12	701.617E-3	-24.0519E-3
-2.44372E-3	-84.1667E-12	740.092E-3	-31.8127E-3	-85.0530E-12	704.772E-3	-23.5159E-3
-2.44872E-3	-84.0703E-12	748.863E-3	-33.3368E-3	-84.7225E-12	719.994E-3	-14.3600E-3
-2.45373E-3	-83.5592E-12	756.802E-3	-27.6161E-3	-85.0258E-12	733.490E-3	-13.5197E-3
-2.45873E-3	-83.5689E-12	747.619E-3	-13.2335E-3	-85.6329E-12	730.714E-3	-17.6092E-3
-2.46373E-3	-83.8403E-12	726.062E-3	-7.61429E-3	-85.6032E-12	725.817E-3	-13.9818E-3
-2.46873E-3	-84.0984E-12	729.045E-3	-5.89625E-3	-85.8313E-12	727.807E-3	-3.70326E-3
-2.47374E-3	-84.6298E-12	746.019E-3	2.86627E-3	-86.3203E-12	727.892E-3	-10.2143E-3
-2.47874E-3	-85.2292E-12	735.012E-3	-10.2385E-3	-86.2354E-12	715.195E-3	-22.7952E-3
-2.48374E-3	-85.9565E-12	705.049E-3	-27.0104E-3	-86.4933E-12	712.875E-3	-20.7999E-3
-2.48874E-3	-86.4190E-12	692.570E-3	-8.61693E-3	-86.4411E-12	729.666E-3	-14.8357E-3
-2.49375E-3	-87.2642E-12	700.750E-3	-2.75431E-3	-86.8188E-12	734.333E-3	-17.1795E-3
-2.49875E-3	-88.2644E-12	722.337E-3	-23.5149E-3	-86.9893E-12	733.258E-3	-25.2770E-3
-2.50375E-3	-87.9000E-12	736.665E-3	-23.8200E-3	-87.2164E-12	744.879E-3	-15.2442E-3
-2.50875E-3	-87.9518E-12	714.366E-3	-15.1325E-3	-87.4886E-12	743.762E-3	-8.63906E-3
-2.51376E-3	-88.9138E-12	698.200E-3	-7.01589E-3	-87.6483E-12	719.758E-3	-29.7907E-3
-2.51876E-3	-88.9549E-12	708.172E-3	4.43093E-3	-87.8862E-12	709.374E-3	-34.2567E-3
-2.52376E-3	-88.8305E-12	712.835E-3	-10.7947E-3	-88.2548E-12	721.438E-3	-14.0070E-3
-2.52876E-3	-89.3643E-12	729.693E-3	-40.0137E-3	-88.0288E-12	723.371E-3	-488.290E-6
-2.53377E-3	-89.2198E-12	748.898E-3	-40.6366E-3	-88.5408E-12	707.795E-3	5.19761E-3
-2.53877E-3	-88.9002E-12	740.558E-3	-29.3930E-3	-89.2245E-12	710.877E-3	2.98605E-3
-2.54377E-3	-89.2698E-12	726.240E-3	-29.1479E-3	-89.2712E-12	735.885E-3	-10.8073E-3
-2.54877E-3	-89.7372E-12	723.441E-3	-21.0280E-3	-89.9011E-12	747.196E-3	-11.0181E-3
-2.55378E-3	-89.6642E-12	711.029E-3	-21.1823E-3	-90.6722E-12	736.311E-3	2.88815E-3
-2.55878E-3	-90.4298E-12	700.187E-3	-42.5090E-3	-90.7594E-12	715.758E-3	4.41073E-3
-2.56378E-3	-91.3615E-12	716.341E-3	-42.8681E-3	-91.4145E-12	712.736E-3	-10.1601E-3
-2.56878E-3	-91.2641E-12	724.035E-3	-22.2457E-3	-91.6516E-12	734.917E-3	-32.0269E-3
-2.57379E-3	-92.0519E-12	721.801E-3	-9.02175E-3	-91.4270E-12	749.049E-3	-38.8269E-3
-2.57879E-3	-92.5111E-12	729.303E-3	-245.195E-6	-91.9947E-12	741.841E-3	-26.6599E-3
-2.58379E-3	-93.1205E-12	714.754E-3	4.55940E-3	-92.4153E-12	727.031E-3	-13.1887E-3
-2.58879E-3	-93.5449E-12	691.261E-3	-5.68442E-3	-92.0653E-12	719.386E-3	-7.44443E-3
-2.59380E-3	-94.1431E-12	691.056E-3	-8.03696E-3	-92.2878E-12	725.107E-3	-15.8859E-3
-2.59880E-3	-93.2457E-12	695.409E-3	10.3156E-3	-92.7940E-12	732.669E-3	-19.0530E-3
-2.60380E-3	-93.6985E-12	704.980E-3	16.4687E-3	-92.4417E-12	728.464E-3	-6.46689E-3
-2.60880E-3	-94.2421E-12	714.798E-3	9.02369E-3	-93.0680E-12	714.517E-3	2.13240E-3
-2.61381E-3	-93.7767E-12	702.994E-3	12.8639E-3	-93.3149E-12	704.980E-3	-1.95999E-3
-2.61881E-3	-93.7501E-12	699.344E-3	1.96014E-3	-93.3962E-12	702.099E-3	-13.8260E-3
-2.62381E-3	-94.0068E-12	724.199E-3	-27.4906E-3	-94.2279E-12	710.205E-3	-18.0648E-3
-2.62881E-3	-93.8542E-12	738.248E-3	-29.0827E-3	-94.6691E-12	719.746E-3	-730.504E-6
-2.63382E-3	-94.4259E-12	722.142E-3	-24.4451E-3	-94.5920E-12	714.518E-3	13.3260E-3
-2.63882E-3	-95.4834E-12	707.007E-3	-34.6261E-3	-94.6992E-12	705.171E-3	-1.07642E-3
-2.64382E-3	-95.2107E-12	700.853E-3	-27.3785E-3	-95.1423E-12	709.589E-3	-20.6580E-3
-2.64882E-3	-95.9046E-12	700.275E-3	-15.8836E-3	-95.4363E-12	716.760E-3	-15.1968E-3
-2.65383E-3	-96.4722E-12	714.974E-3	-17.5277E-3	-96.1437E-12	709.340E-3	-1.71492E-3
-2.65883E-3	-96.6552E-12	715.465E-3	-15.7430E-3	-95.9456E-12	706.539E-3	-9.35203E-3
-2.66383E-3	-97.2949E-12	690.658E-3	-15.2061E-3	-95.7328E-12	703.727E-3	-16.9879E-3
-2.66883E-3	-97.8428E-12	687.537E-3	-20.2202E-3	-96.1771E-12	699.095E-3	-17.2418E-3
-2.67384E-3	-97.2824E-12	704.766E-3	-23.9487E-3	-96.4689E-12	705.685E-3	-29.2649E-3
-2.67884E-3	-97.1036E-12	709.738E-3	-24.6311E-3	-95.8065E-12	697.908E-3	-27.4344E-3
-2.68384E-3	-97.2937E-12	712.897E-3	-22.6719E-3	-95.5949E-12	684.223E-3	-8.23893E-3
-2.68884E-3	-96.8305E-12	713.092E-3	-15.3740E-3	-96.0194E-12	685.811E-3	-730.303E-6
-2.69385E-3	-97.0380E-12	705.450E-3	-11.8192E-3	-96.1900E-12	691.708E-3	-8.75712E-3
-2.69885E-3	-96.9677E-12	712.277E-3	-21.6733E-3	-95.8748E-12	703.916E-3	-26.4830E-3
-2.70385E-3	-96.7214E-12	715.149E-3	-22.6781E-3	-96.2940E-12	716.456E-3	-31.2247E-3
-2.70885E-3	-96.6679E-12	695.702E-3	-19.9188E-3	-97.0330E-12	702.888E-3	-17.5076E-3
-2.71386E-3	-97.3472E-12	682.508E-3	-27.5044E-3	-97.5956E-12	678.690E-3	-11.6953E-3
-2.71886E-3	-97.1730E-12	691.715E-3	-26.4551E-3	-97.9892E-12	681.532E-3	-16.8697E-3
-2.72386E-3	-97.1731E-12	699.511E-3	-17.6605E-3	-98.3874E-12	712.918E-3	-18.5484E-3
-2.72886E-3	-97.8840E-12	695.558E-3	-23.2939E-3	-98.5085E-12	738.640E-3	-11.4169E-3
-2.73387E-3	-98.6347E-12	701.628E-3	-28.6590E-3	-99.1398E-12	732.062E-3	-893.049E-6
-2.73887E-3	-99.4473E-12	707.740E-3	-25.3863E-3	-99.2883E-12	715.748E-3	1.79181E-3
-2.74387E-3	-99.6925E-12	706.367E-3	-26.8289E-3	-99.3543E-12	701.898E-3	1.08359E-3
-2.74887E-3	-100.520E-12	710.296E-3	-21.3344E-3	-99.3505E-12	687.514E-3	2.29849E-3
-2.75388E-3	-100.742E-12	704.488E-3	-19.7722E-3	-99.8333E-12	698.662E-3	4.48730E-3
-2.75888E-3	-100.799E-12	694.747E-3	-43.1002E-3	-100.276E-12	713.298E-3	8.31638E-3
-2.76388E-3	-100.635E-12	694.590E-3	-50.1140E-3	-100.149E-12	705.296E-3	2.25204E-3
-2.76888E-3	-100.450E-12	685.063E-3	-14.9853E-3	-100.369E-12	698.039E-3	-28.6648E-3
-2.77389E-3	-100.166E-12	687.515E-3	4.88404E-3	-100.510E-12	692.630E-3	-50.9595E-3
-2.77889E-3	-100.167E-12	709.819E-3	-18.5206E-3	-100.283E-12	687.315E-3	-33.9019E-3
-2.78389E-3	-100.020E-12	705.258E-3	-41.4988E-3	-100.345E-12	692.598E-3	-8.19987E-3
-2.78889E-3	-99.7316E-12	680.356E-3	-43.9831E-3	-100.482E-12	696.454E-3	-3.47168E-3
-2.79390E-3	-99.6415E-12	679.895E-3	-33.3084E-3	-100.484E-12	689.880E-3	-4.43599E-3
-2.79890E-3	-99.9311E-12	685.287E-3	-18.6630E-3	-101.067E-12	693.441E-3	1.97664E-3
-2.80390E-3	-99.6741E-12	676.385E-3	-21.4614E-3	-101.682E-12	704.661E-3	2.26545E-3
-2.80890E-3	-100.048E-12	683.323E-3	-37.3069E-3	-101.938E-12	689.313E-3	-675.389E-6
-2.81391E-3	-100.664E-12	695.386E-3	-33.9463E-3	-102.169E-12	670.536E-3	5.38418E-3
-2.81891E-3	-101.109E-12	695.816E-3	-9.53661E-3	-102.935E-12	681.560E-3	-5.53424E-3
-2.82391E-3	-102.036E-12	700.394E-3	3.66762E-3	-103.423E-12	691.314E-3	-28.6124E-3
-2.82891E-3	-102.873E-12	700.856E-3	-259.879E-6	-103.676E-12	695.343E-3	-23.9933E-3
-2.83392E-3	-103.544E-12	684.965E-3	-9.14567E-3	-103.240E-12	697.344E-3	-15.2767E-3
-2.83892E-3	-104.596E-12	683.080E-3	-18.1612E-3	-103.804E-12	678.364E-3	-11.6700E-3
-2.84392E-3	-105.224E-12	701.780E-3	-8.82053E-3	-103.892E-12	662.747E-3	-3.16657E-3
-2.84892E-3	-105.539E-12	709.496E-3	-5.84319E-3	-104.233E-12	670.469E-3	-18.2867E-3
-2.85393E-3	-105.491E-12	711.951E-3	-30.3593E-3	-104.074E-12	682.015E-3	-34.8918E-3
-2.85893E-3	-105.558E-12	710.227E-3	-38.0494E-3	-104.674E-12	692.920E-3	-20.1717E-3
-2.86393E-3	-105.142E-12	680.029E-3	-29.5037E-3	-105.135E-12	706.774E-3	-3.87790E-3
-2.86893E-3	-105.015E-12	658.936E-3	-16.0575E-3	-105.476E-12	715.250E-3	-8.23773E-3
-2.87394E-3	-105.122E-12	677.057E-3	3.04992E-3	-105.727E-12	716.885E-3	-16.2873E-3
-2.87894E-3	-104.965E-12	699.195E-3	-3.87456E-3	-106.091E-12	714.665E-3	-23.8574E-3
-2.88394E-3	-104.911E-12	714.712E-3	-29.8396E-3	-106.367E-12	713.942E-3	-37.9013E-3
-2.88894E-3	-104.954E-12	713.425E-3	-33.3846E-3	-107.012E-12	700.604E-3	-36.7477E-3
-2.89395E-3	-105.422E-12	685.098E-3	-15.8418E-3	-106.933E-12	677.270E-3	-14.7611E-3
-2.89895E-3	-105.835E-12	677.540E-3	-18.0404E-3	-107.342E-12	670.221E-3	-7.58323E-3
-2.90395E-3	-106.751E-12	691.798E-3	-27.0076E-3	-107.711E-12	672.777E-3	-24.5730E-3
-2.90895E-3	-107.164E-12	675.577E-3	-19.5085E-3	-107.779E-12	676.005E-3	-27.7778E-3
-2.91396E-3	-107.953E-12	665.608E-3	-16.5773E-3	-107.590E-12	672.898E-3	-16.9387E-3
-2.91896E-3	-108.631E-12	689.552E-3	-10.6615E-3	-108.276E-12	676.759E-3	-20.4318E-3
-2.92396E-3	-109.343E-12	710.709E-3	-8.15967E-3	-108.188E-12	682.441E-3	-22.8504E-3
-2.92896E-3	-109.534E-12	719.935E-3	-19.3332E-3	-108.072E-12	681.045E-3	-20.6672E-3
-2.93397E-3	-109.668E-12	716.546E-3	-17.2451E-3	-108.635E-12	685.973E-3	-26.4274E-3
-2.93897E-3	-110.010E-12	705.524E-3	-10.1767E-3	-108.916E-12	689.374E-3	-27.2919E-3
-2.94397E-3	-110.310E-12	703.381E-3	-10.7391E-3	-108.270E-12	690.048E-3	-10.9053E-3
-2.94897E-3	-109.979E-12	726.743E-3	-1.33040E-3	-109.056E-12	679.304E-3	9.70874E-3
-2.95398E-3	-109.641E-12	738.876E-3	8.87814E-3	-109.773E-12	675.036E-3	8.92685E-3
-2.95898E-3	-109.465E-12	720.663E-3	-6.96402E-3	-109.121E-12	682.431E-3	-23.9253E-3
-2.96398E-3	-109.338E-12	713.701E-3	-35.7427E-3	-109.903E-12	671.083E-3	-43.8453E-3
-2.96898E-3	-109.911E-12	702.252E-3	-35.2483E-3	-111.327E-12	668.225E-3	-20.8381E-3
-2.97399E-3	-109.352E-12	678.674E-3	-21.1996E-3	-110.116E-12	694.853E-3	-7.21726E-3
-2.97899E-3	-108.448E-12	685.390E-3	-19.0779E-3	-110.505E-12	703.157E-3	-11.6510E-3
-2.98399E-3	-108.869E-12	701.430E-3	-15.9921E-3	-112.646E-12	689.321E-3	-3.79587E-3
-2.98899E-3	-109.468E-12	697.491E-3	-25.8165E-3	-111.583E-12	691.756E-3	10.7789E-3
-2.99400E-3	-109.909E-12	702.726E-3	-29.7921E-3	-111.753E-12	686.492E-3	12.9435E-3
-2.99900E-3	-111.380E-12	703.706E-3	-2.70889E-3	-112.526E-12	666.775E-3	-3.02520E-3
-3.00400E-3	-111.405E-12	690.412E-3	14.3514E-3	-112.070E-12	673.228E-3	-20.2864E-3
-3.00900E-3	-112.025E-12	670.774E-3	2.32301E-3	-112.199E-12	682.190E-3	-25.6056E-3
-3.01401E-3	-112.448E-12	639.631E-3	-14.1195E-3	-112.714E-12	684.119E-3	-6.67180E-3
-3.01901E-3	-112.817E-12	643.249E-3	-20.8572E-3	-111.994E-12	696.102E-3	13.3218E-3
-3.02401E-3	-113.224E-12	676.810E-3	-3.20408E-3	-111.838E-12	694.370E-3	983.616E-6
-3.02901E-3	-113.113E-12	687.969E-3	16.1486E-3	-111.987E-12	688.575E-3	-15.7813E-3
-3.03402E-3	-112.624E-12	686.858E-3	-104.675E-6	-112.040E-12	691.010E-3	-22.8745E-3
-3.03902E-3	-112.083E-12	683.185E-3	-15.3031E-3	-112.180E-12	687.650E-3	-22.4730E-3
-3.04402E-3	-112.094E-12	675.938E-3	-7.42401E-3	-112.890E-12	674.362E-3	-9.85167E-3
-3.04902E-3	-112.060E-12	663.572E-3	-9.87290E-3	-112.876E-12	671.499E-3	-3.32330E-3
-3.05403E-3	-112.248E-12	672.345E-3	-22.6275E-3	-113.364E-12	668.770E-3	-10.5632E-3
-3.05903E-3	-112.170E-12	699.880E-3	-27.2175E-3	-113.751E-12	656.468E-3	-11.2276E-3
-3.06403E-3	-112.564E-12	689.524E-3	-26.0280E-3	-113.812E-12	667.409E-3	-1.90459E-3
-3.06903E-3	-112.454E-12	660.437E-3	-27.2410E-3	-114.345E-12	689.477E-3	-1.42528E-3
-3.07404E-3	-113.805E-12	655.567E-3	-17.9326E-3	-114.509E-12	688.163E-3	-2.83763E-3
-3.07904E-3	-114.185E-12	665.011E-3	-17.4860E-3	-114.305E-12	676.395E-3	5.34176E-3
-3.08404E-3	-114.873E-12	682.432E-3	-37.5577E-3	-114.939E-12	681.957E-3	16.3198E-3
-3.08904E-3	-115.178E-12	698.263E-3	-23.5403E-3	-115.155E-12	694.466E-3	23.1149E-3
-3.09405E-3	-116.306E-12	681.099E-3	-2.96203E-3	-114.579E-12	692.632E-3	9.36260E-3
-3.09905E-3	-116.237E-12	667.195E-3	-17.6655E-3	-114.895E-12	673.841E-3	-16.9776E-3
-3.10405E-3	-116.966E-12	689.730E-3	-20.3352E-3	-115.374E-12	662.290E-3	-17.7766E-3
-3.10905E-3	-117.281E-12	701.627E-3	-18.1610E-3	-115.114E-12	678.313E-3	-11.5177E-3
-3.11406E-3	-117.209E-12	687.405E-3	-39.7236E-3	-115.041E-12	692.952E-3	-24.1011E-3
-3.11906E-3	-117.161E-12	670.081E-3	-30.9263E-3	-115.777E-12	688.547E-3	-28.5703E-3
-3.12406E-3	-116.849E-12	669.619E-3	724.670E-6	-115.711E-12	693.460E-3	-21.2221E-3
-3.12906E-3	-116.553E-12	685.438E-3	-1.29822E-3	-115.989E-12	697.368E-3	-10.9365E-3
-3.13407E-3	-116.404E-12	695.354E-3	-8.91586E-3	-116.853E-12	677.827E-3	9.99546E-3
-3.13907E-3	-116.362E-12	685.182E-3	-14.0082E-3	-117.264E-12	667.977E-3	17.9131E-3
-3.14407E-3	-116.469E-12	665.561E-3	-29.0159E-3	-117.454E-12	679.709E-3	6.02511E-3
-3.14907E-3	-116.101E-12	666.854E-3	-23.1942E-3	-118.330E-12	671.496E-3	-11.5520E-3
-3.15408E-3	-116.277E-12	690.033E-3	3.39106E-3	-119.337E-12	645.163E-3	-31.4768E-3
-3.15908E-3	-117.173E-12	712.731E-3	15.0622E-3	-119.369E-12	645.131E-3	-35.8375E-3
-3.16408E-3	-118.610E-12	721.397E-3	6.18677E-3	-119.188E-12	670.861E-3	-16.0175E-3
-3.16908E-3	-118.563E-12	705.008E-3	106.811E-6	-119.786E-12	685.664E-3	5.71844E-3
-3.17409E-3	-119.832E-12	669.369E-3	-10.9568E-3	-119.862E-12	688.238E-3	-10.8964E-3
-3.17909E-3	-120.531E-12	662.847E-3	-12.0359E-3	-120.157E-12	688.472E-3	-39.1398E-3
-3.18409E-3	-120.644E-12	685.394E-3	7.38303E-3	-120.306E-12	686.097E-3	-27.6929E-3
-3.18909E-3	-121.037E-12	679.760E-3	-5.77070E-3	-120.668E-12	688.777E-3	-3.81526E-3
-3.19410E-3	-121.528E-12	667.619E-3	-41.6773E-3	-119.945E-12	680.161E-3	342.756E-6
-3.19910E-3	-121.016E-12	673.391E-3	-35.5684E-3	-120.720E-12	657.773E-3	-8.89940E-3
-3.20410E-3	-121.322E-12	669.593E-3	-3.28149E-3	-120.684E-12	657.951E-3	-17.1493E-3
-3.20910E-3	-121.342E-12	676.430E-3	3.21806E-3	-120.442E-12	664.634E-3	-20.7728E-3
-3.21411E-3	-120.010E-12	693.596E-3	-8.79280E-3	-120.986E-12	664.233E-3	-9.05212E-3
-3.21911E-3	-120.054E-12	677.530E-3	-23.2080E-3	-122.064E-12	668.942E-3	6.60970E-3
-3.22411E-3	-120.843E-12	658.843E-3	-37.4246E-3	-121.463E-12	663.718E-3	-1.05237E-3
-3.22911E-3	-120.199E-12	672.538E-3	-37.5643E-3	-121.013E-12	668.425E-3	-18.8377E-3
-3.23412E-3	-119.863E-12	686.768E-3	-26.7528E-3	-122.388E-12	673.871E-3	-29.1119E-3
-3.23912E-3	-120.768E-12	679.822E-3	-29.3823E-3	-122.534E-12	663.669E-3	-24.6420E-3
-3.24412E-3	-121.135E-12	665.932E-3	-36.4538E-3	-123.345E-12	666.768E-3	-6.12118E-3
-3.24912E-3	-122.095E-12	657.421E-3	-32.1819E-3	-123.672E-12	677.827E-3	-1.05073E-3
-3.25413E-3	-122.969E-12	660.226E-3	-35.7058E-3	-124.011E-12	679.708E-3	-23.7724E-3
-3.25913E-3	-123.395E-12	670.394E-3	-30.2247E-3	-123.742E-12	682.301E-3	-41.6763E-3
-3.26413E-3	-123.925E-12	674.455E-3	-21.1958E-3	-123.943E-12	686.514E-3	-38.6898E-3
-3.26913E-3	-124.475E-12	680.660E-3	-39.7936E-3	-124.373E-12	679.619E-3	-32.3775E-3
-3.27414E-3	-124.343E-12	684.831E-3	-42.0149E-3	-123.609E-12	663.294E-3	-17.7264E-3
-3.27914E-3	-124.834E-12	674.254E-3	-12.3476E-3	-123.232E-12	659.845E-3	-151.838E-6
-3.28414E-3	-124.417E-12	676.667E-3	-6.17007E-3	-123.689E-12	674.883E-3	-14.7185E-3
-3.28914E-3	-124.384E-12	696.685E-3	-13.7282E-3	-123.371E-12	673.642E-3	-30.0987E-3
-3.29415E-3	-124.277E-12	689.487E-3	-1.49753E-3	-123.299E-12	655.175E-3	-23.8459E-3
-3.29915E-3	-124.331E-12	671.483E-3	-15.8512E-3	-124.224E-12	661.062E-3	-28.8328E-3
-3.30415E-3	-123.500E-12	676.512E-3	-36.9032E-3	-123.956E-12	675.132E-3	-24.4882E-3
-3.30915E-3	-123.718E-12	681.547E-3	-25.6119E-3	-123.277E-12	676.712E-3	-3.28357E-3
-3.31416E-3	-124.014E-12	677.571E-3	-35.2966E-3	-124.652E-12	674.917E-3	868.138E-6
-3.31916E-3	-123.703E-12	673.904E-3	-54.5382E-3	-124.955E-12	659.186E-3	-7.02706E-3
-3.32416E-3	-123.561E-12	663.611E-3	-47.3096E-3	-125.033E-12	657.334E-3	-16.9834E-3
-3.32916E-3	-124.698E-12	649.030E-3	-40.4459E-3	-125.602E-12	668.728E-3	-23.2649E-3
-3.33417E-3	-125.843E-12	658.449E-3	-36.2221E-3	-125.951E-12	669.114E-3	-21.9221E-3
-3.33917E-3	-126.104E-12	680.980E-3	-26.0801E-3	-125.837E-12	677.126E-3	-9.02190E-3
-3.34417E-3	-126.159E-12	680.487E-3	-36.4963E-3	-126.093E-12	678.259E-3	9.68400E-3
-3.34917E-3	-127.830E-12	667.422E-3	-52.8056E-3	-126.681E-12	646.343E-3	4.71916E-3
-3.35418E-3	-128.536E-12	666.058E-3	-28.1791E-3	-127.327E-12	627.134E-3	-11.1330E-3
-3.35918E-3	-128.550E-12	663.811E-3	-1.27364E-3	-127.020E-12	652.723E-3	-8.57138E-3
-3.36418E-3	-128.570E-12	658.842E-3	-15.8685E-3	-126.846E-12	671.316E-3	-4.98620E-3
-3.36918E-3	-128.649E-12	658.453E-3	-25.2204E-3	-126.946E-12	661.353E-3	-13.6992E-3
-3.37419E-3	-127.512E-12	654.674E-3	-24.6204E-3	-127.135E-12	644.867E-3	-14.3775E-3
-3.37919E-3	-127.750E-12	648.855E-3	-22.0515E-3	-127.108E-12	626.361E-3	-657.671E-6
-3.38419E-3	-127.547E-12	652.467E-3	-2.11183E-3	-127.296E-12	621.084E-3	15.1560E-3
-3.38919E-3	-126.858E-12	663.242E-3	-12.4325E-3	-127.709E-12	630.798E-3	16.3858E-3
-3.39420E-3	-126.645E-12	675.325E-3	-41.9847E-3	-128.168E-12	628.942E-3	-6.43637E-3
-3.39920E-3	-127.014E-12	675.907E-3	-37.2598E-3	-128.750E-12	623.766E-3	-26.7923E-3
-3.40420E-3	-127.368E-12	649.384E-3	-10.1812E-3	-129.379E-12	643.224E-3	-25.1177E-3
-3.40920E-3	-127.970E-12	645.323E-3	8.36863E-3	-129.690E-12	676.317E-3	-13.9012E-3
-3.41421E-3	-128.578E-12	677.100E-3	5.57100E-3	-130.328E-12	691.245E-3	-8.13646E-3
-3.41921E-3	-129.335E-12	685.882E-3	-17.9874E-3	-130.598E-12	675.498E-3	-18.0515E-3
-3.42421E-3	-130.559E-12	685.460E-3	-36.3845E-3	-130.831E-12	643.145E-3	-26.4467E-3
-3.42921E-3	-131.265E-12	697.222E-3	-14.9153E-3	-131.088E-12	625.050E-3	-15.9218E-3
-3.43422E-3	-132.247E-12	683.604E-3	14.4486E-3	-131.849E-12	640.797E-3	-7.83990E-3
-3.43922E-3	-133.063E-12	653.028E-3	1.50149E-3	-131.297E-12	666.091E-3	-17.0421E-3
-3.44422E-3	-133.557E-12	647.290E-3	-27.6142E-3	-131.456E-12	662.512E-3	-12.9250E-3
-3.44922E-3	-133.846E-12	656.703E-3	-35.8958E-3	-132.056E-12	641.851E-3	2.54855E-3
-3.45423E-3	-133.287E-12	653.512E-3	-23.9871E-3	-132.609E-12	634.459E-3	-12.2859E-3
-3.45923E-3	-132.795E-12	656.635E-3	-8.29146E-3	-131.923E-12	646.381E-3	-30.8776E-3
-3.46423E-3	-132.109E-12	672.028E-3	-2.32425E-3	-131.774E-12	675.351E-3	-16.5560E-3
-3.46923E-3	-131.568E-12	667.712E-3	-10.7455E-3	-132.338E-12	678.171E-3	4.80413E-3
-3.47424E-3	-130.741E-12	648.929E-3	-28.6954E-3	-132.721E-12	640.134E-3	9.03768E-3
-3.47924E-3	-130.977E-12	636.523E-3	-29.6233E-3	-132.899E-12	624.787E-3	-1.46572E-3
-3.48424E-3	-131.316E-12	640.848E-3	-17.9517E-3	-132.951E-12	653.245E-3	-23.8341E-3
-3.48924E-3	-132.114E-12	658.849E-3	-19.1055E-3	-133.363E-12	680.734E-3	-34.4165E-3
-3.49425E-3	-131.913E-12	661.432E-3	-9.63871E-3	-133.687E-12	682.607E-3	-32.5172E-3
-3.49925E-3	-132.325E-12	643.850E-3	13.5473E-3	-135.120E-12	661.224E-3	-32.9733E-3
-3.50425E-3	-133.364E-12	638.606E-3	8.65446E-3	-135.190E-12	654.500E-3	-26.3833E-3
-3.50925E-3	-133.773E-12	645.339E-3	-7.59181E-3	-135.059E-12	676.927E-3	-24.8777E-3
-3.51426E-3	-135.113E-12	645.605E-3	-73.0323E-6	-135.510E-12	687.995E-3	-34.3440E-3
-3.51926E-3	-136.226E-12	655.310E-3	-7.80903E-3	-135.959E-12	682.422E-3	-40.4498E-3
-3.52426E-3	-136.302E-12	665.958E-3	-40.1764E-3	-135.509E-12	681.562E-3	-30.6982E-3
-3.52926E-3	-137.029E-12	658.103E-3	-47.1945E-3	-134.995E-12	681.880E-3	-22.2598E-3
-3.53427E-3	-137.287E-12	653.461E-3	-25.9351E-3	-135.766E-12	669.661E-3	-32.7192E-3
-3.53927E-3	-136.604E-12	669.555E-3	-21.6286E-3	-135.875E-12	669.258E-3	-27.3796E-3
-3.54427E-3	-136.265E-12	689.552E-3	-38.2834E-3	-135.138E-12	684.179E-3	-10.1262E-3
-3.54927E-3	-136.204E-12	690.898E-3	-34.6495E-3	-135.449E-12	687.581E-3	3.24992E-3
-3.55428E-3	-135.725E-12	670.353E-3	-2.07051E-3	-135.954E-12	687.761E-3	13.4541E-3
-3.55928E-3	-135.129E-12	658.976E-3	16.3231E-3	-135.337E-12	680.445E-3	146.719E-6
-3.56428E-3	-134.725E-12	673.161E-3	4.05957E-3	-135.756E-12	656.874E-3	-17.1562E-3
-3.56928E-3	-134.907E-12	671.783E-3	-10.4690E-3	-136.227E-12	641.774E-3	-25.4299E-3
-3.57429E-3	-134.320E-12	646.666E-3	-18.7987E-3	-136.672E-12	643.408E-3	-28.4507E-3
-3.57929E-3	-134.258E-12	641.378E-3	-28.0949E-3	-137.142E-12	649.249E-3	-7.52617E-3
-3.58429E-3	-135.580E-12	650.791E-3	-21.1417E-3	-137.973E-12	650.368E-3	19.1619E-3
-3.58929E-3	-136.286E-12	655.763E-3	-10.2327E-3	-138.429E-12	645.168E-3	11.2383E-3
-3.59430E-3	-136.724E-12	673.453E-3	-31.5394E-3	-138.192E-12	652.042E-3	-19.3766E-3
-3.59930E-3	-137.463E-12	690.641E-3	-45.4088E-3	-138.464E-12	661.467E-3	-38.1088E-3
-3.60430E-3	-137.975E-12	671.471E-3	-33.7277E-3	-139.096E-12	651.900E-3	-50.4478E-3
-3.60930E-3	-139.045E-12	646.818E-3	-29.1858E-3	-139.321E-12	642.519E-3	-67.6176E-3
-3.61431E-3	-139.396E-12	658.828E-3	-27.6481E-3	-137.950E-12	648.341E-3	-51.3837E-3
-3.61931E-3	-140.593E-12	665.579E-3	-27.9029E-3	-138.289E-12	658.437E-3	-5.80339E-3
-3.62431E-3	-140.196E-12	655.909E-3	-39.6471E-3	-138.146E-12	660.348E-3	4.18522E-3
-3.62931E-3	-140.279E-12	651.506E-3	-34.2043E-3	-138.204E-12	649.432E-3	-6.54588E-3
-3.63432E-3	-140.044E-12	641.509E-3	-19.4608E-3	-137.261E-12	650.991E-3	-10.7627E-3
-3.63932E-3	-140.383E-12	652.957E-3	-24.2886E-3	-137.881E-12	668.086E-3	-26.6680E-3
-3.64432E-3	-139.764E-12	677.603E-3	-20.6033E-3	-138.017E-12	655.268E-3	-21.7546E-3
-3.64932E-3	-138.507E-12	677.606E-3	-23.4125E-3	-139.606E-12	636.777E-3	7.18759E-3
-3.65433E-3	-138.255E-12	667.883E-3	-44.5658E-3	-140.177E-12	648.508E-3	2.92381E-3
-3.65933E-3	-139.026E-12	655.558E-3	-39.6895E-3	-139.887E-12	650.099E-3	-28.2239E-3
-3.66433E-3	-139.016E-12	645.176E-3	-15.4728E-3	-140.555E-12	652.644E-3	-45.7610E-3
-3.66933E-3	-139.091E-12	650.973E-3	-8.41216E-3	-141.863E-12	676.116E-3	-45.6664E-3
-3.67434E-3	-139.968E-12	647.028E-3	-8.23833E-3	-141.793E-12	677.478E-3	-43.2700E-3
-3.67934E-3	-140.327E-12	622.264E-3	-5.00768E-3	-141.828E-12	671.214E-3	-35.1326E-3
-3.68434E-3	-141.133E-12	618.460E-3	-13.2768E-3	-142.763E-12	680.101E-3	-14.0385E-3
-3.68934E-3	-141.763E-12	636.895E-3	-21.0509E-3	-142.743E-12	668.527E-3	1.23813E-3
-3.69435E-3	-141.870E-12	659.595E-3	-11.6932E-3	-142.294E-12	646.585E-3	11.9004E-3
-3.69935E-3	-142.894E-12	666.062E-3	-12.5464E-3	-142.768E-12	649.162E-3	10.1733E-3
-3.70435E-3	-143.331E-12	649.415E-3	-23.8558E-3	-142.381E-12	647.471E-3	-10.2285E-3
-3.70935E-3	-143.575E-12	647.535E-3	-10.6469E-3	-142.103E-12	627.282E-3	-17.9837E-3
-3.71436E-3	-143.790E-12	670.310E-3	-4.65246E-3	-142.472E-12	628.720E-3	-6.93007E-3
-3.71936E-3	-143.777E-12	698.666E-3	-32.0814E-3	-143.246E-12	648.979E-3	-10.1304E-3
-3.72436E-3	-143.956E-12	705.178E-3	-52.1863E-3	-142.375E-12	668.728E-3	-19.0353E-3
-3.72936E-3	-144.244E-12	685.485E-3	-50.0378E-3	-142.638E-12	687.780E-3	-19.9445E-3
-3.73437E-3	-143.622E-12	677.612E-3	-37.0586E-3	-143.896E-12	688.250E-3	-24.9545E-3
-3.73937E-3	-143.348E-12	685.889E-3	-14.7604E-3	-144.406E-12	664.134E-3	-19.2444E-3
-3.74437E-3	-144.127E-12	677.890E-3	-2.87962E-3	-144.791E-12	652.541E-3	-8.42029E-3
-3.74937E-3	-144.057E-12	663.551E-3	-15.7450E-3	-144.986E-12	663.655E-3	3.79957E-3
-3.75438E-3	-143.873E-12	636.243E-3	-7.66751E-3	-146.045E-12	666.697E-3	20.2136E-3
-3.75938E-3	-143.966E-12	598.340E-3	21.8362E-3	-147.264E-12	667.575E-3	20.8409E-3
-3.76438E-3	-144.859E-12	605.035E-3	26.3434E-3	-146.569E-12	666.611E-3	3.62820E-3
-3.76938E-3	-145.709E-12	641.238E-3	23.3627E-3	-146.592E-12	646.217E-3	-7.45388E-3
-3.77439E-3	-145.180E-12	643.790E-3	9.33495E-3	-147.392E-12	648.371E-3	-13.0337E-3
-3.77939E-3	-146.491E-12	613.161E-3	-28.0857E-3	-146.789E-12	688.634E-3	-24.1248E-3
-3.78439E-3	-145.861E-12	599.967E-3	-32.8431E-3	-146.615E-12	705.135E-3	-32.8764E-3
-3.78939E-3	-145.912E-12	618.007E-3	-7.29828E-3	-147.468E-12	684.055E-3	-28.4833E-3
-3.79440E-3	-146.941E-12	645.557E-3	-6.12773E-3	-147.353E-12	658.500E-3	-12.8059E-3
-3.79940E-3	-146.439E-12	667.735E-3	-18.6129E-3	-147.020E-12	639.083E-3	-9.73005E-3
-3.80440E-3	-145.815E-12	657.315E-3	-17.3560E-3	-147.701E-12	645.392E-3	-5.40490E-3
-3.80940E-3	-147.146E-12	631.340E-3	-11.5185E-3	-147.948E-12	672.680E-3	20.3329E-3
-3.81441E-3	-147.463E-12	630.290E-3	3.31143E-3	-147.332E-12	676.233E-3	28.2474E-3
-3.81941E-3	-146.681E-12	636.382E-3	5.84839E-3	-148.111E-12	654.915E-3	9.08660E-3
-3.82441E-3	-147.787E-12	629.857E-3	-17.3800E-3	-149.509E-12	648.453E-3	-10.7211E-3
-3.82941E-3	-147.562E-12	629.355E-3	-6.56208E-3	-148.137E-12	660.079E-3	-26.9070E-3
-3.83442E-3	-147.476E-12	637.901E-3	12.7852E-3	-149.106E-12	680.803E-3	-27.7586E-3
-3.83942E-3	-149.163E-12	645.332E-3	-1.01992E-3	-149.942E-12	696.429E-3	-28.1802E-3
-3.84442E-3	-149.874E-12	667.738E-3	-13.1611E-3	-149.613E-12	680.064E-3	-26.1610E-3
-3.84942E-3	-149.357E-12	689.367E-3	-13.6533E-3	-150.324E-12	663.553E-3	-10.4074E-3
-3.85443E-3	-150.066E-12	674.806E-3	-34.0726E-3	-151.181E-12	661.402E-3	-10.5638E-3
-3.85943E-3	-151.116E-12	641.175E-3	-47.9862E-3	-149.836E-12	649.526E-3	-31.7978E-3
-3.86443E-3	-150.707E-12	623.320E-3	-26.9312E-3	-151.020E-12	642.104E-3	-47.1638E-3
-3.86943E-3	-150.122E-12	642.495E-3	-28.5654E-3	-151.647E-12	644.404E-3	-34.3089E-3
-3.87444E-3	-150.443E-12	671.133E-3	-41.4050E-3	-149.911E-12	649.794E-3	-9.40985E-3
-3.87944E-3	-150.509E-12	665.468E-3	-25.3994E-3	-149.829E-12	665.744E-3	-3.21443E-3
-3.88444E-3	-149.602E-12	641.954E-3	-7.94383E-3	-150.449E-12	678.917E-3	-21.2478E-3
-3.88944E-3	-149.334E-12	627.820E-3	9.15264E-3	-149.719E-12	672.752E-3	-28.7555E-3
-3.89445E-3	-148.715E-12	637.293E-3	27.2261E-3	-150.160E-12	661.151E-3	-7.56677E-3
-3.89945E-3	-148.971E-12	659.708E-3	1.51917E-3	-150.270E-12	668.785E-3	-380.380E-6
-3.90445E-3	-148.697E-12	665.495E-3	-39.9134E-3	-149.903E-12	682.442E-3	-23.7637E-3
-3.90945E-3	-148.624E-12	653.080E-3	-43.3396E-3	-150.070E-12	682.102E-3	-39.0581E-3
-3.91446E-3	-149.081E-12	633.101E-3	-41.7246E-3	-151.622E-12	680.512E-3	-40.2209E-3
-3.91946E-3	-150.202E-12	632.883E-3	-44.8895E-3	-151.227E-12	668.707E-3	-41.9510E-3
-3.92446E-3	-151.099E-12	651.633E-3	-34.3955E-3	-151.431E-12	639.964E-3	-25.3904E-3
-3.92946E-3	-152.833E-12	649.130E-3	-24.1052E-3	-152.103E-12	627.783E-3	-5.88622E-3
-3.93447E-3	-153.459E-12	641.967E-3	-12.0137E-3	-152.542E-12	640.303E-3	-26.3826E-3
-3.93947E-3	-154.265E-12	658.279E-3	9.71059E-3	-152.644E-12	653.624E-3	-40.5925E-3
-3.94447E-3	-155.062E-12	673.226E-3	26.6948E-3	-152.977E-12	681.947E-3	-10.5097E-3
-3.94947E-3	-155.987E-12	682.112E-3	21.8982E-3	-153.530E-12	693.579E-3	12.0058E-3
-3.95448E-3	-156.370E-12	692.165E-3	1.95843E-3	-152.846E-12	650.899E-3	488.970E-6
-3.95948E-3	-156.368E-12	669.668E-3	-19.9145E-3	-153.802E-12	619.950E-3	-23.6820E-3
-3.96448E-3	-156.356E-12	632.513E-3	-19.7500E-3	-153.773E-12	636.175E-3	-51.0904E-3
-3.96948E-3	-156.341E-12	634.074E-3	-11.6889E-3	-153.954E-12	643.780E-3	-69.1516E-3
-3.97449E-3	-155.434E-12	656.090E-3	-34.8311E-3	-153.911E-12	627.971E-3	-45.3991E-3
-3.97949E-3	-154.599E-12	676.332E-3	-61.9376E-3	-154.246E-12	630.090E-3	-7.80367E-3
-3.98449E-3	-154.322E-12	673.070E-3	-54.8062E-3	-153.709E-12	650.193E-3	8.81740E-3
-3.98949E-3	-153.524E-12	640.212E-3	-30.9311E-3	-153.860E-12	672.727E-3	-1.58201E-3
-3.99450E-3	-153.641E-12	624.450E-3	-31.1295E-3	-154.678E-12	687.925E-3	-34.2867E-3
-3.99950E-3	-153.991E-12	634.872E-3	-40.0665E-3	-154.788E-12	689.038E-3	-51.0499E-3
-4.00450E-3	-153.375E-12	636.335E-3	-44.1637E-3	-154.657E-12	696.053E-3	-44.0959E-3
-4.00950E-3	-154.135E-12	625.043E-3	-43.5961E-3	-155.531E-12	695.291E-3	-39.8741E-3
-4.01451E-3	-155.022E-12	623.441E-3	-29.2346E-3	-157.008E-12	655.003E-3	-27.2871E-3
-4.01951E-3	-155.569E-12	628.672E-3	-24.8183E-3	-157.130E-12	621.343E-3	9.11672E-3
-4.02451E-3	-156.478E-12	646.792E-3	-39.6832E-3	-157.941E-12	639.164E-3	7.54394E-3
-4.02951E-3	-156.994E-12	660.803E-3	-38.7925E-3	-158.380E-12	666.831E-3	-30.5445E-3
-4.03452E-3	-157.715E-12	659.122E-3	-34.0772E-3	-158.863E-12	674.606E-3	-44.9830E-3
-4.03952E-3	-158.654E-12	672.538E-3	-40.5481E-3	-158.504E-12	675.194E-3	-48.8414E-3
-4.04452E-3	-159.382E-12	684.874E-3	-17.8596E-3	-158.620E-12	673.588E-3	-36.4114E-3
-4.04952E-3	-158.193E-12	674.703E-3	8.95078E-3	-158.809E-12	664.600E-3	-13.4280E-3
-4.05453E-3	-157.871E-12	669.776E-3	-8.92753E-3	-158.093E-12	649.866E-3	-15.4224E-3
-4.05953E-3	-158.377E-12	677.496E-3	-31.2298E-3	-158.104E-12	647.536E-3	-26.7007E-3
-4.06453E-3	-158.790E-12	662.477E-3	-21.8140E-3	-158.696E-12	668.962E-3	-20.7698E-3
-4.06953E-3	-157.607E-12	645.108E-3	-7.55495E-3	-158.591E-12	679.381E-3	-15.9844E-3
-4.07454E-3	-158.242E-12	649.394E-3	-13.9149E-3	-158.115E-12	654.530E-3	-30.0631E-3
-4.07954E-3	-157.413E-12	644.444E-3	-19.0480E-3	-159.390E-12	643.346E-3	-28.7894E-3
-4.08454E-3	-157.023E-12	636.872E-3	-20.8370E-3	-159.671E-12	660.240E-3	-10.1517E-3
-4.08954E-3	-157.979E-12	633.893E-3	-19.4580E-3	-159.346E-12	661.774E-3	-21.4288E-3
-4.09455E-3	-157.845E-12	624.834E-3	2.80055E-3	-159.721E-12	655.121E-3	-34.9320E-3
-4.09955E-3	-157.805E-12	620.931E-3	-3.64709E-3	-160.215E-12	655.682E-3	-25.4937E-3
-4.10455E-3	-158.888E-12	627.540E-3	-39.9212E-3	-160.714E-12	660.068E-3	-24.1143E-3
-4.10955E-3	-160.823E-12	629.347E-3	-42.3788E-3	-160.962E-12	663.508E-3	-9.50636E-3
-4.11456E-3	-160.386E-12	619.185E-3	-16.6790E-3	-162.500E-12	666.235E-3	16.9920E-3
-4.11956E-3	-160.541E-12	614.995E-3	-4.06836E-3	-162.094E-12	654.970E-3	14.2330E-3
-4.12456E-3	-161.826E-12	633.152E-3	-4.47498E-3	-161.166E-12	636.764E-3	-7.67789E-3
-4.12956E-3	-161.605E-12	654.975E-3	-20.8318E-3	-162.290E-12	646.908E-3	-12.7217E-3
-4.13457E-3	-161.537E-12	664.117E-3	-36.7020E-3	-163.404E-12	668.609E-3	-6.43299E-3
-4.13957E-3	-161.805E-12	662.841E-3	-25.5715E-3	-161.287E-12	669.601E-3	-16.8156E-3
-4.14457E-3	-161.624E-12	648.959E-3	-15.9819E-3	-161.881E-12	668.718E-3	-26.4490E-3
-4.14957E-3	-161.726E-12	640.431E-3	-35.0752E-3	-162.230E-12	673.238E-3	-19.9330E-3
-4.15458E-3	-161.620E-12	644.270E-3	-59.9590E-3	-162.369E-12	658.887E-3	-6.26854E-3
-4.15958E-3	-161.979E-12	650.548E-3	-44.4601E-3	-161.616E-12	646.074E-3	-978.394E-6
-4.16458E-3	-162.668E-12	662.146E-3	-8.57281E-3	-161.917E-12	657.694E-3	-8.11214E-3
-4.16958E-3	-162.051E-12	675.099E-3	5.82892E-3	-161.831E-12	655.637E-3	-8.00437E-3
-4.17459E-3	-162.416E-12	660.247E-3	4.44242E-3	-162.724E-12	640.482E-3	1.09828E-3
-4.17959E-3	-163.445E-12	641.964E-3	-11.2958E-3	-163.018E-12	654.491E-3	3.22294E-3
-4.18459E-3	-163.672E-12	664.707E-3	-22.2134E-3	-163.318E-12	664.326E-3	-12.3930E-3
-4.18959E-3	-163.532E-12	672.070E-3	-12.2003E-3	-163.694E-12	660.657E-3	-21.0116E-3
-4.19460E-3	-164.062E-12	659.431E-3	-11.9349E-3	-164.685E-12	664.999E-3	-15.1180E-3
-4.19960E-3	-165.829E-12	685.290E-3	-22.4800E-3	-164.649E-12	653.107E-3	-19.0745E-3
-4.20460E-3	-166.303E-12	702.573E-3	-17.2147E-3	-164.836E-12	643.439E-3	-16.8352E-3
-4.20960E-3	-165.542E-12	680.764E-3	-18.4523E-3	-164.446E-12	653.542E-3	-9.63048E-3
-4.21461E-3	-166.086E-12	653.287E-3	-19.4744E-3	-165.342E-12	651.413E-3	-6.82206E-3
-4.21961E-3	-166.684E-12	633.736E-3	-3.14359E-3	-165.700E-12	654.435E-3	-2.22990E-3
-4.22461E-3	-166.694E-12	632.386E-3	-6.07513E-3	-165.393E-12	675.240E-3	-10.5703E-3
-4.22961E-3	-165.649E-12	654.122E-3	-12.4470E-3	-165.018E-12	673.918E-3	-34.7450E-3
-4.23462E-3	-166.001E-12	663.478E-3	-10.4898E-3	-165.126E-12	664.672E-3	-46.0748E-3
-4.23962E-3	-166.119E-12	650.617E-3	-26.3329E-3	-165.570E-12	667.803E-3	-30.0297E-3
-4.24462E-3	-166.149E-12	654.226E-3	-28.3659E-3	-165.836E-12	664.153E-3	-29.3152E-3
-4.24962E-3	-166.546E-12	669.495E-3	-3.02411E-3	-166.140E-12	660.756E-3	-21.1538E-3
-4.25463E-3	-166.688E-12	670.078E-3	9.08585E-3	-165.253E-12	676.729E-3	11.3730E-3
-4.25963E-3	-166.883E-12	663.041E-3	-14.0426E-3	-166.584E-12	694.154E-3	-5.15520E-3
-4.26463E-3	-167.636E-12	646.296E-3	-33.5102E-3	-167.477E-12	690.157E-3	-36.7909E-3
-4.26963E-3	-168.298E-12	637.302E-3	-27.6957E-3	-167.785E-12	679.632E-3	-29.1793E-3
-4.27464E-3	-168.151E-12	660.064E-3	-22.2691E-3	-168.642E-12	666.104E-3	-11.7844E-3
-4.27964E-3	-167.934E-12	678.448E-3	-2.10763E-3	-169.065E-12	631.270E-3	-5.28894E-3
-4.28464E-3	-168.770E-12	680.093E-3	7.10591E-3	-169.972E-12	625.914E-3	-17.5840E-3
-4.28964E-3	-169.171E-12	673.330E-3	-9.40684E-3	-169.965E-12	654.010E-3	-33.1264E-3
-4.29465E-3	-169.709E-12	655.106E-3	-9.99345E-3	-170.260E-12	653.126E-3	-28.0222E-3
-4.29965E-3	-170.412E-12	637.552E-3	-15.2200E-3	-170.155E-12	658.543E-3	-13.3008E-3
-4.30465E-3	-170.363E-12	645.647E-3	-35.1315E-3	-170.020E-12	670.506E-3	-15.7811E-3
-4.30965E-3	-169.574E-12	655.347E-3	-35.5429E-3	-169.508E-12	651.829E-3	-15.6268E-3
-4.31466E-3	-170.782E-12	648.549E-3	-30.6050E-3	-169.913E-12	642.386E-3	5.03629E-3
-4.31966E-3	-170.019E-12	659.564E-3	-28.0551E-3	-169.550E-12	646.544E-3	-2.25730E-3
-4.32466E-3	-169.580E-12	670.616E-3	537.240E-6	-169.481E-12	632.353E-3	-24.8718E-3
-4.32966E-3	-169.189E-12	651.299E-3	32.6404E-3	-169.352E-12	633.892E-3	-9.83007E-3
-4.33467E-3	-170.349E-12	643.568E-3	16.2404E-3	-169.423E-12	662.965E-3	6.20442E-3
-4.33967E-3	-170.750E-12	657.886E-3	-21.9277E-3	-169.842E-12	678.018E-3	-6.57405E-3
-4.34467E-3	-171.402E-12	655.707E-3	-29.1412E-3	-169.706E-12	665.422E-3	-23.1404E-3
-4.34967E-3	-171.687E-12	643.114E-3	-22.4532E-3	-170.061E-12	631.648E-3	-30.4446E-3
-4.35468E-3	-171.767E-12	629.303E-3	-18.8467E-3	-170.483E-12	602.736E-3	-39.6719E-3
-4.35968E-3	-173.028E-12	612.005E-3	-21.7787E-3	-171.252E-12	618.934E-3	-42.9737E-3
-4.36468E-3	-172.474E-12	595.888E-3	-31.9376E-3	-171.596E-12	665.655E-3	-20.2223E-3
-4.36968E-3	-172.606E-12	599.817E-3	-28.2875E-3	-172.299E-12	679.779E-3	-17.3518E-3
-4.37469E-3	-172.948E-12	640.471E-3	-6.30597E-3	-173.302E-12	658.741E-3	-27.4505E-3
-4.37969E-3	-173.130E-12	688.452E-3	-4.70584E-3	-173.238E-12	649.500E-3	-1.85481E-3
-4.38469E-3	-172.931E-12	694.011E-3	-35.1719E-3	-173.961E-12	642.943E-3	14.2704E-3
-4.38969E-3	-172.965E-12	669.917E-3	-51.8487E-3	-173.770E-12	634.340E-3	-2.37997E-3
-4.39470E-3	-173.229E-12	647.888E-3	-32.4005E-3	-172.892E-12	666.469E-3	-25.3551E-3
-4.39970E-3	-173.566E-12	640.539E-3	-9.02457E-3	-172.759E-12	706.099E-3	-30.2837E-3
-4.40470E-3	-174.345E-12	657.148E-3	6.34697E-3	-173.390E-12	702.757E-3	-7.76559E-3
-4.40970E-3	-173.396E-12	660.549E-3	-5.51391E-3	-172.812E-12	681.868E-3	1.46384E-3
-4.41471E-3	-173.632E-12	648.401E-3	-56.8160E-3	-172.605E-12	660.857E-3	-7.82486E-3
-4.41971E-3	-173.195E-12	646.036E-3	-74.7302E-3	-173.083E-12	635.877E-3	8.24631E-3
-4.42471E-3	-173.862E-12	633.149E-3	-38.5155E-3	-173.085E-12	624.492E-3	15.2900E-3
-4.42971E-3	-173.722E-12	625.576E-3	-13.8187E-3	-172.644E-12	626.503E-3	-6.51235E-3
-4.43472E-3	-174.024E-12	646.214E-3	-21.5412E-3	-173.355E-12	629.152E-3	-23.6731E-3
-4.43972E-3	-174.234E-12	658.690E-3	-27.5893E-3	-173.402E-12	644.556E-3	-46.3682E-3
-4.44472E-3	-174.232E-12	652.197E-3	-2.71456E-3	-173.621E-12	659.238E-3	-62.2836E-3
-4.44972E-3	-174.542E-12	651.712E-3	22.5207E-3	-174.474E-12	643.130E-3	-50.9896E-3
-4.45473E-3	-174.896E-12	652.698E-3	8.35639E-3	-174.496E-12	624.425E-3	-24.1126E-3
-4.45973E-3	-174.962E-12	640.929E-3	-10.3635E-3	-174.509E-12	645.838E-3	-19.1117E-3
-4.46473E-3	-175.686E-12	630.884E-3	-6.62795E-3	-175.302E-12	672.884E-3	-35.7709E-3
-4.46973E-3	-175.428E-12	644.025E-3	5.00459E-3	-175.620E-12	683.642E-3	-19.8642E-3
-4.47474E-3	-174.836E-12	668.999E-3	15.5900E-3	-175.806E-12	696.177E-3	-21.1088E-6
-4.47974E-3	-175.739E-12	680.783E-3	2.38336E-3	-175.887E-12	686.047E-3	-9.38781E-3
-4.48474E-3	-175.896E-12	677.514E-3	-14.7855E-3	-175.550E-12	682.430E-3	-18.9520E-3
-4.48974E-3	-175.394E-12	658.555E-3	-17.8367E-3	-175.371E-12	697.620E-3	-26.6607E-3
-4.49475E-3	-175.100E-12	626.609E-3	-21.5723E-3	-175.810E-12	669.835E-3	-21.6568E-3
-4.49975E-3	-175.392E-12	616.493E-3	-25.8266E-3	-176.736E-12	638.937E-3	-7.65732E-3
-4.50475E-3	-175.397E-12	637.651E-3	-21.0979E-3	-176.219E-12	646.664E-3	-25.4434E-3
-4.50975E-3	-175.875E-12	641.206E-3	-1.61752E-3	-177.034E-12	642.390E-3	-38.1990E-3
-4.51476E-3	-176.276E-12	621.318E-3	-6.57971E-3	-178.161E-12	626.171E-3	-11.1281E-3
-4.51976E-3	-175.989E-12	621.031E-3	-19.9655E-3	-178.263E-12	634.226E-3	2.14847E-3
-4.52476E-3	-177.032E-12	632.702E-3	-10.6311E-3	-177.945E-12	643.398E-3	-4.41953E-3
-4.52976E-3	-177.604E-12	648.004E-3	-20.5152E-3	-178.961E-12	635.125E-3	2.74380E-3
-4.53477E-3	-177.637E-12	665.876E-3	-42.1981E-3	-178.497E-12	633.525E-3	-6.88011E-3
-4.53977E-3	-177.659E-12	653.508E-3	-47.2922E-3	-179.266E-12	638.656E-3	-36.0090E-3
-4.54477E-3	-179.259E-12	624.546E-3	-43.0663E-3	-180.244E-12	642.737E-3	-24.1693E-3
-4.54977E-3	-179.481E-12	625.617E-3	-47.0410E-3	-179.703E-12	643.024E-3	5.94696E-3
-4.55478E-3	-179.914E-12	654.539E-3	-35.3965E-3	-179.093E-12	634.849E-3	223.746E-6
-4.55978E-3	-179.548E-12	669.655E-3	-17.6908E-3	-178.729E-12	632.230E-3	-14.7380E-3
-4.56478E-3	-180.419E-12	658.594E-3	-36.1108E-3	-178.892E-12	649.720E-3	-10.1899E-3
-4.56978E-3	-180.350E-12	642.236E-3	-38.3003E-3	-178.623E-12	660.916E-3	-1.68211E-3
-4.57479E-3	-180.711E-12	629.402E-3	-11.3101E-3	-178.911E-12	650.914E-3	1.79190E-3
-4.57979E-3	-181.055E-12	624.152E-3	-7.97583E-3	-179.030E-12	646.572E-3	-5.94069E-3
-4.58479E-3	-181.536E-12	654.963E-3	-32.8772E-3	-179.270E-12	645.643E-3	-26.9421E-3
-4.58979E-3	-181.188E-12	685.627E-3	-59.6491E-3	-179.823E-12	625.884E-3	-39.9638E-3
-4.59480E-3	-181.647E-12	669.234E-3	-76.3791E-3	-181.139E-12	622.347E-3	-41.2017E-3
-4.59980E-3	-182.367E-12	666.230E-3	-62.6148E-3	-180.890E-12	651.887E-3	-38.7928E-3
-4.60480E-3	-182.600E-12	670.658E-3	-30.1753E-3	-182.072E-12	677.446E-3	-19.7143E-3
-4.60980E-3	-183.098E-12	657.739E-3	-30.6714E-3	-183.320E-12	680.728E-3	-1.25471E-3
-4.61481E-3	-183.228E-12	654.080E-3	-38.2277E-3	-183.564E-12	659.391E-3	-23.5074E-3
-4.61981E-3	-184.326E-12	647.827E-3	-27.5416E-3	-183.706E-12	641.006E-3	-51.2151E-3
-4.62481E-3	-184.968E-12	672.397E-3	-19.3780E-3	-185.244E-12	649.441E-3	-44.7961E-3
-4.62981E-3	-185.025E-12	706.468E-3	-2.19138E-3	-185.015E-12	668.992E-3	-42.4102E-3
-4.63482E-3	-184.625E-12	700.933E-3	23.0213E-3	-185.077E-12	676.649E-3	-51.4033E-3
-4.63982E-3	-184.824E-12	684.177E-3	15.3726E-3	-186.241E-12	688.563E-3	-43.6509E-3
-4.64482E-3	-185.310E-12	668.321E-3	-6.97908E-3	-185.583E-12	701.611E-3	-18.2265E-3
-4.64982E-3	-185.167E-12	648.073E-3	623.212E-6	-184.820E-12	676.214E-3	3.23499E-3
-4.65483E-3	-184.814E-12	629.780E-3	18.8021E-3	-186.318E-12	644.455E-3	5.92659E-3
-4.65983E-3	-184.810E-12	647.742E-3	18.4527E-3	-183.905E-12	635.182E-3	-15.9652E-3
-4.66483E-3	-184.835E-12	661.280E-3	2.74962E-3	-183.617E-12	613.572E-3	-39.9784E-3
-4.66983E-3	-185.251E-12	645.920E-3	-7.87721E-3	-185.063E-12	607.817E-3	-30.7531E-3
-4.67484E-3	-186.227E-12	673.304E-3	565.211E-6	-184.389E-12	647.058E-3	-25.6055E-3
-4.67984E-3	-185.816E-12	698.193E-3	13.0147E-3	-183.238E-12	654.289E-3	-33.9105E-3
-4.68484E-3	-185.395E-12	675.529E-3	-6.38935E-3	-184.759E-12	631.949E-3	-31.0131E-3
-4.68984E-3	-186.374E-12	648.136E-3	-33.2712E-3	-185.877E-12	640.899E-3	-42.0445E-3
-4.69485E-3	-186.637E-12	625.364E-3	-29.6280E-3	-185.690E-12	656.250E-3	-66.8244E-3
-4.69985E-3	-186.247E-12	612.305E-3	-14.5690E-3	-186.294E-12	662.365E-3	-64.5847E-3
-4.70485E-3	-186.849E-12	632.658E-3	-11.2621E-3	-186.339E-12	659.113E-3	-43.5005E-3
-4.70985E-3	-187.782E-12	647.654E-3	-17.5466E-3	-185.958E-12	630.703E-3	-31.2520E-3
-4.71486E-3	-187.441E-12	620.082E-3	-38.7496E-3	-187.958E-12	616.381E-3	-1.34241E-3
-4.71986E-3	-187.261E-12	607.197E-3	-64.8343E-3	-187.960E-12	646.161E-3	11.2803E-3
-4.72486E-3	-187.551E-12	621.762E-3	-58.3967E-3	-187.007E-12	660.641E-3	-14.9102E-3
-4.72986E-3	-187.483E-12	622.097E-3	-25.7905E-3	-188.402E-12	643.748E-3	-17.5703E-3
-4.73487E-3	-188.467E-12	625.453E-3	-11.5276E-3	-188.577E-12	642.915E-3	-10.0917E-3
-4.73987E-3	-187.893E-12	656.515E-3	-23.5941E-3	-187.426E-12	629.263E-3	-22.0650E-3
-4.74487E-3	-186.787E-12	668.319E-3	-38.2623E-3	-187.958E-12	606.374E-3	-33.2729E-3
-4.74988E-3	-187.140E-12	642.399E-3	-54.2718E-3	-187.755E-12	633.851E-3	-43.3706E-3
-4.75488E-3	-188.206E-12	635.388E-3	-33.7426E-3	-186.011E-12	650.486E-3	-26.2608E-3
-4.75988E-3	-188.605E-12	650.506E-3	26.5174E-3	-186.204E-12	635.459E-3	22.1906E-3
-4.76488E-3	-188.955E-12	671.667E-3	25.6819E-3	-188.359E-12	639.682E-3	12.7687E-3
-4.76988E-3	-188.904E-12	687.209E-3	-24.3877E-3	-187.459E-12	619.399E-3	-45.1755E-3
-4.77489E-3	-189.736E-12	670.956E-3	-30.6524E-3	-187.277E-12	610.140E-3	-41.8920E-3
-4.77989E-3	-190.107E-12	645.471E-3	-38.6761E-3	-189.007E-12	655.649E-3	-130.144E-6
-4.78489E-3	-190.872E-12	666.340E-3	-65.6349E-3	-189.077E-12	672.468E-3	3.31874E-3
-4.78989E-3	-190.928E-12	696.045E-3	-50.4187E-3	-189.696E-12	655.263E-3	-4.62433E-3
-4.79490E-3	-190.327E-12	666.740E-3	-29.8756E-3	-189.959E-12	633.183E-3	-7.94052E-3
-4.79990E-3	-190.746E-12	635.938E-3	-24.7484E-3	-190.399E-12	617.487E-3	-20.0434E-3
-4.80490E-3	-192.133E-12	636.743E-3	-6.03578E-3	-190.369E-12	629.199E-3	-27.3054E-3
-4.80990E-3	-191.410E-12	632.223E-3	1.23955E-3	-191.317E-12	647.218E-3	-11.3891E-3
-4.81491E-3	-191.040E-12	634.113E-3	-9.11530E-3	-191.479E-12	644.367E-3	10.4573E-3
-4.81991E-3	-192.482E-12	651.041E-3	-13.1003E-3	-192.078E-12	627.759E-3	-3.72253E-3
-4.82491E-3	-192.583E-12	659.963E-3	-21.6536E-3	-192.721E-12	637.994E-3	-21.9107E-3
-4.82991E-3	-192.413E-12	679.424E-3	-24.3496E-3	-192.553E-12	653.888E-3	-12.2630E-3
-4.83492E-3	-192.440E-12	687.444E-3	1.58530E-3	-191.880E-12	643.584E-3	-7.36972E-3
-4.83992E-3	-192.002E-12	654.560E-3	1.57515E-3	-192.264E-12	648.799E-3	-13.6125E-3
-4.84492E-3	-192.751E-12	639.862E-3	-39.9491E-3	-192.538E-12	667.349E-3	-23.2535E-3
-4.84992E-3	-192.655E-12	653.348E-3	-53.9054E-3	-192.071E-12	685.207E-3	-34.3415E-3
-4.85493E-3	-192.691E-12	643.765E-3	-21.5022E-3	-193.120E-12	679.497E-3	-35.4006E-3
-4.85993E-3	-193.092E-12	638.641E-3	11.9982E-3	-193.502E-12	636.400E-3	-38.1359E-3
-4.86493E-3	-193.365E-12	663.624E-3	9.75982E-3	-193.503E-12	603.127E-3	-31.0084E-3
-4.86993E-3	-193.475E-12	646.101E-3	-7.68116E-3	-194.881E-12	617.829E-3	1.42433E-3
-4.87494E-3	-194.197E-12	617.105E-3	-14.7816E-3	-195.898E-12	674.559E-3	15.4857E-3
-4.87994E-3	-194.356E-12	638.114E-3	-17.9321E-3	-195.317E-12	701.223E-3	7.19677E-3
-4.88494E-3	-194.067E-12	656.941E-3	-33.3060E-3	-195.994E-12	677.598E-3	16.1247E-3
-4.88995E-3	-193.464E-12	668.072E-3	-47.7933E-3	-196.917E-12	645.591E-3	20.8356E-3
-4.89495E-3	-194.553E-12	670.867E-3	-42.8761E-3	-196.677E-12	615.678E-3	5.14079E-3
-4.89995E-3	-193.801E-12	639.488E-3	-49.1666E-3	-196.409E-12	618.421E-3	-9.69727E-3
-4.90495E-3	-193.318E-12	630.174E-3	-65.3012E-3	-197.792E-12	650.602E-3	-21.4857E-3
-4.90995E-3	-194.565E-12	667.654E-3	-51.8414E-3	-197.609E-12	677.650E-3	-11.4863E-3
-4.91496E-3	-195.046E-12	681.642E-3	-24.7186E-3	-196.059E-12	679.104E-3	31.7094E-3
-4.91996E-3	-194.086E-12	656.584E-3	-25.7741E-3	-196.556E-12	657.843E-3	33.1456E-3
-4.92496E-3	-194.444E-12	651.132E-3	-38.6277E-3	-196.457E-12	634.391E-3	-9.55982E-3
-4.92996E-3	-195.310E-12	653.004E-3	-24.0424E-3	-195.263E-12	617.069E-3	-17.8258E-3
-4.93497E-3	-195.501E-12	639.596E-3	-13.6416E-3	-194.851E-12	620.370E-3	-18.5998E-3
-4.93997E-3	-195.669E-12	652.725E-3	-26.2667E-3	-196.274E-12	624.011E-3	-25.3073E-3
-4.94497E-3	-196.043E-12	670.669E-3	-34.4802E-3	-195.638E-12	623.448E-3	-9.29694E-3
-4.94997E-3	-196.702E-12	666.230E-3	-38.8855E-3	-196.741E-12	650.366E-3	-8.23137E-3
-4.95498E-3	-196.712E-12	667.392E-3	-52.9294E-3	-198.765E-12	664.194E-3	-39.2410E-3
-4.95998E-3	-196.373E-12	665.315E-3	-59.2677E-3	-198.585E-12	648.706E-3	-46.1729E-3
-4.96498E-3	-197.113E-12	657.183E-3	-33.7427E-3	-198.005E-12	641.030E-3	-24.9829E-3
-4.96998E-3	-196.592E-12	660.671E-3	-7.07274E-3	-199.456E-12	637.012E-3	-34.4104E-3
-4.97499E-3	-195.869E-12	658.841E-3	13.9315E-3	-199.794E-12	633.443E-3	-34.5846E-3
-4.97999E-3	-195.620E-12	634.604E-3	8.00085E-3	-197.504E-12	651.878E-3	2.21102E-3
-4.98499E-3	-196.915E-12	606.831E-3	-9.29923E-3	-197.632E-12	673.475E-3	13.9533E-3
-4.98999E-3	-196.797E-12	612.611E-3	-998.604E-6	-198.409E-12	662.028E-3	5.15553E-3
-4.99500E-3	-197.090E-12	652.054E-3	-8.84126E-3	-197.533E-12	642.167E-3	-1.70094E-3
-5.00000E-3	-198.129E-12	675.936E-3	-26.6883E-3	-197.811E-12	657.956E-3	-19.2609E-3
