Experiment	bias spectroscopy	
Date	19.01.2016 18:14:46	
User		
X (m)	50.581E-9	
Y (m)	256.225E-9	
Z (m)	-132.627E-9	
Z offset (m)	0E+0	
Settling time (s)	200E-6	
Integration time (s)	5E-3	
Z-Ctrl hold	TRUE	
Final Z (m)	N/A	
Filter type	None	
Order		
Cutoff frq		
Comment01	MnPc/Pb(111)	
Comment02	dz =00pm	
Comment03	7 Sweeps	
Comment04	MagField =0.T	
Comment05	Divider 1:10	
Comment06	Setpoint:5mV,200 pA	
Comment07	Lockin: 50uVrms,5ms,5mV	
Comment08	Gain:9; 912Hz modulation	
Comment09	T=1.06K	
Bias>Bias (V)	5E-3	
Bias>Calibration (V/V)	81.475E-3	
Bias>Offset (V)	1.046E-3	
Bias Spectroscopy>Sweep Start (V)	5E-3	
Bias Spectroscopy>Sweep End (V)	-5E-3	
Bias Spectroscopy>Num Pixel	2000	
Bias Spectroscopy>Z Avg time (s)	500E-3	
Bias Spectroscopy>Z offset (m)	0E+0	
Bias Spectroscopy>1st Settling time (s)	500E-3	
Bias Spectroscopy>Settling time (s)	200E-6	
Bias Spectroscopy>Integration time (s)	5E-3	
Bias Spectroscopy>End Settling time (s)	500E-3	
Bias Spectroscopy>Z control time (s)	500E-3	
Bias Spectroscopy>Max Slew rate (V/s)	Inf	
Bias Spectroscopy>backward sweep	TRUE	
Bias Spectroscopy>Z-controller hold	TRUE	
Bias Spectroscopy>Number of sweeps	7	
Bias Spectroscopy>Channels	Current (A);X% LockIn (V);Y% LockIn (V)	
Bias Spectroscopy>Reset Bias	TRUE	
Bias Spectroscopy>Record final Z	FALSE	
Bias Spectroscopy>Lock-In run	FALSE	
Bias Spectroscopy>Sweep mode	Linear	
Bias Spectroscopy>MultiLine Settings : Segment Start (V), Segment End (V), Settling (s), Integration (s), Steps (xn)	100E-3,3.3E-3,100E-6,10E-3,2500;3.3E-3,-3.3E-3,100E-6,10E-3,10;-3.3E-3,-100E-3,100E-6,10E-3,2500	
Current>Current (A)	200.044E-12	
Current>Calibration (A/V)	999.99900E-12	
Current>Offset (A)	-455.429E-15	
Current>Gain	LN 10^9	
Z-Controller>Z (m)	-132.627E-9	
Z-Controller>Controller name	log Current	
Z-Controller>Controller status	ON	
Z-Controller>Setpoint	200E-12	
Z-Controller>Setpoint unit	A	
Z-Controller>P gain	2.96994E-12	
Z-Controller>I gain	67.0321E-9	
Z-Controller>Time const (s)	44.3062E-6	
Z-Controller>TipLift (m)	0E+0	
Z-Controller>Switch off delay (s)	50E-3	
Current (A)	200.323E-12	
Z (m)	-132.627E-9	

[DATA]
Bias calc (V)	Current (A)	X% LockIn (V)	Y% LockIn (V)	Current [bwd] (A)	X% LockIn [bwd] (V)	Y% LockIn [bwd] (V)
5.00000E-3	201.199E-12	694.838E-3	-78.6937E-3	200.686E-12	659.626E-3	-16.6869E-3
4.99500E-3	200.152E-12	683.172E-3	-52.3942E-3	200.464E-12	622.956E-3	-22.9058E-3
4.98999E-3	199.481E-12	658.548E-3	-11.2284E-3	200.561E-12	621.329E-3	-7.92939E-3
4.98499E-3	198.746E-12	665.626E-3	-11.2836E-3	200.332E-12	679.298E-3	16.0871E-3
4.97999E-3	197.937E-12	674.304E-3	-31.4881E-3	200.176E-12	709.129E-3	10.5822E-3
4.97499E-3	197.657E-12	648.116E-3	-48.0717E-3	199.850E-12	687.807E-3	-20.4369E-3
4.96998E-3	197.675E-12	611.553E-3	-47.0056E-3	199.111E-12	654.966E-3	-35.2774E-3
4.96498E-3	197.658E-12	614.921E-3	-23.3748E-3	199.305E-12	618.983E-3	-26.0039E-3
4.95998E-3	197.818E-12	634.610E-3	10.9672E-3	198.426E-12	606.306E-3	-14.7580E-3
4.95498E-3	197.801E-12	635.258E-3	9.95676E-3	197.765E-12	620.421E-3	-24.0115E-3
4.94997E-3	198.795E-12	629.258E-3	-25.0825E-3	197.553E-12	622.185E-3	-17.4008E-3
4.94497E-3	199.225E-12	623.357E-3	-27.9572E-3	197.331E-12	626.631E-3	-5.20805E-3
4.93997E-3	199.698E-12	623.816E-3	-3.49671E-3	197.649E-12	651.281E-3	-17.5421E-3
4.93497E-3	200.267E-12	638.494E-3	6.13062E-3	196.790E-12	662.960E-3	-19.1326E-3
4.92996E-3	199.913E-12	664.912E-3	2.57625E-3	196.831E-12	660.163E-3	-12.5206E-3
4.92496E-3	199.795E-12	679.502E-3	-4.11368E-3	196.721E-12	661.379E-3	-20.6499E-3
4.91996E-3	199.306E-12	666.128E-3	-11.8762E-3	196.155E-12	669.945E-3	-38.1027E-3
4.91496E-3	198.958E-12	664.798E-3	-3.03897E-3	196.331E-12	698.051E-3	-47.7532E-3
4.90995E-3	197.654E-12	694.640E-3	20.5469E-3	195.391E-12	699.094E-3	-51.0519E-3
4.90495E-3	196.479E-12	711.573E-3	23.7296E-3	195.791E-12	664.908E-3	-37.0488E-3
4.89995E-3	195.390E-12	714.561E-3	-13.9401E-3	195.488E-12	668.051E-3	1.51643E-3
4.89495E-3	194.870E-12	693.307E-3	-34.7861E-3	195.536E-12	689.192E-3	7.39303E-3
4.88995E-3	193.743E-12	642.959E-3	-9.65201E-3	195.547E-12	662.081E-3	-19.1691E-3
4.88494E-3	192.927E-12	617.696E-3	12.5111E-3	195.195E-12	625.810E-3	-13.4760E-3
4.87994E-3	192.408E-12	636.735E-3	22.6815E-3	195.999E-12	626.161E-3	-2.33838E-3
4.87494E-3	192.418E-12	658.531E-3	23.3188E-3	195.218E-12	635.079E-3	-8.35678E-3
4.86993E-3	192.504E-12	646.115E-3	14.1961E-3	195.389E-12	646.898E-3	2.51905E-3
4.86493E-3	192.695E-12	635.077E-3	9.43690E-3	195.220E-12	677.948E-3	7.64370E-3
4.85993E-3	192.985E-12	655.357E-3	3.05512E-3	195.584E-12	687.750E-3	-8.31146E-3
4.85493E-3	193.384E-12	667.701E-3	-8.23296E-3	194.802E-12	669.701E-3	6.24205E-3
4.84992E-3	193.725E-12	659.795E-3	-18.0107E-3	194.616E-12	674.379E-3	31.4335E-3
4.84492E-3	194.301E-12	644.557E-3	-24.4642E-3	194.887E-12	674.555E-3	13.1077E-3
4.83992E-3	194.368E-12	626.214E-3	-26.7117E-3	194.549E-12	660.359E-3	-6.78357E-3
4.83492E-3	194.769E-12	611.687E-3	-23.5975E-3	194.364E-12	663.127E-3	-9.32236E-3
4.82991E-3	194.729E-12	619.143E-3	-14.7674E-3	193.565E-12	672.001E-3	-6.81728E-3
4.82491E-3	194.612E-12	642.145E-3	-12.0887E-3	193.699E-12	677.174E-3	7.11054E-3
4.81991E-3	194.437E-12	632.631E-3	-22.3384E-3	192.674E-12	674.888E-3	6.93338E-3
4.81491E-3	193.858E-12	629.695E-3	-19.9772E-3	192.323E-12	658.371E-3	-12.0963E-3
4.80990E-3	192.437E-12	661.320E-3	-2.08065E-3	192.032E-12	639.616E-3	-18.0241E-3
4.80490E-3	192.239E-12	684.449E-3	4.58217E-3	192.475E-12	636.213E-3	-2.37593E-3
4.79990E-3	190.830E-12	684.050E-3	-12.2665E-3	192.471E-12	630.075E-3	3.67269E-3
4.79490E-3	190.335E-12	655.736E-3	-30.6921E-3	192.370E-12	610.346E-3	-10.3320E-3
4.78989E-3	189.789E-12	626.825E-3	-18.2479E-3	192.214E-12	616.843E-3	-17.3343E-3
4.78489E-3	189.713E-12	628.878E-3	7.61476E-3	192.552E-12	645.832E-3	-16.0879E-3
4.77989E-3	189.086E-12	632.209E-3	-2.93984E-3	191.809E-12	657.875E-3	-2.09439E-3
4.77489E-3	188.826E-12	617.791E-3	-44.5666E-3	191.460E-12	659.354E-3	8.92028E-3
4.76988E-3	189.414E-12	616.166E-3	-55.5226E-3	191.354E-12	666.389E-3	-4.88955E-3
4.76488E-3	188.991E-12	624.082E-3	-23.0643E-3	191.226E-12	661.226E-3	-26.3450E-3
4.75988E-3	189.750E-12	642.653E-3	-823.007E-6	190.467E-12	654.124E-3	-46.2527E-3
4.75488E-3	189.465E-12	658.834E-3	-27.4913E-3	189.771E-12	660.141E-3	-58.3655E-3
4.74988E-3	190.032E-12	651.807E-3	-56.0288E-3	189.645E-12	652.996E-3	-50.4859E-3
4.74487E-3	189.510E-12	640.466E-3	-49.2908E-3	188.814E-12	627.479E-3	-34.8757E-3
4.73987E-3	189.644E-12	641.785E-3	-30.1855E-3	188.377E-12	625.282E-3	-26.8282E-3
4.73487E-3	189.562E-12	656.181E-3	-21.1137E-3	188.424E-12	650.997E-3	-16.7183E-3
4.72986E-3	188.785E-12	655.873E-3	-31.4788E-3	187.887E-12	654.181E-3	-8.46520E-3
4.72486E-3	189.097E-12	641.034E-3	-44.1325E-3	188.752E-12	643.428E-3	-23.1040E-3
4.71986E-3	188.424E-12	643.034E-3	-31.1575E-3	188.278E-12	648.909E-3	-27.7034E-3
4.71486E-3	188.341E-12	652.132E-3	-12.7989E-3	189.222E-12	658.841E-3	-16.5274E-3
4.70985E-3	187.389E-12	640.638E-3	-7.58727E-3	188.558E-12	671.309E-3	-39.8442E-3
4.70485E-3	187.014E-12	635.725E-3	-20.8032E-3	189.445E-12	682.529E-3	-60.0773E-3
4.69985E-3	186.871E-12	645.142E-3	-47.8872E-3	188.875E-12	684.393E-3	-30.4414E-3
4.69485E-3	186.801E-12	632.454E-3	-54.5801E-3	188.977E-12	689.730E-3	-1.06663E-3
4.68984E-3	187.543E-12	610.200E-3	-35.2139E-3	187.918E-12	674.117E-3	-7.95398E-3
4.68484E-3	186.827E-12	612.893E-3	-22.0937E-3	187.586E-12	649.361E-3	-23.9581E-3
4.67984E-3	187.459E-12	633.108E-3	-23.0089E-3	186.365E-12	645.056E-3	-41.7673E-3
4.67484E-3	187.099E-12	647.659E-3	-18.0237E-3	185.879E-12	638.440E-3	-61.3891E-3
4.66983E-3	187.702E-12	651.575E-3	-12.6345E-3	185.321E-12	619.904E-3	-52.3782E-3
4.66483E-3	186.976E-12	644.767E-3	-13.2511E-3	185.100E-12	615.276E-3	-29.9298E-3
4.65983E-3	187.406E-12	643.259E-3	-9.62469E-3	184.107E-12	641.755E-3	-35.6796E-3
4.65483E-3	187.127E-12	665.406E-3	-7.74517E-3	183.482E-12	647.937E-3	-45.4394E-3
4.64982E-3	186.234E-12	686.749E-3	-28.2514E-3	183.626E-12	644.371E-3	-31.5637E-3
4.64482E-3	186.498E-12	671.458E-3	-41.6100E-3	183.638E-12	665.973E-3	-20.3711E-3
4.63982E-3	185.727E-12	659.418E-3	-33.3436E-3	183.685E-12	658.696E-3	-14.4151E-3
4.63482E-3	185.011E-12	675.699E-3	-15.2863E-3	183.650E-12	637.279E-3	-18.3694E-3
4.62981E-3	184.487E-12	693.001E-3	-418.954E-6	183.763E-12	652.107E-3	-46.5920E-3
4.62481E-3	184.662E-12	699.440E-3	-8.19204E-3	184.199E-12	678.485E-3	-49.4868E-3
4.61981E-3	184.579E-12	686.820E-3	-13.0240E-3	183.960E-12	683.341E-3	-25.3269E-3
4.61481E-3	184.265E-12	682.185E-3	-15.3542E-3	184.860E-12	672.419E-3	-25.3638E-3
4.60980E-3	184.489E-12	693.095E-3	-17.4804E-3	184.587E-12	663.142E-3	-45.8944E-3
4.60480E-3	184.179E-12	687.596E-3	-3.89777E-3	184.646E-12	653.668E-3	-53.4103E-3
4.59980E-3	184.435E-12	661.417E-3	-11.9367E-3	183.866E-12	631.550E-3	-45.9337E-3
4.59480E-3	184.199E-12	634.244E-3	-43.4757E-3	184.132E-12	610.924E-3	-45.9980E-3
4.58979E-3	184.370E-12	632.229E-3	-33.3511E-3	183.264E-12	621.334E-3	-41.8394E-3
4.58479E-3	184.162E-12	661.343E-3	-8.66527E-3	182.855E-12	642.650E-3	-34.4965E-3
4.57979E-3	183.609E-12	655.123E-3	-24.9350E-3	182.201E-12	645.530E-3	-17.1320E-3
4.57479E-3	183.844E-12	618.391E-3	-47.2846E-3	181.659E-12	642.127E-3	26.2035E-3
4.56978E-3	182.855E-12	628.945E-3	-41.7036E-3	180.859E-12	650.062E-3	40.3979E-3
4.56478E-3	182.377E-12	653.483E-3	-22.3552E-6	180.333E-12	656.310E-3	-3.15887E-3
4.55978E-3	181.089E-12	642.747E-3	36.4877E-3	180.152E-12	644.273E-3	-38.1089E-3
4.55478E-3	181.114E-12	630.076E-3	35.0328E-3	179.756E-12	644.933E-3	-43.3199E-3
4.54977E-3	180.401E-12	644.069E-3	4.85592E-3	179.992E-12	660.603E-3	-42.1626E-3
4.54477E-3	180.063E-12	654.057E-3	-33.4246E-3	178.931E-12	655.119E-3	-28.3863E-3
4.53977E-3	179.565E-12	642.123E-3	-52.9919E-3	179.408E-12	644.552E-3	-18.6844E-3
4.53477E-3	179.811E-12	635.686E-3	-47.6336E-3	179.542E-12	635.423E-3	-26.3467E-3
4.52976E-3	180.358E-12	653.476E-3	-35.6420E-3	179.716E-12	626.875E-3	-31.4768E-3
4.52476E-3	179.607E-12	675.695E-3	-48.6248E-3	180.412E-12	646.625E-3	-16.7147E-3
4.51976E-3	179.976E-12	680.955E-3	-65.0711E-3	180.318E-12	670.917E-3	-11.8742E-3
4.51476E-3	179.622E-12	672.364E-3	-40.1739E-3	181.186E-12	659.378E-3	-29.7386E-3
4.50975E-3	179.846E-12	661.226E-3	-7.67413E-3	180.923E-12	655.274E-3	-44.7392E-3
4.50475E-3	179.755E-12	653.779E-3	-1.33176E-3	180.790E-12	681.315E-3	-63.7899E-3
4.49975E-3	178.589E-12	653.849E-3	4.13268E-3	180.621E-12	688.031E-3	-58.4793E-3
4.49475E-3	178.491E-12	641.525E-3	4.67865E-3	180.409E-12	669.232E-3	-29.4550E-3
4.48974E-3	177.831E-12	623.244E-3	-7.84603E-3	180.436E-12	645.273E-3	-30.9173E-3
4.48474E-3	177.269E-12	627.012E-3	-8.94017E-3	179.450E-12	616.560E-3	-23.6596E-3
4.47974E-3	176.986E-12	638.831E-3	2.94064E-3	178.549E-12	608.607E-3	14.5917E-3
4.47474E-3	176.053E-12	643.116E-3	-6.69069E-3	178.338E-12	638.709E-3	518.066E-6
4.46973E-3	175.355E-12	632.332E-3	-17.8955E-3	178.117E-12	649.200E-3	-30.8722E-3
4.46473E-3	174.424E-12	625.197E-3	2.89653E-3	177.992E-12	632.911E-3	-27.6393E-3
4.45973E-3	174.563E-12	641.718E-3	14.0623E-3	177.504E-12	638.366E-3	-25.8617E-3
4.45473E-3	174.499E-12	670.203E-3	-8.49801E-3	176.974E-12	659.042E-3	-27.3491E-3
4.44972E-3	173.982E-12	686.251E-3	-19.4293E-3	177.436E-12	670.718E-3	-33.4378E-3
4.44472E-3	174.046E-12	668.501E-3	-20.3561E-3	176.729E-12	667.292E-3	-32.0338E-3
4.43972E-3	174.522E-12	641.342E-3	-19.8536E-3	177.081E-12	661.636E-3	-31.6177E-3
4.43472E-3	175.392E-12	643.705E-3	5.52804E-3	176.226E-12	666.323E-3	-17.7345E-3
4.42971E-3	175.371E-12	658.115E-3	8.59712E-3	176.140E-12	676.483E-3	-937.901E-6
4.42471E-3	175.439E-12	658.986E-3	-29.3369E-3	175.613E-12	669.567E-3	-14.8324E-3
4.41971E-3	176.555E-12	641.340E-3	-56.7067E-3	175.991E-12	651.493E-3	-7.27602E-3
4.41471E-3	176.559E-12	627.096E-3	-52.0186E-3	175.488E-12	640.419E-3	-1.05020E-3
4.40970E-3	176.667E-12	635.746E-3	-31.1996E-3	175.045E-12	630.852E-3	-21.7499E-3
4.40470E-3	175.892E-12	643.277E-3	-4.36881E-3	174.643E-12	635.585E-3	-15.3633E-3
4.39970E-3	175.248E-12	643.839E-3	-4.68210E-3	173.718E-12	671.485E-3	10.1801E-3
4.39470E-3	174.762E-12	625.146E-3	-30.6725E-3	173.525E-12	701.999E-3	15.1313E-3
4.38969E-3	174.051E-12	620.050E-3	-28.0899E-3	173.136E-12	682.669E-3	5.06875E-3
4.38469E-3	173.913E-12	642.060E-3	-18.3781E-3	172.933E-12	652.243E-3	-8.48688E-3
4.37969E-3	172.829E-12	650.838E-3	-28.9209E-3	173.053E-12	650.504E-3	-20.1816E-3
4.37469E-3	172.318E-12	659.486E-3	-27.1410E-3	173.378E-12	656.326E-3	-9.08997E-3
4.36968E-3	171.771E-12	660.864E-3	-7.39733E-3	173.046E-12	658.164E-3	15.3932E-3
4.36468E-3	171.434E-12	651.691E-3	-5.11852E-3	172.851E-12	643.362E-3	8.20533E-3
4.35968E-3	171.151E-12	643.899E-3	-14.6029E-3	173.062E-12	610.819E-3	-32.1455E-3
4.35468E-3	171.153E-12	652.443E-3	-19.3710E-3	172.007E-12	613.872E-3	-63.2458E-3
4.34967E-3	172.389E-12	660.512E-3	-37.1509E-3	171.608E-12	634.039E-3	-54.3076E-3
4.34467E-3	171.956E-12	642.931E-3	-58.2765E-3	170.924E-12	628.782E-3	-22.4867E-3
4.33967E-3	171.880E-12	625.930E-3	-67.2831E-3	170.767E-12	614.582E-3	1.41140E-3
4.33467E-3	172.014E-12	643.459E-3	-71.6631E-3	170.156E-12	601.756E-3	-971.810E-6
4.32966E-3	172.532E-12	677.042E-3	-67.2535E-3	169.897E-12	606.958E-3	-10.0733E-3
4.32466E-3	172.236E-12	681.510E-3	-51.7955E-3	169.462E-12	634.735E-3	359.803E-6
4.31966E-3	172.550E-12	670.189E-3	-50.5767E-3	168.985E-12	658.139E-3	-2.72305E-3
4.31466E-3	172.729E-12	671.017E-3	-41.4160E-3	168.922E-12	652.329E-3	-14.4790E-3
4.30965E-3	172.873E-12	671.144E-3	-9.02045E-3	168.299E-12	641.474E-3	-15.1264E-3
4.30465E-3	172.028E-12	665.947E-3	12.0454E-3	168.449E-12	648.793E-3	-30.9467E-3
4.29965E-3	171.594E-12	676.368E-3	8.54629E-3	169.044E-12	650.823E-3	-53.9619E-3
4.29465E-3	170.576E-12	683.122E-3	-15.2445E-3	169.420E-12	650.932E-3	-45.6068E-3
4.28964E-3	170.127E-12	673.166E-3	-37.5547E-3	169.747E-12	659.638E-3	-21.2580E-3
4.28464E-3	168.982E-12	665.510E-3	-36.0793E-3	170.124E-12	650.746E-3	-25.0046E-3
4.27964E-3	169.087E-12	658.637E-3	-15.8085E-3	171.063E-12	635.229E-3	-38.8397E-3
4.27464E-3	168.414E-12	649.665E-3	-387.433E-6	171.269E-12	654.274E-3	-41.7070E-3
4.26963E-3	167.790E-12	653.424E-3	3.26989E-3	171.615E-12	682.629E-3	-46.3842E-3
4.26463E-3	167.204E-12	661.869E-3	3.43701E-3	171.561E-12	687.102E-3	-53.0503E-3
4.25963E-3	167.348E-12	660.097E-3	903.294E-6	171.266E-12	686.317E-3	-63.2177E-3
4.25463E-3	167.726E-12	656.335E-3	-1.46014E-3	170.745E-12	681.881E-3	-60.7542E-3
4.24962E-3	166.815E-12	651.958E-3	2.43924E-3	170.344E-12	663.217E-3	-26.4886E-3
4.24462E-3	167.217E-12	651.556E-3	3.42154E-3	169.517E-12	651.262E-3	1.42161E-3
4.23962E-3	166.973E-12	660.350E-3	-743.504E-6	168.916E-12	652.964E-3	-15.5041E-3
4.23462E-3	167.101E-12	663.820E-3	-2.54885E-3	168.405E-12	640.170E-3	-48.4147E-3
4.22961E-3	166.338E-12	638.744E-3	8.20277E-3	167.205E-12	626.271E-3	-56.0862E-3
4.22461E-3	166.284E-12	611.458E-3	11.6225E-3	167.932E-12	640.367E-3	-39.2020E-3
4.21961E-3	165.797E-12	614.290E-3	-353.708E-6	166.533E-12	659.340E-3	-16.8961E-3
4.21461E-3	165.667E-12	630.807E-3	-3.55943E-3	166.667E-12	669.363E-3	1.30936E-3
4.20960E-3	165.218E-12	651.389E-3	2.49513E-3	166.324E-12	669.821E-3	696.603E-6
4.20460E-3	165.020E-12	682.571E-3	16.6220E-3	167.033E-12	660.929E-3	-18.8082E-3
4.19960E-3	165.302E-12	687.961E-3	3.63698E-3	167.133E-12	669.476E-3	-33.5697E-3
4.19460E-3	164.623E-12	662.974E-3	-34.3208E-3	167.087E-12	680.502E-3	-27.6483E-3
4.18959E-3	164.729E-12	656.749E-3	-46.4099E-3	167.925E-12	662.623E-3	-12.6264E-3
4.18459E-3	164.008E-12	661.840E-3	-28.8701E-3	167.816E-12	652.479E-3	-17.0228E-3
4.17959E-3	164.003E-12	671.493E-3	-16.1600E-3	167.930E-12	669.940E-3	-37.6264E-3
4.17459E-3	162.914E-12	682.297E-3	-24.8603E-3	167.693E-12	677.463E-3	-54.7344E-3
4.16958E-3	163.159E-12	672.042E-3	-48.2122E-3	167.715E-12	668.580E-3	-46.1834E-3
4.16458E-3	162.860E-12	659.284E-3	-61.6609E-3	167.358E-12	661.736E-3	-22.8472E-3
4.15958E-3	162.911E-12	668.508E-3	-31.8884E-3	167.000E-12	654.282E-3	-18.5094E-3
4.15458E-3	161.836E-12	670.265E-3	-1.50297E-3	166.289E-12	643.731E-3	-26.8767E-3
4.14957E-3	161.778E-12	667.845E-3	-11.8828E-3	165.309E-12	644.778E-3	-36.8615E-3
4.14457E-3	161.724E-12	665.819E-3	-18.3218E-3	164.961E-12	641.205E-3	-35.0421E-3
4.13957E-3	161.437E-12	649.391E-3	-8.11230E-3	163.245E-12	623.180E-3	-26.8769E-3
4.13457E-3	160.788E-12	639.997E-3	-3.66127E-3	163.095E-12	612.936E-3	-16.5284E-3
4.12956E-3	161.144E-12	636.235E-3	3.22039E-3	161.426E-12	604.662E-3	-6.36271E-3
4.12456E-3	160.364E-12	638.556E-3	-1.84174E-3	161.952E-12	616.099E-3	678.346E-6
4.11956E-3	160.608E-12	638.204E-3	-17.9840E-3	160.756E-12	659.278E-3	17.1976E-3
4.11456E-3	160.000E-12	633.671E-3	-24.1355E-3	161.273E-12	687.751E-3	11.6617E-3
4.10955E-3	160.452E-12	635.481E-3	-21.0265E-3	161.201E-12	677.232E-3	-9.70782E-3
4.10455E-3	160.734E-12	641.039E-3	-12.8850E-3	161.625E-12	667.464E-3	-15.2934E-3
4.09955E-3	161.419E-12	657.239E-3	-15.0329E-3	161.403E-12	669.235E-3	-11.5535E-3
4.09455E-3	161.355E-12	667.633E-3	-9.10951E-3	161.459E-12	638.312E-3	-99.0869E-6
4.08954E-3	161.640E-12	646.682E-3	5.60302E-3	162.133E-12	606.958E-3	1.40444E-3
4.08454E-3	161.535E-12	619.035E-3	4.52960E-3	161.379E-12	618.762E-3	-13.3093E-3
4.07954E-3	161.786E-12	625.769E-3	7.19503E-3	161.830E-12	636.437E-3	-38.1032E-3
4.07454E-3	161.344E-12	653.853E-3	14.1954E-3	161.089E-12	635.017E-3	-51.3973E-3
4.06953E-3	161.758E-12	672.910E-3	11.9168E-3	161.794E-12	629.070E-3	-44.0747E-3
4.06453E-3	161.064E-12	673.051E-3	5.61227E-3	160.841E-12	629.704E-3	-26.8862E-3
4.05953E-3	161.042E-12	653.085E-3	-12.9282E-3	160.549E-12	640.268E-3	2.69075E-3
4.05453E-3	160.422E-12	635.956E-3	-20.3290E-3	160.139E-12	663.297E-3	15.9315E-3
4.04952E-3	159.737E-12	643.296E-3	-1.89462E-3	159.668E-12	689.572E-3	22.1398E-3
4.04452E-3	158.913E-12	658.989E-3	-1.47941E-3	158.756E-12	696.654E-3	37.0554E-3
4.03952E-3	158.490E-12	667.976E-3	-12.3652E-3	158.375E-12	653.976E-3	26.2240E-3
4.03452E-3	157.699E-12	661.051E-3	-6.54175E-3	158.273E-12	601.460E-3	-2.07259E-3
4.02951E-3	157.418E-12	650.219E-3	7.22069E-3	157.548E-12	600.757E-3	-26.7286E-3
4.02451E-3	156.992E-12	657.430E-3	-1.45588E-3	157.233E-12	634.308E-3	-37.8072E-3
4.01951E-3	157.251E-12	660.774E-3	-24.7823E-3	157.022E-12	652.070E-3	-27.2601E-3
4.01451E-3	157.544E-12	645.246E-3	-28.7688E-3	157.466E-12	655.952E-3	-15.8756E-3
4.00950E-3	157.763E-12	632.776E-3	-23.7067E-3	157.332E-12	662.736E-3	-9.50374E-3
4.00450E-3	157.962E-12	640.770E-3	-13.0336E-3	157.516E-12	654.930E-3	617.258E-6
3.99950E-3	158.632E-12	642.796E-3	-5.28149E-3	156.620E-12	658.785E-3	5.43742E-3
3.99450E-3	158.724E-12	638.093E-3	-23.2673E-3	157.163E-12	675.372E-3	-8.05726E-3
3.98949E-3	159.460E-12	651.182E-3	-41.1105E-3	156.349E-12	673.521E-3	-8.06722E-3
3.98449E-3	159.908E-12	662.046E-3	-37.4625E-3	156.477E-12	666.579E-3	10.3257E-3
3.97949E-3	159.817E-12	660.581E-3	-35.6782E-3	156.126E-12	663.835E-3	-13.8539E-3
3.97449E-3	159.212E-12	668.825E-3	-32.7176E-3	156.601E-12	656.499E-3	-40.6656E-3
3.96948E-3	158.930E-12	682.404E-3	-33.3610E-3	156.265E-12	631.206E-3	-22.0773E-3
3.96448E-3	158.163E-12	684.501E-3	-37.7229E-3	156.271E-12	609.760E-3	-3.12277E-3
3.95948E-3	157.360E-12	677.382E-3	-30.8889E-3	155.997E-12	610.222E-3	-14.1118E-3
3.95448E-3	155.858E-12	674.046E-3	-16.8170E-3	155.946E-12	621.295E-3	-35.1041E-3
3.94947E-3	154.972E-12	682.552E-3	-21.9521E-3	155.415E-12	649.427E-3	-34.2821E-3
3.94447E-3	154.292E-12	685.487E-3	-49.6939E-3	155.800E-12	669.348E-3	-29.1177E-3
3.93947E-3	152.997E-12	675.385E-3	-51.2165E-3	154.981E-12	673.285E-3	-11.9202E-3
3.93447E-3	152.255E-12	651.414E-3	-19.7045E-3	155.331E-12	679.750E-3	6.58251E-3
3.92946E-3	151.464E-12	637.644E-3	8.31424E-3	154.651E-12	669.536E-3	-6.64308E-3
3.92446E-3	151.599E-12	648.816E-3	9.14399E-3	155.254E-12	660.291E-3	-12.7733E-3
3.91946E-3	151.093E-12	652.938E-3	-6.99439E-3	154.236E-12	667.497E-3	2.09390E-3
3.91446E-3	151.676E-12	631.810E-3	-21.9825E-3	154.039E-12	658.312E-3	9.81535E-3
3.90945E-3	151.515E-12	602.583E-3	-31.8587E-3	153.597E-12	640.221E-3	1.42971E-3
3.90445E-3	152.055E-12	603.815E-3	-33.8086E-3	153.060E-12	643.372E-3	-17.3578E-3
3.89945E-3	151.945E-12	636.105E-3	-39.3243E-3	152.003E-12	646.627E-3	-41.5873E-3
3.89445E-3	152.423E-12	649.492E-3	-50.5263E-3	151.435E-12	632.886E-3	-50.9068E-3
3.88944E-3	152.657E-12	636.176E-3	-40.7632E-3	151.265E-12	642.824E-3	-32.5744E-3
3.88444E-3	152.414E-12	627.699E-3	-24.6460E-3	151.078E-12	663.221E-3	-17.4285E-3
3.87944E-3	152.390E-12	633.974E-3	-28.8383E-3	151.163E-12	643.909E-3	-16.1035E-3
3.87444E-3	151.700E-12	655.852E-3	-32.4964E-3	151.768E-12	624.654E-3	-3.87011E-3
3.86943E-3	151.505E-12	668.850E-3	-29.0086E-3	151.552E-12	644.519E-3	1.19560E-3
3.86443E-3	150.875E-12	662.102E-3	-27.3554E-3	152.055E-12	664.255E-3	-19.2841E-3
3.85943E-3	149.887E-12	654.834E-3	-24.6715E-3	151.509E-12	657.875E-3	-31.2622E-3
3.85443E-3	150.237E-12	658.118E-3	-24.0274E-3	151.899E-12	651.178E-3	-38.5516E-3
3.84942E-3	149.023E-12	661.875E-3	-31.8383E-3	151.612E-12	669.769E-3	-60.4583E-3
3.84442E-3	148.844E-12	657.489E-3	-32.6732E-3	151.140E-12	691.701E-3	-60.5832E-3
3.83942E-3	148.049E-12	660.964E-3	-8.86248E-3	150.824E-12	691.521E-3	-32.5079E-3
3.83442E-3	147.972E-12	672.877E-3	16.9829E-3	150.878E-12	665.219E-3	-14.2572E-3
3.82941E-3	147.191E-12	684.527E-3	12.6455E-3	150.915E-12	646.415E-3	-19.7388E-3
3.82441E-3	147.654E-12	677.444E-3	9.11365E-3	150.401E-12	651.647E-3	-33.8974E-3
3.81941E-3	147.711E-12	657.598E-3	22.0513E-3	149.558E-12	642.650E-3	-29.9758E-3
3.81441E-3	147.147E-12	660.884E-3	17.5926E-3	149.187E-12	633.570E-3	1.25534E-3
3.80940E-3	147.254E-12	666.627E-3	-6.46856E-3	148.705E-12	647.850E-3	21.2776E-3
3.80440E-3	147.664E-12	651.163E-3	-22.5570E-3	147.892E-12	649.655E-3	-4.05320E-3
3.79940E-3	147.459E-12	645.377E-3	-23.9849E-3	147.909E-12	641.107E-3	-36.3765E-3
3.79440E-3	147.296E-12	650.419E-3	-36.1350E-3	147.715E-12	661.059E-3	-32.9158E-3
3.78939E-3	147.139E-12	648.685E-3	-57.5906E-3	147.402E-12	656.961E-3	-13.6340E-3
3.78439E-3	147.380E-12	638.808E-3	-57.9941E-3	146.980E-12	625.422E-3	-18.9938E-3
3.77939E-3	147.145E-12	627.586E-3	-27.1365E-3	146.986E-12	639.942E-3	-36.2956E-3
3.77439E-3	147.192E-12	631.656E-3	-8.16081E-3	147.001E-12	666.899E-3	-40.6062E-3
3.76938E-3	147.066E-12	638.686E-3	-15.5308E-3	147.284E-12	669.727E-3	-36.2885E-3
3.76438E-3	147.233E-12	644.493E-3	-18.9950E-3	147.419E-12	662.435E-3	-19.7798E-3
3.75938E-3	147.148E-12	652.935E-3	-12.0809E-3	147.683E-12	651.261E-3	-12.7887E-3
3.75438E-3	147.043E-12	649.403E-3	-7.89400E-3	148.031E-12	645.596E-3	-26.2404E-3
3.74937E-3	147.158E-12	639.504E-3	-8.85311E-3	147.361E-12	649.724E-3	-40.5559E-3
3.74437E-3	146.851E-12	644.337E-3	-5.17870E-3	147.358E-12	670.377E-3	-51.3822E-3
3.73937E-3	146.951E-12	667.488E-3	-5.91116E-3	146.801E-12	683.775E-3	-50.4744E-3
3.73437E-3	147.165E-12	687.720E-3	-19.7566E-3	146.169E-12	681.141E-3	-37.6877E-3
3.72936E-3	146.821E-12	681.295E-3	-31.8030E-3	144.902E-12	680.859E-3	-31.8674E-3
3.72436E-3	146.547E-12	671.785E-3	-25.0666E-3	144.452E-12	667.836E-3	-29.8061E-3
3.71936E-3	146.254E-12	673.638E-3	-16.9895E-3	143.648E-12	656.836E-3	-22.1684E-3
3.71436E-3	145.482E-12	667.537E-3	-15.6216E-3	143.187E-12	680.745E-3	-6.77209E-3
3.70935E-3	145.108E-12	667.865E-3	-11.3393E-3	142.637E-12	699.336E-3	7.47665E-3
3.70435E-3	144.555E-12	671.343E-3	-12.6854E-3	142.722E-12	672.134E-3	-801.862E-6
3.69935E-3	144.271E-12	673.735E-3	-35.4345E-3	142.562E-12	639.409E-3	-28.3026E-3
3.69435E-3	144.002E-12	684.499E-3	-57.4269E-3	142.672E-12	644.325E-3	-40.5851E-3
3.68934E-3	143.366E-12	681.063E-3	-50.4314E-3	142.808E-12	661.799E-3	-36.1956E-3
3.68434E-3	143.175E-12	665.933E-3	-38.8414E-3	143.080E-12	667.874E-3	-36.0037E-3
3.67934E-3	142.365E-12	659.460E-3	-32.6759E-3	143.328E-12	674.859E-3	-29.5377E-3
3.67434E-3	142.749E-12	654.566E-3	-21.6767E-3	143.377E-12	679.772E-3	-21.5514E-3
3.66933E-3	142.888E-12	654.424E-3	-16.7827E-3	143.817E-12	676.023E-3	-16.7642E-3
3.66433E-3	142.847E-12	652.975E-3	-23.1968E-3	143.624E-12	673.373E-3	-8.87949E-3
3.65933E-3	143.122E-12	645.109E-3	-24.6142E-3	143.887E-12	672.328E-3	7.37291E-3
3.65433E-3	143.543E-12	652.293E-3	-17.8224E-3	143.587E-12	675.310E-3	29.1385E-3
3.64932E-3	143.854E-12	668.934E-3	-18.8876E-3	143.439E-12	672.550E-3	11.2523E-3
3.64432E-3	144.054E-12	669.583E-3	-23.7685E-3	142.805E-12	669.277E-3	-28.7207E-3
3.63932E-3	144.008E-12	645.829E-3	-22.9971E-3	142.213E-12	693.578E-3	-39.4155E-3
3.63432E-3	143.653E-12	630.189E-3	-33.9946E-3	142.162E-12	696.917E-3	-37.2372E-3
3.62931E-3	143.005E-12	643.486E-3	-36.6980E-3	141.526E-12	661.077E-3	-40.3122E-3
3.62431E-3	142.545E-12	656.157E-3	-21.2809E-3	141.343E-12	653.770E-3	-42.1653E-3
3.61931E-3	141.600E-12	653.305E-3	-22.0212E-3	140.691E-12	672.894E-3	-33.1862E-3
3.61431E-3	140.604E-12	655.369E-3	-35.3357E-3	140.251E-12	676.121E-3	-18.6529E-3
3.60930E-3	139.635E-12	671.033E-3	-44.5086E-3	140.398E-12	669.996E-3	-3.88047E-3
3.60430E-3	138.482E-12	677.964E-3	-36.0551E-3	139.379E-12	668.124E-3	1.45255E-3
3.59930E-3	138.361E-12	666.047E-3	-8.46612E-3	139.415E-12	666.243E-3	-3.81997E-3
3.59430E-3	137.314E-12	659.269E-3	-11.2447E-3	139.148E-12	660.409E-3	459.072E-6
3.58929E-3	137.222E-12	657.830E-3	-41.6850E-3	139.039E-12	661.430E-3	9.52130E-3
3.58429E-3	137.283E-12	645.203E-3	-31.7514E-3	138.579E-12	660.062E-3	2.73742E-3
3.57929E-3	137.293E-12	639.333E-3	-10.6951E-3	138.787E-12	658.784E-3	-2.15139E-3
3.57429E-3	137.726E-12	647.047E-3	-5.41892E-3	138.775E-12	671.454E-3	-425.005E-6
3.56928E-3	137.971E-12	654.611E-3	-42.9242E-6	138.791E-12	667.694E-3	-15.6122E-3
3.56428E-3	138.487E-12	656.271E-3	-6.47283E-3	138.440E-12	659.177E-3	-17.7938E-3
3.55928E-3	138.668E-12	658.606E-3	-12.2780E-3	138.506E-12	678.070E-3	-9.23057E-3
3.55428E-3	139.201E-12	669.909E-3	-23.0485E-3	138.172E-12	696.319E-3	-17.7320E-3
3.54927E-3	138.687E-12	664.102E-3	-30.7453E-3	137.918E-12	693.591E-3	-17.9060E-3
3.54427E-3	138.824E-12	629.272E-3	-20.1748E-3	137.791E-12	687.218E-3	-11.4883E-3
3.53927E-3	137.647E-12	610.946E-3	-22.8558E-3	137.828E-12	681.556E-3	-3.71904E-3
3.53427E-3	137.185E-12	621.678E-3	-31.3078E-3	137.536E-12	664.938E-3	6.14719E-3
3.52926E-3	136.020E-12	629.692E-3	-24.3644E-3	137.111E-12	656.298E-3	1.80579E-3
3.52426E-3	135.373E-12	636.328E-3	-18.8965E-3	137.215E-12	667.702E-3	-13.5803E-3
3.51926E-3	134.080E-12	650.432E-3	-24.4028E-3	136.951E-12	675.887E-3	-22.3763E-3
3.51426E-3	133.202E-12	660.602E-3	-23.9334E-3	136.220E-12	674.443E-3	-23.7298E-3
3.50925E-3	132.845E-12	655.743E-3	-11.4110E-3	135.660E-12	662.613E-3	-30.1875E-3
3.50425E-3	132.329E-12	646.171E-3	2.06550E-3	135.229E-12	640.439E-3	-31.8857E-3
3.49925E-3	131.744E-12	639.453E-3	125.044E-6	135.034E-12	635.662E-3	-16.5720E-3
3.49425E-3	132.135E-12	635.396E-3	-13.6014E-3	134.079E-12	656.860E-3	2.15826E-3
3.48924E-3	132.145E-12	637.069E-3	-25.1751E-3	134.035E-12	684.947E-3	5.00561E-3
3.48424E-3	132.723E-12	641.107E-3	-30.8162E-3	133.928E-12	699.921E-3	1.19040E-3
3.47924E-3	133.242E-12	627.297E-3	-22.7889E-3	133.356E-12	682.488E-3	4.92058E-3
3.47424E-3	134.146E-12	607.988E-3	-9.81350E-3	133.198E-12	652.652E-3	7.73319E-3
3.46923E-3	134.452E-12	616.651E-3	-17.2780E-3	133.291E-12	655.330E-3	-11.8669E-3
3.46423E-3	134.404E-12	627.666E-3	-17.6036E-3	133.556E-12	698.024E-3	-33.0459E-3
3.45923E-3	134.495E-12	627.920E-3	-3.91881E-3	133.535E-12	722.824E-3	-3.64711E-3
3.45423E-3	133.898E-12	638.065E-3	-7.97168E-3	133.367E-12	713.774E-3	28.8081E-3
3.44922E-3	134.162E-12	657.781E-3	-18.1605E-3	133.466E-12	705.339E-3	-2.61926E-3
3.44422E-3	132.958E-12	660.309E-3	-33.7037E-3	133.375E-12	705.640E-3	-39.3274E-3
3.43922E-3	132.627E-12	658.891E-3	-26.5744E-3	133.474E-12	708.194E-3	-16.2011E-3
3.43422E-3	132.481E-12	670.458E-3	-4.74725E-3	133.819E-12	694.762E-3	8.72284E-3
3.42921E-3	131.905E-12	660.341E-3	-19.5702E-3	133.743E-12	674.790E-3	-7.92099E-3
3.42421E-3	131.192E-12	647.379E-3	-41.8567E-3	133.399E-12	678.104E-3	-22.7944E-3
3.41921E-3	130.988E-12	652.133E-3	-35.1527E-3	132.980E-12	694.676E-3	-23.0002E-3
3.41421E-3	130.673E-12	651.717E-3	-13.1851E-3	132.549E-12	690.305E-3	-14.6931E-3
3.40920E-3	129.984E-12	652.514E-3	-16.2043E-3	131.601E-12	658.758E-3	-420.959E-6
3.40420E-3	131.013E-12	660.412E-3	-36.5851E-3	131.461E-12	638.829E-3	8.75607E-3
3.39920E-3	130.650E-12	663.231E-3	-31.6821E-3	130.723E-12	652.059E-3	12.3031E-3
3.39420E-3	131.097E-12	664.321E-3	-23.7843E-3	130.532E-12	666.782E-3	-432.852E-6
3.38919E-3	130.912E-12	661.676E-3	-19.0989E-3	129.642E-12	669.216E-3	-10.1488E-3
3.38419E-3	132.052E-12	665.126E-3	-1.53068E-3	129.239E-12	666.139E-3	-845.773E-6
3.37919E-3	131.461E-12	685.030E-3	1.37110E-3	128.990E-12	652.400E-3	-9.66344E-3
3.37419E-3	131.911E-12	695.338E-3	8.57165E-3	128.572E-12	642.380E-3	-26.6313E-3
3.36918E-3	131.643E-12	693.302E-3	19.7862E-3	128.393E-12	658.806E-3	-35.0410E-3
3.36418E-3	131.051E-12	702.041E-3	-1.45654E-3	128.041E-12	688.067E-3	-29.9466E-3
3.35918E-3	130.930E-12	698.678E-3	-20.1574E-3	128.268E-12	701.029E-3	-10.3558E-3
3.35418E-3	129.856E-12	681.974E-3	-16.9760E-3	128.336E-12	689.662E-3	-9.99531E-3
3.34917E-3	129.256E-12	687.554E-3	-20.8072E-3	128.671E-12	666.380E-3	-25.1875E-3
3.34417E-3	128.256E-12	687.471E-3	-38.6218E-3	129.145E-12	658.190E-3	-30.4392E-3
3.33917E-3	128.229E-12	673.341E-3	-48.8923E-3	129.404E-12	664.878E-3	-19.7374E-3
3.33417E-3	126.752E-12	674.636E-3	-26.3673E-3	129.649E-12	668.059E-3	-5.59656E-3
3.32916E-3	126.748E-12	680.018E-3	2.13246E-3	128.695E-12	664.128E-3	-1.07876E-3
3.32416E-3	126.594E-12	685.227E-3	-9.19025E-3	128.985E-12	656.569E-3	-10.5089E-3
3.31916E-3	126.563E-12	692.326E-3	-24.2500E-3	127.727E-12	656.811E-3	-26.3581E-3
3.31416E-3	126.130E-12	682.892E-3	-15.7382E-3	127.043E-12	668.811E-3	-31.5918E-3
3.30915E-3	126.623E-12	655.374E-3	-7.90240E-3	126.449E-12	667.764E-3	-26.7153E-3
3.30415E-3	126.590E-12	642.886E-3	-3.74200E-3	126.010E-12	652.308E-3	-4.51846E-3
3.29915E-3	126.520E-12	658.541E-3	-3.38473E-3	124.750E-12	645.730E-3	18.1760E-3
3.29415E-3	127.091E-12	680.270E-3	-13.0661E-3	124.328E-12	656.363E-3	3.71392E-3
3.28914E-3	126.573E-12	692.636E-3	-25.0777E-3	124.583E-12	674.714E-3	-30.1467E-3
3.28414E-3	126.556E-12	700.394E-3	-24.9830E-3	123.926E-12	679.616E-3	-34.8825E-3
3.27914E-3	125.756E-12	703.537E-3	-15.7746E-3	124.030E-12	670.946E-3	-13.6718E-3
3.27414E-3	125.445E-12	687.838E-3	-16.6382E-3	123.760E-12	663.689E-3	-16.8838E-3
3.26913E-3	124.434E-12	683.156E-3	-33.6302E-3	123.935E-12	672.414E-3	-40.1363E-3
3.26413E-3	123.778E-12	691.825E-3	-45.2316E-3	124.120E-12	684.575E-3	-46.1677E-3
3.25913E-3	123.341E-12	666.575E-3	-34.0273E-3	124.460E-12	684.700E-3	-33.5333E-3
3.25413E-3	122.646E-12	653.969E-3	-7.39421E-3	124.833E-12	682.948E-3	-19.8231E-3
3.24912E-3	122.992E-12	678.597E-3	-1.59681E-3	125.449E-12	691.199E-3	-13.3961E-3
3.24412E-3	121.990E-12	682.403E-3	-22.1744E-3	125.818E-12	708.179E-3	-6.01038E-3
3.23912E-3	122.402E-12	671.778E-3	-30.4256E-3	125.597E-12	710.123E-3	11.7773E-3
3.23412E-3	122.019E-12	676.350E-3	-24.0391E-3	125.669E-12	700.675E-3	25.1713E-3
3.22911E-3	122.441E-12	685.882E-3	-7.80913E-3	125.629E-12	694.087E-3	16.6444E-3
3.22411E-3	122.539E-12	680.085E-3	8.04793E-3	124.881E-12	674.770E-3	5.05829E-3
3.21911E-3	123.054E-12	666.861E-3	4.73249E-3	124.328E-12	657.634E-3	-12.1745E-3
3.21411E-3	123.279E-12	655.796E-3	-7.34698E-3	123.803E-12	659.337E-3	-38.4858E-3
3.20910E-3	123.145E-12	650.826E-3	-12.8250E-3	123.300E-12	659.372E-3	-40.1491E-3
3.20410E-3	123.156E-12	657.107E-3	-20.2351E-3	122.389E-12	650.403E-3	-26.4382E-3
3.19910E-3	123.226E-12	668.160E-3	-38.5070E-3	122.185E-12	653.505E-3	-28.4922E-3
3.19410E-3	122.558E-12	676.507E-3	-42.7763E-3	121.401E-12	677.990E-3	-33.0175E-3
3.18909E-3	122.197E-12	689.471E-3	-24.0576E-3	121.138E-12	705.919E-3	-13.8529E-3
3.18409E-3	121.413E-12	704.373E-3	-17.0548E-3	120.348E-12	705.257E-3	4.35631E-3
3.17909E-3	121.060E-12	701.946E-3	-20.4979E-3	120.587E-12	666.118E-3	-12.7404E-3
3.17409E-3	120.074E-12	693.366E-3	-17.3989E-3	120.279E-12	627.830E-3	-40.0433E-3
3.16908E-3	120.086E-12	692.050E-3	-28.1104E-3	120.232E-12	630.002E-3	-44.9849E-3
3.16408E-3	119.587E-12	688.760E-3	-29.3975E-3	120.142E-12	659.377E-3	-25.6510E-3
3.15908E-3	119.469E-12	676.726E-3	-8.99549E-3	120.145E-12	684.821E-3	5.67738E-3
3.15408E-3	119.176E-12	672.120E-3	-7.55372E-3	120.599E-12	698.587E-3	16.4792E-3
3.14907E-3	118.843E-12	675.378E-3	-7.94660E-3	120.611E-12	698.168E-3	-715.768E-6
3.14407E-3	119.240E-12	680.543E-3	-1.84722E-3	121.575E-12	693.502E-3	-16.0278E-3
3.13907E-3	119.273E-12	681.526E-3	-12.0971E-3	121.030E-12	698.701E-3	-14.3017E-3
3.13407E-3	119.444E-12	683.944E-3	-9.19527E-3	121.306E-12	698.378E-3	-3.60984E-3
3.12906E-3	119.663E-12	696.212E-3	13.4289E-3	120.691E-12	682.213E-3	-412.066E-6
3.12406E-3	119.480E-12	686.062E-3	12.7711E-3	121.098E-12	676.001E-3	-6.92801E-3
3.11906E-3	119.670E-12	667.269E-3	-15.9819E-3	120.206E-12	690.709E-3	-20.2008E-3
3.11406E-3	118.727E-12	674.034E-3	-35.8602E-3	120.148E-12	711.316E-3	-23.3426E-3
3.10905E-3	118.487E-12	685.698E-3	-33.0792E-3	119.460E-12	722.017E-3	-17.7902E-3
3.10405E-3	117.364E-12	685.462E-3	-11.6570E-3	119.665E-12	700.509E-3	-21.8783E-3
3.09905E-3	116.521E-12	669.141E-3	6.12048E-3	118.985E-12	661.882E-3	-24.0748E-3
3.09405E-3	115.697E-12	655.933E-3	-3.31470E-3	118.424E-12	649.959E-3	-18.5622E-3
3.08904E-3	115.266E-12	659.563E-3	-17.8179E-3	117.547E-12	660.835E-3	-3.05498E-3
3.08404E-3	114.645E-12	661.295E-3	-22.8513E-3	117.100E-12	668.377E-3	16.6128E-3
3.07904E-3	114.042E-12	673.166E-3	-22.4606E-3	116.605E-12	667.368E-3	10.2032E-3
3.07404E-3	114.067E-12	681.414E-3	-14.9375E-3	115.967E-12	658.025E-3	-20.6815E-3
3.06903E-3	113.897E-12	676.262E-3	-11.4968E-3	115.882E-12	655.063E-3	-48.7438E-3
3.06403E-3	113.929E-12	676.756E-3	-22.5704E-3	115.264E-12	681.058E-3	-49.7430E-3
3.05903E-3	113.987E-12	674.027E-3	-21.8285E-3	115.162E-12	709.526E-3	-26.2393E-3
3.05403E-3	114.517E-12	671.370E-3	-10.9652E-3	114.627E-12	703.489E-3	-11.2854E-3
3.04902E-3	115.048E-12	672.544E-3	-9.61810E-3	114.743E-12	687.542E-3	-14.5376E-3
3.04402E-3	115.425E-12	673.932E-3	-6.61196E-3	114.206E-12	687.777E-3	-23.7016E-3
3.03902E-3	115.705E-12	670.301E-3	-17.3945E-3	114.136E-12	683.256E-3	-38.0427E-3
3.03402E-3	115.959E-12	669.072E-3	-33.8463E-3	114.380E-12	685.732E-3	-32.8367E-3
3.02901E-3	115.794E-12	684.736E-3	-24.1364E-3	113.915E-12	696.821E-3	-10.4212E-3
3.02401E-3	114.984E-12	709.047E-3	-11.7529E-3	114.219E-12	687.165E-3	-17.4696E-3
3.01901E-3	114.529E-12	722.707E-3	-26.9062E-3	113.943E-12	689.666E-3	-36.9692E-3
3.01401E-3	113.807E-12	703.328E-3	-29.5906E-3	114.407E-12	712.610E-3	-34.5765E-3
3.00900E-3	113.097E-12	665.774E-3	-13.6903E-3	113.676E-12	708.395E-3	-16.1137E-3
3.00400E-3	112.242E-12	661.343E-3	-4.49832E-3	113.386E-12	682.058E-3	-4.12738E-3
2.99900E-3	111.799E-12	688.124E-3	2.12297E-3	113.236E-12	668.323E-3	-9.85434E-3
2.99400E-3	111.278E-12	690.156E-3	1.71865E-3	112.307E-12	663.745E-3	-19.1434E-3
2.98899E-3	111.075E-12	675.740E-3	-5.60253E-3	111.879E-12	677.101E-3	-19.6447E-3
2.98399E-3	110.538E-12	679.619E-3	-23.3643E-3	110.863E-12	701.517E-3	-19.1950E-3
2.97899E-3	110.902E-12	672.730E-3	-30.5107E-3	110.541E-12	700.747E-3	-21.7151E-3
2.97399E-3	110.943E-12	660.791E-3	-19.1717E-3	110.158E-12	686.179E-3	-6.94563E-3
2.96898E-3	111.068E-12	678.148E-3	-16.5375E-3	109.442E-12	680.172E-3	5.89247E-3
2.96398E-3	111.644E-12	693.581E-3	-19.5282E-3	108.766E-12	678.489E-3	-17.2334E-3
2.95898E-3	111.896E-12	684.847E-3	-13.2180E-3	108.850E-12	690.467E-3	-33.5896E-3
2.95398E-3	112.103E-12	675.456E-3	-140.180E-6	108.281E-12	705.707E-3	-14.0052E-3
2.94897E-3	112.250E-12	678.781E-3	2.16425E-3	108.235E-12	689.022E-3	-6.02951E-3
2.94397E-3	112.420E-12	685.652E-3	-13.0717E-3	108.235E-12	669.733E-3	-13.9810E-3
2.93897E-3	111.885E-12	684.387E-3	-25.6725E-3	109.034E-12	684.240E-3	-8.97375E-3
2.93397E-3	111.494E-12	679.572E-3	-17.3252E-3	109.222E-12	694.471E-3	-4.18099E-3
2.92896E-3	110.758E-12	682.895E-3	3.62338E-3	109.594E-12	671.707E-3	-1.84337E-3
2.92396E-3	110.155E-12	690.346E-3	9.93176E-3	110.123E-12	661.071E-3	-3.44556E-3
2.91896E-3	109.179E-12	688.882E-3	-269.811E-6	110.404E-12	673.417E-3	-24.6464E-3
2.91396E-3	108.879E-12	692.208E-3	-1.21167E-3	110.310E-12	681.399E-3	-40.2369E-3
2.90895E-3	108.127E-12	696.489E-3	3.27358E-3	110.595E-12	694.153E-3	-35.4381E-3
2.90395E-3	107.623E-12	683.320E-3	-3.65137E-3	110.369E-12	696.588E-3	-30.9728E-3
2.89895E-3	107.187E-12	668.721E-3	-8.78510E-3	109.863E-12	684.258E-3	-28.6783E-3
2.89395E-3	107.165E-12	682.474E-3	-544.260E-6	109.263E-12	688.720E-3	-22.6656E-3
2.88894E-3	106.827E-12	699.829E-3	189.688E-6	108.304E-12	710.187E-3	-19.0250E-3
2.88394E-3	106.684E-12	688.209E-3	-10.5848E-3	107.744E-12	718.474E-3	-9.02870E-3
2.87894E-3	106.741E-12	678.938E-3	-11.3487E-3	106.753E-12	694.981E-3	547.346E-6
2.87394E-3	106.866E-12	689.756E-3	-10.1460E-3	106.095E-12	671.274E-3	-10.2254E-3
2.86893E-3	107.125E-12	697.601E-3	-1.43411E-3	105.192E-12	671.644E-3	-26.7736E-3
2.86393E-3	107.140E-12	690.878E-3	18.3016E-3	105.153E-12	686.994E-3	-31.4220E-3
2.85893E-3	106.653E-12	683.941E-3	16.3554E-3	105.102E-12	698.435E-3	-24.9882E-3
2.85393E-3	106.635E-12	677.866E-3	1.74041E-3	105.120E-12	691.908E-3	-15.2460E-3
2.84892E-3	106.587E-12	679.998E-3	670.637E-6	105.038E-12	688.980E-3	-13.4658E-3
2.84392E-3	105.641E-12	707.138E-3	4.06565E-3	105.335E-12	699.199E-3	-14.2349E-3
2.83892E-3	105.126E-12	715.608E-3	-5.91816E-3	105.559E-12	704.563E-3	-17.9494E-3
2.83392E-3	104.700E-12	688.031E-3	-20.5531E-3	105.861E-12	700.908E-3	-18.9649E-3
2.82891E-3	103.978E-12	673.808E-3	-4.96610E-3	106.234E-12	694.305E-3	-18.1092E-3
2.82391E-3	103.702E-12	678.675E-3	25.2693E-3	106.885E-12	696.184E-3	-16.9308E-3
2.81891E-3	103.094E-12	686.437E-3	22.4467E-3	106.644E-12	712.802E-3	-6.69836E-3
2.81391E-3	103.210E-12	690.273E-3	-5.61137E-3	106.678E-12	728.686E-3	-6.90000E-3
2.80890E-3	103.128E-12	683.146E-3	-21.8539E-3	106.218E-12	732.387E-3	-10.9843E-3
2.80390E-3	103.010E-12	678.645E-3	-25.2866E-3	105.635E-12	718.778E-3	-10.7237E-3
2.79890E-3	103.239E-12	680.674E-3	-30.4026E-3	105.162E-12	703.382E-3	-9.76986E-3
2.79390E-3	103.158E-12	679.533E-3	-30.5747E-3	104.282E-12	701.707E-3	-9.11687E-3
2.78889E-3	102.791E-12	669.793E-3	-20.9046E-3	103.585E-12	702.248E-3	-20.0196E-3
2.78389E-3	102.933E-12	671.227E-3	-5.13871E-3	102.811E-12	705.290E-3	-20.0735E-3
2.77889E-3	102.949E-12	686.158E-3	2.85742E-3	102.312E-12	702.023E-3	-9.38041E-3
2.77389E-3	102.987E-12	701.390E-3	-1.45464E-3	101.599E-12	679.699E-3	-19.2592E-3
2.76888E-3	102.405E-12	716.861E-3	6.18673E-3	100.993E-12	655.637E-3	-42.7319E-3
2.76388E-3	102.279E-12	708.017E-3	21.8031E-3	101.053E-12	660.082E-3	-48.5702E-3
2.75888E-3	101.669E-12	691.982E-3	16.1616E-3	100.795E-12	687.021E-3	-27.8782E-3
2.75388E-3	101.241E-12	696.573E-3	3.90676E-3	100.743E-12	693.586E-3	-9.54926E-3
2.74887E-3	100.634E-12	701.853E-3	13.2631E-3	100.631E-12	676.788E-3	-21.1394E-3
2.74387E-3	99.9066E-12	708.802E-3	18.0805E-3	100.664E-12	663.350E-3	-59.2929E-3
2.73887E-3	99.6499E-12	714.244E-3	-107.013E-6	100.459E-12	665.054E-3	-76.5027E-3
2.73387E-3	99.4444E-12	699.249E-3	-20.9877E-3	100.326E-12	682.717E-3	-46.7198E-3
2.72886E-3	99.3070E-12	682.074E-3	-13.7433E-3	100.268E-12	694.800E-3	-9.63471E-3
2.72386E-3	99.3266E-12	690.326E-3	12.2084E-3	100.148E-12	695.946E-3	73.0154E-6
2.71886E-3	99.4320E-12	716.372E-3	15.2189E-3	100.086E-12	697.117E-3	-14.3370E-3
2.71386E-3	99.0800E-12	721.562E-3	-2.12468E-3	99.8185E-12	694.896E-3	-23.0175E-3
2.70885E-3	99.3044E-12	694.369E-3	-19.6863E-3	99.5253E-12	695.471E-3	-11.1591E-3
2.70385E-3	99.1750E-12	670.219E-3	-22.9121E-3	99.3850E-12	694.333E-3	8.55024E-3
2.69885E-3	99.3231E-12	677.938E-3	-11.5903E-3	98.6704E-12	688.348E-3	11.4251E-3
2.69385E-3	98.9829E-12	707.454E-3	-1.55867E-3	98.3002E-12	684.815E-3	-11.6936E-3
2.68884E-3	98.8619E-12	714.662E-3	-12.7344E-3	98.1485E-12	688.560E-3	-30.6974E-3
2.68384E-3	98.7820E-12	688.308E-3	-41.2727E-3	97.6975E-12	701.034E-3	-26.7890E-3
2.67884E-3	98.3146E-12	673.354E-3	-49.0554E-3	97.3572E-12	704.024E-3	-5.39093E-3
2.67384E-3	97.7368E-12	692.426E-3	-36.0023E-3	97.1031E-12	702.043E-3	592.337E-6
2.66883E-3	97.3713E-12	717.481E-3	-26.4410E-3	96.7955E-12	703.925E-3	-21.4173E-3
2.66383E-3	97.4150E-12	723.143E-3	-26.6180E-3	96.4970E-12	707.031E-3	-27.4424E-3
2.65883E-3	96.6782E-12	719.058E-3	-31.0264E-3	96.0895E-12	704.398E-3	-8.73486E-3
2.65383E-3	96.4059E-12	706.231E-3	-20.7470E-3	95.9212E-12	694.726E-3	-646.554E-6
2.64882E-3	95.9377E-12	700.117E-3	-5.16654E-3	95.5316E-12	692.915E-3	-6.49348E-3
2.64382E-3	96.1609E-12	715.763E-3	-2.76689E-3	95.3832E-12	698.997E-3	-11.8640E-3
2.63882E-3	95.5188E-12	724.628E-3	-25.6539E-3	95.0136E-12	708.608E-3	-19.8138E-3
2.63382E-3	95.6663E-12	709.028E-3	-56.2345E-3	94.9542E-12	716.269E-3	-18.9288E-3
2.62881E-3	95.9479E-12	685.834E-3	-45.0228E-3	94.9965E-12	710.631E-3	1.57664E-3
2.62381E-3	95.7815E-12	675.786E-3	-17.0959E-3	95.0016E-12	688.934E-3	1.99423E-3
2.61881E-3	95.9632E-12	695.522E-3	-18.5674E-3	94.7797E-12	683.658E-3	-33.6199E-3
2.61381E-3	95.4626E-12	718.303E-3	-27.2659E-3	94.7876E-12	705.883E-3	-59.7407E-3
2.60880E-3	95.7874E-12	711.652E-3	-30.3020E-3	94.7797E-12	725.455E-3	-40.2984E-3
2.60380E-3	95.3800E-12	703.272E-3	-36.1259E-3	95.1002E-12	722.044E-3	-1.20974E-3
2.59880E-3	95.2295E-12	707.120E-3	-25.5839E-3	95.2370E-12	702.201E-3	9.83499E-3
2.59380E-3	94.4741E-12	717.083E-3	-8.60217E-3	95.2927E-12	697.974E-3	-7.08357E-3
2.58879E-3	93.8861E-12	728.463E-3	-12.0897E-3	95.1421E-12	719.423E-3	-26.6162E-3
2.58379E-3	93.2527E-12	723.354E-3	-23.8776E-3	95.1927E-12	730.610E-3	-27.8107E-3
2.57879E-3	92.5836E-12	706.926E-3	-28.4446E-3	94.8627E-12	721.942E-3	-14.4299E-3
2.57379E-3	92.0469E-12	703.125E-3	-23.7841E-3	94.8289E-12	711.365E-3	-10.7714E-3
2.56878E-3	91.8357E-12	703.395E-3	-4.75707E-3	94.2737E-12	702.889E-3	-12.8985E-3
2.56378E-3	91.3419E-12	694.380E-3	-4.77375E-3	93.7867E-12	712.111E-3	-13.9493E-3
2.55878E-3	90.8234E-12	677.442E-3	-38.3116E-3	93.0933E-12	721.017E-3	-15.3900E-3
2.55378E-3	91.0622E-12	660.610E-3	-40.6832E-3	92.6685E-12	707.654E-3	2.46737E-3
2.54877E-3	90.8299E-12	662.895E-3	-10.9382E-3	91.9607E-12	706.753E-3	9.74050E-3
2.54377E-3	90.7842E-12	692.643E-3	-3.17217E-3	91.2576E-12	706.351E-3	-23.3506E-3
2.53877E-3	90.9468E-12	720.572E-3	-12.6872E-3	91.2199E-12	689.514E-3	-42.0408E-3
2.53377E-3	90.9355E-12	725.598E-3	-19.3307E-3	90.7486E-12	697.711E-3	-17.5980E-3
2.52876E-3	90.9872E-12	717.481E-3	-27.1983E-3	90.8881E-12	723.018E-3	6.72967E-3
2.52376E-3	91.0262E-12	702.594E-3	-36.3982E-3	90.5368E-12	723.905E-3	9.37931E-3
2.51876E-3	90.4779E-12	698.562E-3	-27.5704E-3	90.5147E-12	710.461E-3	13.0880E-3
2.51376E-3	90.1730E-12	720.010E-3	-15.8752E-3	90.7818E-12	715.300E-3	9.69819E-3
2.50875E-3	89.7752E-12	741.133E-3	-19.3332E-3	90.9854E-12	735.273E-3	-590.541E-6
2.50375E-3	89.4267E-12	731.540E-3	-13.5828E-3	91.4336E-12	743.957E-3	5.16607E-3
2.49875E-3	88.7229E-12	707.783E-3	-15.8965E-3	91.3396E-12	736.471E-3	3.69993E-3
2.49375E-3	87.9417E-12	706.937E-3	-38.0469E-3	91.7349E-12	721.851E-3	-14.9423E-3
2.48874E-3	87.2427E-12	723.693E-3	-35.3436E-3	91.5142E-12	728.462E-3	-23.5615E-3
2.48374E-3	86.9770E-12	719.729E-3	-17.5433E-3	91.2548E-12	751.988E-3	-13.9791E-3
2.47874E-3	86.7179E-12	703.984E-3	-16.9387E-3	90.6366E-12	745.244E-3	6.37627E-3
2.47374E-3	86.5326E-12	712.762E-3	-25.8863E-3	89.8501E-12	725.515E-3	16.7989E-3
2.46873E-3	86.5649E-12	733.075E-3	-29.1211E-3	88.7521E-12	714.696E-3	5.97474E-3
2.46373E-3	86.6710E-12	737.804E-3	-25.4478E-3	87.8082E-12	703.853E-3	-7.93556E-3
2.45873E-3	86.7867E-12	730.398E-3	-27.3729E-3	87.0079E-12	706.331E-3	-13.4840E-3
2.45373E-3	86.9237E-12	724.271E-3	-30.6646E-3	86.1147E-12	721.517E-3	-18.8754E-3
2.44872E-3	87.2692E-12	722.648E-3	-30.0891E-3	85.4691E-12	721.370E-3	-20.0600E-3
2.44372E-3	87.3814E-12	730.879E-3	-21.3817E-3	84.9214E-12	710.549E-3	-12.9067E-3
2.43872E-3	87.5491E-12	748.513E-3	-17.4021E-3	84.6390E-12	724.093E-3	-17.1455E-3
2.43372E-3	87.9835E-12	756.336E-3	-30.0353E-3	84.3839E-12	744.767E-3	-29.1584E-3
2.42871E-3	87.5257E-12	755.708E-3	-37.0940E-3	84.6131E-12	743.727E-3	-21.2576E-3
2.42371E-3	87.5075E-12	755.693E-3	-23.3012E-3	84.5285E-12	725.612E-3	-8.64138E-3
2.41871E-3	86.6663E-12	748.853E-3	-4.55363E-3	85.1081E-12	706.725E-3	-8.29239E-3
2.41371E-3	86.2507E-12	746.623E-3	5.92589E-3	85.1985E-12	711.010E-3	-24.3480E-3
2.40870E-3	85.3421E-12	742.599E-3	10.7374E-3	85.2259E-12	733.125E-3	-45.8862E-3
2.40370E-3	84.9188E-12	721.784E-3	9.44299E-3	85.3570E-12	746.484E-3	-39.0570E-3
2.39870E-3	84.1969E-12	714.956E-3	6.06798E-3	85.4590E-12	747.331E-3	-17.1243E-3
2.39370E-3	84.1989E-12	726.400E-3	7.31886E-3	85.4451E-12	741.040E-3	-14.4497E-3
2.38869E-3	83.5224E-12	730.903E-3	-2.55279E-3	85.1416E-12	722.156E-3	-28.3445E-3
2.38369E-3	83.4532E-12	734.309E-3	-19.4268E-3	84.6746E-12	704.955E-3	-30.0213E-3
2.37869E-3	83.3601E-12	742.208E-3	-22.6924E-3	84.0993E-12	705.730E-3	-4.46681E-3
2.37369E-3	83.2617E-12	739.835E-3	-37.4688E-3	83.8227E-12	712.069E-3	10.8330E-3
2.36868E-3	83.3236E-12	741.244E-3	-50.6869E-3	82.7302E-12	710.049E-3	1.47109E-3
2.36368E-3	83.0363E-12	753.804E-3	-28.8318E-3	82.1103E-12	715.309E-3	-6.28025E-3
2.35868E-3	82.9977E-12	746.988E-3	-11.2840E-3	81.6349E-12	734.785E-3	-9.95690E-3
2.35368E-3	83.1744E-12	733.014E-3	-15.5883E-3	81.4080E-12	745.405E-3	-3.94031E-3
2.34867E-3	82.8270E-12	735.957E-3	-10.0565E-3	80.7028E-12	737.436E-3	6.94339E-3
2.34367E-3	82.9687E-12	749.041E-3	-3.86157E-3	80.5421E-12	729.558E-3	3.97988E-3
2.33867E-3	82.7384E-12	758.535E-3	-25.2954E-3	80.2404E-12	730.176E-3	-8.69482E-3
2.33367E-3	82.8173E-12	759.264E-3	-40.1561E-3	80.5773E-12	735.601E-3	-20.1723E-3
2.32866E-3	81.9903E-12	749.041E-3	-28.7175E-3	80.2322E-12	746.225E-3	-21.9626E-3
2.32366E-3	81.3807E-12	741.573E-3	-15.1676E-3	80.7001E-12	739.949E-3	-11.0222E-3
2.31866E-3	81.0673E-12	752.705E-3	-6.13371E-3	80.8850E-12	719.374E-3	-10.7600E-3
2.31366E-3	80.4111E-12	771.765E-3	-8.51512E-3	81.0302E-12	727.285E-3	-19.8122E-3
2.30865E-3	79.6981E-12	773.736E-3	-33.2877E-3	81.0850E-12	763.467E-3	-12.8199E-3
2.30365E-3	79.2932E-12	751.322E-3	-55.7103E-3	80.6636E-12	781.516E-3	-2.37539E-3
2.29865E-3	79.0364E-12	730.796E-3	-44.2721E-3	80.9825E-12	770.769E-3	-10.7764E-3
2.29365E-3	78.7530E-12	735.065E-3	-15.1381E-3	80.2568E-12	759.265E-3	-30.8109E-3
2.28864E-3	78.3921E-12	754.900E-3	5.08923E-3	80.4922E-12	761.305E-3	-30.2991E-3
2.28364E-3	78.1207E-12	757.077E-3	2.57676E-3	79.5740E-12	777.867E-3	-18.0522E-3
2.27864E-3	78.0389E-12	736.667E-3	-20.8230E-3	79.7278E-12	791.918E-3	-11.5011E-3
2.27364E-3	77.9879E-12	726.438E-3	-31.0370E-3	79.0084E-12	782.640E-3	1.54728E-3
2.26863E-3	77.5734E-12	735.078E-3	-11.2129E-3	78.6945E-12	766.531E-3	8.01881E-3
2.26363E-3	77.5796E-12	746.949E-3	-3.00232E-3	78.4398E-12	763.853E-3	-3.77711E-3
2.25863E-3	77.3205E-12	764.226E-3	-13.1053E-3	78.1447E-12	756.950E-3	-20.7420E-3
2.25363E-3	77.3200E-12	775.265E-3	-10.2949E-3	77.7028E-12	749.187E-3	-20.7233E-3
2.24862E-3	77.0471E-12	761.690E-3	-352.025E-6	77.3694E-12	759.557E-3	-14.0306E-3
2.24362E-3	76.5746E-12	746.357E-3	-2.13484E-3	77.5214E-12	757.636E-3	-11.3830E-3
2.23862E-3	76.4168E-12	746.743E-3	-18.5395E-3	77.3951E-12	750.160E-3	-10.9344E-3
2.23362E-3	75.8892E-12	744.847E-3	-37.3408E-3	77.3336E-12	761.074E-3	-14.2102E-3
2.22861E-3	75.8002E-12	738.211E-3	-39.7472E-3	77.3556E-12	774.926E-3	-539.873E-6
2.22361E-3	75.3567E-12	738.766E-3	-24.8269E-3	76.8479E-12	772.306E-3	11.9806E-3
2.21861E-3	75.3065E-12	745.409E-3	-7.73583E-3	76.9274E-12	746.711E-3	-4.71170E-3
2.21361E-3	74.9804E-12	754.941E-3	-883.388E-6	76.1727E-12	734.566E-3	-22.7384E-3
2.20860E-3	74.8029E-12	751.795E-3	-8.60093E-3	75.8218E-12	754.487E-3	-13.5502E-3
2.20360E-3	74.7715E-12	737.249E-3	-21.0296E-3	75.1038E-12	771.854E-3	4.69669E-3
2.19860E-3	74.2856E-12	737.012E-3	-26.7298E-3	74.7471E-12	768.195E-3	9.24582E-3
2.19360E-3	74.5788E-12	759.258E-3	-15.0649E-3	74.3695E-12	753.159E-3	-1.15118E-3
2.18859E-3	74.0882E-12	777.791E-3	-759.879E-6	74.0310E-12	749.482E-3	-27.2765E-3
2.18359E-3	74.2158E-12	783.286E-3	-17.9895E-3	73.8898E-12	766.525E-3	-40.6731E-3
2.17859E-3	73.5483E-12	784.209E-3	-39.7260E-3	73.8133E-12	778.469E-3	-25.0144E-3
2.17359E-3	73.5430E-12	772.767E-3	-32.2339E-3	73.5644E-12	781.504E-3	-11.8428E-3
2.16858E-3	72.7435E-12	769.632E-3	-19.6187E-3	73.8190E-12	791.403E-3	-11.6884E-3
2.16358E-3	72.6016E-12	782.954E-3	-15.1903E-3	73.4902E-12	805.901E-3	-17.6428E-3
2.15858E-3	71.9949E-12	784.456E-3	-17.8125E-3	73.1885E-12	810.730E-3	-22.1791E-3
2.15358E-3	71.7034E-12	773.709E-3	-28.9473E-3	72.7573E-12	806.372E-3	-25.2478E-3
2.14857E-3	71.1288E-12	768.964E-3	-27.3505E-3	72.9740E-12	801.524E-3	-19.2006E-3
2.14357E-3	70.7086E-12	770.969E-3	-8.25139E-3	72.4024E-12	781.991E-3	-9.29410E-3
2.13857E-3	70.4226E-12	772.131E-3	-3.53210E-3	71.7212E-12	761.671E-3	-21.1622E-3
2.13357E-3	70.2292E-12	774.903E-3	-5.46987E-3	71.3191E-12	760.207E-3	-38.1004E-3
2.12856E-3	70.1751E-12	770.325E-3	4.38325E-3	70.7538E-12	767.156E-3	-36.0192E-3
2.12356E-3	70.3041E-12	755.668E-3	3.11052E-3	70.1744E-12	777.472E-3	-15.9054E-3
2.11856E-3	70.3074E-12	760.242E-3	-6.37937E-3	69.1730E-12	771.843E-3	3.53592E-3
2.11356E-3	70.4704E-12	773.875E-3	-8.57725E-3	68.9176E-12	757.925E-3	-4.33221E-3
2.10855E-3	70.6567E-12	774.401E-3	-13.9089E-3	68.4542E-12	770.617E-3	-27.9879E-3
2.10355E-3	70.5721E-12	784.484E-3	-23.3894E-3	68.3126E-12	791.754E-3	-29.2507E-3
2.09855E-3	70.5444E-12	796.193E-3	-17.1629E-3	68.1958E-12	793.919E-3	-16.4987E-3
2.09355E-3	70.2308E-12	793.328E-3	-7.07739E-3	68.1768E-12	786.116E-3	-13.0020E-3
2.08854E-3	70.1502E-12	795.869E-3	-15.9777E-3	68.3718E-12	784.924E-3	-21.5728E-3
2.08354E-3	69.6362E-12	795.636E-3	-15.6571E-3	68.4758E-12	798.189E-3	-26.1621E-3
2.07854E-3	69.1177E-12	784.416E-3	-9.32904E-3	68.5395E-12	812.010E-3	-16.2602E-3
2.07354E-3	68.1209E-12	791.188E-3	-21.1411E-3	68.4486E-12	810.486E-3	-9.75776E-3
2.06853E-3	67.5249E-12	806.096E-3	-18.0867E-3	68.3942E-12	799.847E-3	-11.3024E-3
2.06353E-3	66.9071E-12	806.590E-3	-8.26005E-3	68.3838E-12	791.101E-3	-25.0379E-3
2.05853E-3	66.3937E-12	803.291E-3	-24.6301E-3	68.0142E-12	790.025E-3	-34.2875E-3
2.05353E-3	65.7670E-12	788.585E-3	-34.4960E-3	67.6892E-12	799.060E-3	-12.8791E-3
2.04852E-3	65.2778E-12	770.719E-3	-24.2863E-3	67.0475E-12	813.408E-3	9.87538E-3
2.04352E-3	65.0703E-12	782.389E-3	-15.5028E-3	66.5487E-12	811.709E-3	4.67132E-3
2.03852E-3	64.9661E-12	803.901E-3	-14.7006E-3	65.8287E-12	797.100E-3	1.74843E-3
2.03352E-3	65.1132E-12	799.974E-3	-14.6318E-3	65.2649E-12	801.972E-3	9.99166E-3
2.02851E-3	65.6848E-12	794.315E-3	-13.7897E-3	64.6030E-12	812.879E-3	6.59347E-3
2.02351E-3	65.6366E-12	802.682E-3	-4.89004E-3	64.0073E-12	804.893E-3	-6.48712E-3
2.01851E-3	65.5237E-12	813.451E-3	5.08485E-3	63.8775E-12	801.062E-3	-16.2654E-3
2.01351E-3	65.5059E-12	824.504E-3	-11.6410E-3	63.4332E-12	808.247E-3	-27.0234E-3
2.00850E-3	65.2918E-12	827.533E-3	-31.6728E-3	63.7485E-12	806.913E-3	-37.8103E-3
2.00350E-3	65.1053E-12	824.779E-3	-34.1107E-3	63.5266E-12	812.229E-3	-34.4624E-3
1.99850E-3	64.7708E-12	822.229E-3	-42.0014E-3	63.5205E-12	825.030E-3	-23.0751E-3
1.99350E-3	64.3417E-12	829.655E-3	-45.1404E-3	63.7782E-12	822.987E-3	-5.91454E-3
1.98849E-3	63.7072E-12	837.218E-3	-16.3656E-3	63.9705E-12	826.337E-3	9.31543E-3
1.98349E-3	63.1756E-12	832.292E-3	9.39583E-3	64.0448E-12	836.223E-3	3.51102E-3
1.97849E-3	62.6134E-12	830.049E-3	7.41554E-3	63.7603E-12	836.689E-3	-9.83520E-3
1.97349E-3	62.0877E-12	828.298E-3	-2.36953E-3	63.7243E-12	843.862E-3	-11.0174E-3
1.96848E-3	61.6425E-12	822.826E-3	-10.1309E-3	63.8027E-12	849.521E-3	-16.5435E-3
1.96348E-3	60.9462E-12	826.146E-3	-10.1291E-3	63.3194E-12	849.989E-3	-26.6943E-3
1.95848E-3	60.5427E-12	841.328E-3	-11.4529E-3	62.9445E-12	865.661E-3	-24.7522E-3
1.95348E-3	60.2708E-12	843.676E-3	-26.6586E-3	62.2060E-12	881.766E-3	-17.5800E-3
1.94847E-3	59.8748E-12	826.223E-3	-39.4355E-3	61.9147E-12	878.619E-3	-7.86864E-3
1.94347E-3	59.8859E-12	822.838E-3	-29.9455E-3	61.0513E-12	853.274E-3	-3.59114E-3
1.93847E-3	59.5817E-12	837.246E-3	-21.2654E-3	60.4163E-12	830.480E-3	-12.5764E-3
1.93347E-3	59.6295E-12	843.440E-3	-26.3225E-3	59.8481E-12	831.840E-3	-22.4157E-3
1.92846E-3	59.3813E-12	838.621E-3	-23.0547E-3	59.5151E-12	845.228E-3	-29.1502E-3
1.92346E-3	59.4882E-12	826.106E-3	-4.91075E-3	59.1477E-12	857.949E-3	-23.1750E-3
1.91846E-3	59.2399E-12	821.856E-3	11.3197E-3	58.8346E-12	863.531E-3	-5.71625E-3
1.91346E-3	59.1862E-12	840.431E-3	10.0465E-3	58.8847E-12	867.597E-3	-2.40451E-3
1.90845E-3	58.9992E-12	853.040E-3	-2.54491E-3	58.6957E-12	874.403E-3	-13.4893E-3
1.90345E-3	58.6862E-12	854.328E-3	-17.1778E-3	58.8528E-12	874.603E-3	-27.2868E-3
1.89845E-3	58.0497E-12	869.717E-3	-23.5074E-3	58.6454E-12	878.657E-3	-24.8130E-3
1.89345E-3	57.5503E-12	879.254E-3	-10.5685E-3	58.8577E-12	888.380E-3	-7.00183E-3
1.88844E-3	56.9724E-12	881.745E-3	5.58963E-3	58.7090E-12	888.756E-3	-9.56544E-3
1.88344E-3	56.5306E-12	884.018E-3	15.8504E-3	58.3767E-12	891.012E-3	-21.8788E-3
1.87844E-3	56.0407E-12	868.309E-3	15.8893E-3	58.4539E-12	902.429E-3	-18.7429E-3
1.87344E-3	55.7064E-12	856.036E-3	-345.877E-6	58.0585E-12	902.255E-3	-14.8504E-3
1.86843E-3	55.5840E-12	863.032E-3	-6.82704E-3	57.5921E-12	882.224E-3	-10.6168E-3
1.86343E-3	55.2688E-12	871.074E-3	-6.44043E-3	56.7086E-12	874.289E-3	-13.1798E-3
1.85843E-3	55.0442E-12	869.779E-3	-35.7740E-3	56.5902E-12	886.333E-3	-35.1268E-3
1.85343E-3	55.1181E-12	865.876E-3	-61.7393E-3	55.9267E-12	891.962E-3	-40.1751E-3
1.84842E-3	54.8715E-12	850.701E-3	-37.8961E-3	55.2721E-12	888.861E-3	-15.0685E-3
1.84342E-3	54.9067E-12	846.043E-3	-8.33852E-3	54.8038E-12	880.918E-3	-2.90354E-3
1.83842E-3	54.7381E-12	874.929E-3	-747.611E-6	54.3273E-12	878.074E-3	-19.9537E-3
1.83342E-3	54.6526E-12	895.822E-3	-2.35130E-3	54.1377E-12	895.995E-3	-29.9897E-3
1.82841E-3	54.5315E-12	897.195E-3	-18.0500E-3	53.5353E-12	918.977E-3	-16.4767E-3
1.82341E-3	54.3281E-12	893.464E-3	-30.2850E-3	53.5964E-12	923.625E-3	-7.65805E-3
1.81841E-3	53.9330E-12	892.801E-3	-21.8217E-3	53.1235E-12	921.609E-3	-17.0145E-3
1.81341E-3	53.5593E-12	909.086E-3	-12.5733E-3	53.0097E-12	920.101E-3	-33.2420E-3
1.80840E-3	53.2848E-12	924.567E-3	-15.6733E-3	52.7036E-12	917.267E-3	-41.0799E-3
1.80340E-3	52.8552E-12	918.806E-3	-21.2332E-3	52.3670E-12	920.814E-3	-34.8238E-3
1.79840E-3	52.3582E-12	910.026E-3	-14.7541E-3	52.3379E-12	927.732E-3	-23.5154E-3
1.79340E-3	52.0639E-12	913.802E-3	-4.02915E-3	51.9714E-12	931.673E-3	-12.4626E-3
1.78839E-3	51.7361E-12	924.752E-3	-10.5166E-3	51.8303E-12	932.391E-3	-1.67901E-3
1.78339E-3	51.4150E-12	931.833E-3	-21.6811E-3	51.2364E-12	944.399E-3	-6.86055E-3
1.77839E-3	51.1043E-12	937.056E-3	-21.3853E-3	51.1454E-12	959.248E-3	-16.5984E-3
1.77339E-3	50.8462E-12	936.982E-3	-15.2490E-3	50.6912E-12	962.912E-3	-9.63840E-3
1.76838E-3	50.5595E-12	929.255E-3	-11.5858E-3	50.3778E-12	952.847E-3	-6.25754E-3
1.76338E-3	50.3047E-12	926.111E-3	-9.32602E-3	49.9204E-12	938.746E-3	-18.5166E-3
1.75838E-3	50.0741E-12	932.184E-3	-851.031E-6	49.7166E-12	940.530E-3	-36.7058E-3
1.75338E-3	49.8157E-12	940.649E-3	-1.55877E-3	49.4813E-12	956.599E-3	-47.2312E-3
1.74837E-3	49.5553E-12	944.215E-3	-11.5299E-3	49.0291E-12	970.677E-3	-31.4057E-3
1.74337E-3	49.0618E-12	957.224E-3	-7.94385E-3	49.0059E-12	967.749E-3	1.63218E-3
1.73837E-3	48.6784E-12	959.005E-3	-2.80565E-3	48.7324E-12	965.814E-3	4.38965E-3
1.73337E-3	48.2751E-12	948.713E-3	-5.44108E-3	48.4022E-12	987.981E-3	-21.0936E-3
1.72836E-3	47.8076E-12	956.927E-3	-4.66270E-3	48.0066E-12	1.00709E+0	-29.6021E-3
1.72336E-3	47.3450E-12	957.135E-3	-10.8853E-3	47.7582E-12	1.00581E+0	-17.5266E-3
1.71836E-3	46.9814E-12	950.941E-3	-23.2747E-3	47.1987E-12	985.199E-3	-5.18966E-3
1.71336E-3	46.5916E-12	966.159E-3	-15.9917E-3	46.8598E-12	958.077E-3	-3.19972E-3
1.70835E-3	46.2575E-12	985.212E-3	-4.51577E-3	46.3935E-12	965.666E-3	-4.25454E-3
1.70335E-3	45.9998E-12	988.556E-3	-10.5051E-3	45.9484E-12	992.348E-3	-5.41744E-3
1.69835E-3	45.7232E-12	979.903E-3	-17.2924E-3	45.6021E-12	999.268E-3	-3.27775E-3
1.69335E-3	45.5358E-12	974.967E-3	-12.4612E-3	45.1154E-12	989.324E-3	5.12848E-3
1.68834E-3	45.3578E-12	979.998E-3	-6.15192E-3	44.8332E-12	985.498E-3	-6.19803E-3
1.68334E-3	45.1758E-12	984.684E-3	6.52818E-3	44.4015E-12	1.00045E+0	-29.5451E-3
1.67834E-3	44.7327E-12	989.738E-3	17.7128E-3	44.0282E-12	1.02435E+0	-30.9383E-3
1.67334E-3	44.5289E-12	1.00261E+0	3.56762E-3	43.9334E-12	1.04764E+0	-16.5368E-3
1.66833E-3	44.2705E-12	1.01827E+0	-9.94236E-3	43.7241E-12	1.05294E+0	-6.41588E-3
1.66333E-3	43.9449E-12	1.02572E+0	-10.9972E-3	43.7439E-12	1.03884E+0	-14.0531E-3
1.65833E-3	43.4411E-12	1.03334E+0	-26.7375E-3	43.5480E-12	1.03568E+0	-34.3634E-3
1.65333E-3	43.0234E-12	1.04713E+0	-43.7176E-3	43.3932E-12	1.05056E+0	-38.1129E-3
1.64832E-3	42.5872E-12	1.04924E+0	-37.7236E-3	43.1617E-12	1.06704E+0	-22.3984E-3
1.64332E-3	42.1087E-12	1.04054E+0	-32.8834E-3	43.0848E-12	1.07260E+0	-4.51212E-3
1.63832E-3	41.6501E-12	1.03315E+0	-32.2245E-3	42.7667E-12	1.05930E+0	4.18747E-3
1.63332E-3	41.3203E-12	1.01855E+0	-22.1840E-3	42.3217E-12	1.04687E+0	1.18665E-3
1.62831E-3	40.7700E-12	1.00520E+0	-23.1809E-3	41.8596E-12	1.04928E+0	-6.17494E-3
1.62331E-3	40.3789E-12	1.02185E+0	-30.8891E-3	41.4880E-12	1.05650E+0	-14.5072E-3
1.61831E-3	39.9574E-12	1.04524E+0	-27.1084E-3	40.7740E-12	1.06085E+0	-16.5559E-3
1.61331E-3	39.8166E-12	1.05359E+0	-28.9364E-3	40.0596E-12	1.05260E+0	-22.1902E-3
1.60830E-3	39.4998E-12	1.06071E+0	-34.5776E-3	39.5687E-12	1.04534E+0	-33.7754E-3
1.60330E-3	39.3873E-12	1.06031E+0	-17.9802E-3	39.1429E-12	1.05611E+0	-28.7470E-3
1.59830E-3	39.0495E-12	1.05143E+0	-3.56247E-3	38.6569E-12	1.07148E+0	-15.5497E-3
1.59330E-3	38.9489E-12	1.05724E+0	-10.7497E-3	38.0249E-12	1.07965E+0	-11.7960E-3
1.58829E-3	38.7347E-12	1.08296E+0	-15.2163E-3	37.7271E-12	1.08357E+0	-17.2488E-3
1.58329E-3	38.3819E-12	1.09085E+0	-8.55857E-3	37.4945E-12	1.09275E+0	-30.1329E-3
1.57829E-3	37.9640E-12	1.08685E+0	-8.88972E-3	37.3533E-12	1.10288E+0	-32.0741E-3
1.57329E-3	37.7672E-12	1.09515E+0	-16.8238E-3	37.0872E-12	1.11145E+0	-11.4214E-3
1.56828E-3	37.2628E-12	1.10337E+0	-23.1357E-3	37.1957E-12	1.13483E+0	3.11810E-3
1.56328E-3	36.6821E-12	1.11117E+0	-19.0322E-3	37.0268E-12	1.16166E+0	-5.22290E-3
1.55828E-3	36.2575E-12	1.11962E+0	-5.85419E-3	37.0392E-12	1.16928E+0	-11.9821E-3
1.55328E-3	35.8648E-12	1.11874E+0	-2.28874E-3	36.6997E-12	1.16394E+0	-18.4748E-3
1.54827E-3	35.1761E-12	1.11533E+0	-1.34534E-3	36.4117E-12	1.16155E+0	-26.7664E-3
1.54327E-3	34.7186E-12	1.12254E+0	7.59553E-3	36.1773E-12	1.16653E+0	-22.2267E-3
1.53827E-3	34.2125E-12	1.12716E+0	8.39990E-3	35.7849E-12	1.16538E+0	-7.76324E-3
1.53327E-3	33.8725E-12	1.12003E+0	-15.7247E-3	35.3629E-12	1.15697E+0	-5.29022E-3
1.52826E-3	33.4074E-12	1.10662E+0	-36.2060E-3	34.7916E-12	1.15185E+0	-19.8513E-3
1.52326E-3	32.9988E-12	1.08980E+0	-23.2675E-3	34.3375E-12	1.14504E+0	-18.6821E-3
1.51826E-3	32.7487E-12	1.09545E+0	-7.33849E-3	33.4856E-12	1.12947E+0	-2.25794E-3
1.51326E-3	32.4999E-12	1.13029E+0	-15.1138E-3	32.6764E-12	1.11037E+0	3.54803E-3
1.50825E-3	32.2454E-12	1.14990E+0	-17.3518E-3	32.2810E-12	1.10374E+0	-897.574E-6
1.50325E-3	32.1438E-12	1.14678E+0	-12.0038E-3	31.6418E-12	1.11519E+0	-3.02153E-3
1.49825E-3	31.9136E-12	1.15028E+0	-23.8480E-3	31.0041E-12	1.12362E+0	-1.85373E-3
1.49325E-3	31.5892E-12	1.15920E+0	-30.0947E-3	30.6440E-12	1.13018E+0	2.05840E-3
1.48824E-3	31.2929E-12	1.16764E+0	-23.8576E-3	30.3435E-12	1.14945E+0	1.63179E-3
1.48324E-3	30.8728E-12	1.18796E+0	-25.9652E-3	30.1110E-12	1.17410E+0	-14.2010E-3
1.47824E-3	30.5405E-12	1.19982E+0	-20.6425E-3	29.8732E-12	1.18628E+0	-22.0796E-3
1.47324E-3	30.0622E-12	1.17764E+0	-5.03317E-3	29.6456E-12	1.18486E+0	-15.0144E-3
1.46823E-3	29.4903E-12	1.15735E+0	-1.14705E-3	29.5512E-12	1.18904E+0	-7.70986E-3
1.46323E-3	28.9542E-12	1.16402E+0	9.20681E-3	29.4777E-12	1.19717E+0	-6.37945E-3
1.45823E-3	28.5893E-12	1.17302E+0	16.9183E-3	29.2076E-12	1.19812E+0	-15.8051E-3
1.45323E-3	27.9850E-12	1.17067E+0	-6.86489E-3	28.9389E-12	1.19218E+0	-18.7785E-3
1.44822E-3	27.2439E-12	1.15837E+0	-20.5465E-3	28.5062E-12	1.17640E+0	-15.1549E-3
1.44322E-3	26.8854E-12	1.14062E+0	-5.79364E-3	28.0403E-12	1.16014E+0	-21.2478E-3
1.43822E-3	26.6943E-12	1.13616E+0	-2.91854E-3	27.6244E-12	1.15251E+0	-22.6828E-3
1.43322E-3	26.3941E-12	1.15036E+0	-11.7559E-3	27.0215E-12	1.14901E+0	-17.3256E-3
1.42821E-3	25.9129E-12	1.15447E+0	-14.1727E-3	26.4124E-12	1.15161E+0	-19.7766E-3
1.42321E-3	25.6706E-12	1.14820E+0	-18.8793E-3	25.8121E-12	1.14662E+0	-26.1826E-3
1.41821E-3	25.2661E-12	1.15072E+0	-23.9966E-3	25.1846E-12	1.13452E+0	-22.8729E-3
1.41321E-3	24.9980E-12	1.14645E+0	-21.7391E-3	24.5493E-12	1.12731E+0	-13.7325E-3
1.40820E-3	24.7721E-12	1.13518E+0	-25.6302E-3	24.0832E-12	1.12076E+0	-17.8714E-3
1.40320E-3	24.3609E-12	1.14396E+0	-33.7134E-3	23.6965E-12	1.12430E+0	-14.5135E-3
1.39820E-3	23.9997E-12	1.14850E+0	-30.3560E-3	23.3979E-12	1.14547E+0	3.95734E-3
1.39320E-3	23.7071E-12	1.13577E+0	-28.7087E-3	23.0303E-12	1.16208E+0	8.44293E-3
1.38819E-3	23.2511E-12	1.13824E+0	-27.8614E-3	22.7429E-12	1.15400E+0	-2.72516E-3
1.38319E-3	22.9297E-12	1.14831E+0	-15.6467E-3	22.5996E-12	1.14405E+0	-15.1075E-3
1.37819E-3	22.5273E-12	1.15088E+0	-13.2026E-3	22.2699E-12	1.14531E+0	-20.4183E-3
1.37319E-3	22.1463E-12	1.14665E+0	-21.3408E-3	21.9783E-12	1.13594E+0	-17.3940E-3
1.36818E-3	21.6223E-12	1.13933E+0	-17.0468E-3	21.7372E-12	1.10821E+0	-12.9975E-3
1.36318E-3	21.2595E-12	1.13485E+0	-9.58934E-3	21.3885E-12	1.08684E+0	-13.2463E-3
1.35818E-3	20.8759E-12	1.13106E+0	-13.5387E-3	21.0835E-12	1.08336E+0	-16.4075E-3
1.35318E-3	20.2782E-12	1.11824E+0	-15.9412E-3	20.7307E-12	1.09183E+0	-16.5702E-3
1.34817E-3	20.0169E-12	1.09723E+0	-7.90951E-3	20.5113E-12	1.10272E+0	-19.4035E-3
1.34317E-3	19.6047E-12	1.08494E+0	-7.45209E-3	19.9459E-12	1.08899E+0	-20.9843E-3
1.33817E-3	19.3283E-12	1.08507E+0	-15.6104E-3	19.5341E-12	1.05828E+0	-8.16333E-3
1.33317E-3	18.9814E-12	1.08312E+0	-21.4907E-3	19.2007E-12	1.04563E+0	-2.57779E-3
1.32816E-3	18.5735E-12	1.08542E+0	-20.9588E-3	18.9121E-12	1.04308E+0	-13.9754E-3
1.32316E-3	18.3400E-12	1.08374E+0	-11.8372E-3	18.4717E-12	1.03962E+0	-16.4941E-3
1.31816E-3	17.9910E-12	1.06340E+0	-9.76487E-3	17.9734E-12	1.03724E+0	-12.9294E-3
1.31316E-3	17.5595E-12	1.04893E+0	-10.2108E-3	17.6559E-12	1.02336E+0	-17.6250E-3
1.30815E-3	17.2489E-12	1.04383E+0	-3.42899E-3	17.4063E-12	1.01026E+0	-20.6545E-3
1.30315E-3	17.1043E-12	1.03474E+0	-10.7408E-3	17.1685E-12	1.01235E+0	-29.4109E-3
1.29815E-3	16.7679E-12	1.03410E+0	-27.6146E-3	16.6950E-12	1.00894E+0	-38.4751E-3
1.29315E-3	16.2882E-12	1.04364E+0	-21.1387E-3	16.4419E-12	993.209E-3	-26.5447E-3
1.28814E-3	15.9919E-12	1.03316E+0	-2.52415E-3	16.1928E-12	982.107E-3	-6.76389E-3
1.28314E-3	15.7971E-12	1.00712E+0	-15.2970E-3	15.7879E-12	969.179E-3	-10.9643E-3
1.27814E-3	15.4708E-12	993.265E-3	-31.6438E-3	15.3769E-12	942.096E-3	-28.6949E-3
1.27314E-3	14.9602E-12	990.442E-3	-18.5383E-3	15.0677E-12	920.523E-3	-24.8086E-3
1.26813E-3	14.8105E-12	980.927E-3	-13.3236E-3	14.6878E-12	915.964E-3	-17.0994E-3
1.26313E-3	14.4336E-12	971.484E-3	-12.6474E-3	14.3346E-12	903.394E-3	-24.4191E-3
1.25813E-3	14.1587E-12	973.343E-3	-6.43579E-3	14.0257E-12	887.338E-3	-32.2070E-3
1.25313E-3	13.7167E-12	960.053E-3	-19.4167E-3	13.6287E-12	884.499E-3	-31.9498E-3
1.24812E-3	13.5278E-12	932.508E-3	-33.8814E-3	13.3670E-12	872.419E-3	-17.7453E-3
1.24312E-3	13.2881E-12	906.003E-3	-26.4327E-3	13.1147E-12	852.148E-3	1.90857E-3
1.23812E-3	12.8803E-12	879.485E-3	-21.1361E-3	12.9244E-12	840.972E-3	-3.88316E-3
1.23312E-3	12.5961E-12	876.776E-3	-27.2204E-3	12.6319E-12	824.865E-3	-22.8983E-3
1.22811E-3	12.3747E-12	887.762E-3	-25.6563E-3	12.3651E-12	807.060E-3	-23.2797E-3
1.22311E-3	12.1313E-12	880.161E-3	-25.3487E-3	12.0607E-12	798.939E-3	-17.4336E-3
1.21811E-3	11.7745E-12	858.907E-3	-23.5924E-3	11.7914E-12	790.325E-3	-8.32527E-3
1.21311E-3	11.3798E-12	835.816E-3	-14.2576E-3	11.6149E-12	777.246E-3	2.43647E-3
1.20810E-3	11.1800E-12	829.166E-3	-18.4785E-3	11.3196E-12	758.711E-3	1.53482E-3
1.20310E-3	10.9609E-12	824.777E-3	-22.6368E-3	10.9931E-12	733.782E-3	-7.07124E-3
1.19810E-3	10.4927E-12	798.988E-3	-5.66065E-3	10.7401E-12	722.084E-3	-5.48285E-3
1.19310E-3	10.1827E-12	766.623E-3	5.99646E-3	10.4931E-12	720.820E-3	787.868E-6
1.18809E-3	10.2142E-12	743.407E-3	32.7148E-6	10.2071E-12	698.560E-3	3.20395E-3
1.18309E-3	9.96622E-12	735.313E-3	-6.78770E-3	9.92396E-12	667.153E-3	3.19992E-3
1.17809E-3	9.63897E-12	734.093E-3	-11.8327E-3	9.63246E-12	654.972E-3	-14.0749E-3
1.17309E-3	9.43642E-12	738.938E-3	-15.4151E-3	9.30548E-12	644.932E-3	-26.4073E-3
1.16808E-3	9.39193E-12	738.399E-3	-18.9009E-3	9.08825E-12	626.260E-3	-14.2349E-3
1.16308E-3	9.10164E-12	711.042E-3	-22.4180E-3	8.91532E-12	616.782E-3	-6.73648E-3
1.15808E-3	8.84869E-12	687.407E-3	-20.2115E-3	8.58924E-12	606.834E-3	-12.9318E-3
1.15308E-3	8.62671E-12	685.183E-3	-11.4272E-3	8.39838E-12	592.698E-3	-18.3377E-3
1.14807E-3	8.50465E-12	671.198E-3	-8.93645E-3	8.27818E-12	586.578E-3	-17.8724E-3
1.14307E-3	8.18876E-12	647.403E-3	-21.0256E-3	8.07034E-12	580.174E-3	-12.7191E-3
1.13807E-3	7.99396E-12	634.162E-3	-27.2296E-3	7.92131E-12	563.580E-3	-11.1554E-3
1.13307E-3	7.81585E-12	628.604E-3	-18.3434E-3	7.80345E-12	543.916E-3	-6.71841E-3
1.12806E-3	7.65856E-12	627.748E-3	-21.4367E-3	7.67565E-12	530.109E-3	-6.31562E-3
1.12306E-3	7.28665E-12	613.343E-3	-38.5626E-3	7.52970E-12	517.260E-3	-18.6150E-3
1.11806E-3	7.06930E-12	566.003E-3	-40.9502E-3	7.34139E-12	505.439E-3	-19.4641E-3
1.11306E-3	6.85316E-12	530.363E-3	-29.2532E-3	7.11098E-12	494.097E-3	-11.9858E-3
1.10805E-3	6.75321E-12	528.795E-3	-15.9480E-3	6.97494E-12	470.834E-3	-19.8322E-3
1.10305E-3	6.43276E-12	518.916E-3	-6.05042E-3	6.77664E-12	452.199E-3	-33.3062E-3
1.09805E-3	6.27561E-12	500.904E-3	-5.42962E-3	6.56976E-12	447.514E-3	-41.4840E-3
1.09305E-3	6.25195E-12	491.232E-3	-5.37271E-3	6.32539E-12	432.021E-3	-38.7985E-3
1.08804E-3	6.14647E-12	477.398E-3	3.47330E-3	6.16913E-12	405.454E-3	-18.8647E-3
1.08304E-3	5.94371E-12	459.288E-3	5.00557E-3	5.97550E-12	380.034E-3	-7.56462E-3
1.07804E-3	5.77725E-12	446.452E-3	-4.67885E-3	5.75730E-12	361.820E-3	-19.1933E-3
1.07304E-3	5.78896E-12	423.452E-3	-5.66452E-3	5.62527E-12	362.434E-3	-24.8741E-3
1.06803E-3	5.67568E-12	398.812E-3	-8.93724E-3	5.49105E-12	365.733E-3	-12.5096E-3
1.06303E-3	5.44593E-12	400.902E-3	-15.5033E-3	5.30591E-12	354.019E-3	-1.54289E-3
1.05803E-3	5.37289E-12	406.932E-3	-5.09341E-3	5.30685E-12	343.095E-3	-5.92562E-3
1.05303E-3	5.29876E-12	394.498E-3	-5.78409E-3	5.18757E-12	343.720E-3	-18.6987E-3
1.04802E-3	5.21012E-12	378.667E-3	-16.6844E-3	5.10785E-12	339.267E-3	-18.0209E-3
1.04302E-3	5.15674E-12	363.031E-3	-8.75513E-3	5.17749E-12	317.846E-3	-4.01113E-3
1.03802E-3	4.92285E-12	352.057E-3	-2.53657E-3	4.95399E-12	295.779E-3	145.333E-6
1.03302E-3	4.79347E-12	353.612E-3	-9.13790E-3	4.80453E-12	280.031E-3	-13.4799E-3
1.02801E-3	4.53524E-12	341.991E-3	-12.5887E-3	4.63139E-12	264.146E-3	-24.4627E-3
1.02301E-3	4.26125E-12	298.253E-3	-8.51861E-3	4.35557E-12	255.719E-3	-28.8641E-3
1.01801E-3	4.23147E-12	256.472E-3	-7.08153E-3	4.27496E-12	245.188E-3	-31.9809E-3
1.01301E-3	4.14414E-12	241.010E-3	-10.8800E-3	4.15677E-12	216.284E-3	-26.1061E-3
1.00800E-3	4.01325E-12	242.823E-3	-18.2262E-3	4.09086E-12	202.363E-3	-20.2623E-3
1.00300E-3	3.89060E-12	251.478E-3	-25.3337E-3	3.95007E-12	208.426E-3	-22.5955E-3
997.999E-6	3.90048E-12	248.267E-3	-20.6640E-3	3.81852E-12	199.556E-3	-14.0198E-3
992.997E-6	3.87251E-12	226.301E-3	-16.1912E-3	3.78851E-12	184.565E-3	-2.49381E-3
987.994E-6	3.70300E-12	206.030E-3	-22.3843E-3	3.72043E-12	170.534E-3	-16.0804E-3
982.991E-6	3.69262E-12	211.494E-3	-12.3803E-3	3.64823E-12	151.323E-3	-21.7418E-3
977.989E-6	3.65173E-12	221.879E-3	1.49534E-3	3.51676E-12	148.383E-3	-11.5073E-3
972.986E-6	3.69337E-12	215.237E-3	-12.5775E-3	3.44946E-12	158.921E-3	-22.5570E-3
967.984E-6	3.58119E-12	199.477E-3	-34.8136E-3	3.45618E-12	159.864E-3	-34.5865E-3
962.981E-6	3.49586E-12	184.556E-3	-41.0440E-3	3.43283E-12	155.690E-3	-24.3323E-3
957.979E-6	3.48725E-12	180.509E-3	-32.7281E-3	3.31950E-12	147.244E-3	-14.1834E-3
952.976E-6	3.49879E-12	182.946E-3	-14.8909E-3	3.37604E-12	136.843E-3	-17.2126E-3
947.974E-6	3.32076E-12	174.512E-3	-4.68184E-3	3.31803E-12	140.782E-3	-20.1913E-3
942.971E-6	3.25746E-12	154.928E-3	-16.1390E-3	3.25551E-12	148.501E-3	-20.3891E-3
937.969E-6	3.26744E-12	153.491E-3	-20.7895E-3	3.25398E-12	139.295E-3	-14.9363E-3
932.966E-6	3.21474E-12	150.122E-3	-464.399E-6	3.20468E-12	122.952E-3	466.039E-6
927.964E-6	3.13617E-12	130.818E-3	3.12788E-3	3.12774E-12	122.172E-3	-2.50190E-3
922.961E-6	3.01075E-12	127.988E-3	-18.3405E-3	3.10493E-12	125.026E-3	-16.0503E-3
917.959E-6	2.97575E-12	123.022E-3	-25.1657E-3	3.10331E-12	118.353E-3	-6.55144E-3
912.956E-6	3.00491E-12	99.0984E-3	-15.7065E-3	3.04726E-12	117.402E-3	2.48905E-3
907.954E-6	2.90602E-12	97.8179E-3	-4.94617E-3	2.91257E-12	110.525E-3	-4.17081E-3
902.951E-6	2.79616E-12	113.845E-3	-3.48962E-3	2.87201E-12	97.3385E-3	-9.81833E-3
897.949E-6	2.80989E-12	109.119E-3	-12.0771E-3	2.90863E-12	97.6471E-3	-10.6871E-3
892.946E-6	2.79481E-12	101.779E-3	-9.37980E-3	2.86513E-12	98.6807E-3	-3.90198E-3
887.944E-6	2.68240E-12	104.821E-3	6.08901E-3	2.72560E-12	92.6180E-3	7.62381E-3
882.941E-6	2.70745E-12	100.171E-3	-3.43440E-3	2.64252E-12	94.3231E-3	-1.88001E-3
877.939E-6	2.71168E-12	88.2231E-3	-38.8729E-3	2.72797E-12	91.8241E-3	-23.7029E-3
872.936E-6	2.57525E-12	86.3426E-3	-52.9712E-3	2.69315E-12	80.1110E-3	-23.2752E-3
867.934E-6	2.57614E-12	86.8550E-3	-39.2441E-3	2.58137E-12	72.3928E-3	-12.6908E-3
862.931E-6	2.62638E-12	84.8195E-3	-12.8548E-3	2.57334E-12	68.8633E-3	-14.3311E-3
857.929E-6	2.57961E-12	89.5545E-3	7.62497E-3	2.57460E-12	70.5411E-3	-15.4001E-3
852.926E-6	2.54134E-12	84.7283E-3	-292.768E-6	2.62585E-12	76.6030E-3	-12.8896E-3
847.924E-6	2.47661E-12	73.7616E-3	-25.6222E-3	2.52476E-12	70.2781E-3	-10.2072E-3
842.921E-6	2.51860E-12	75.4513E-3	-34.2309E-3	2.47292E-12	62.3255E-3	-1.89986E-3
837.919E-6	2.54596E-12	76.8907E-3	-21.5996E-3	2.48715E-12	75.3256E-3	225.769E-6
832.916E-6	2.44489E-12	82.9748E-3	-11.4243E-3	2.49934E-12	84.4782E-3	-11.9529E-3
827.914E-6	2.38305E-12	95.4821E-3	-4.25083E-3	2.42476E-12	72.2930E-3	-20.3565E-3
822.911E-6	2.47390E-12	88.1577E-3	-5.64129E-3	2.39911E-12	62.5866E-3	-13.4297E-3
817.909E-6	2.45908E-12	65.2200E-3	-15.4506E-3	2.38679E-12	65.0600E-3	-14.7261E-3
812.906E-6	2.32655E-12	61.8624E-3	-15.3565E-3	2.32729E-12	66.8054E-3	-14.2545E-3
807.904E-6	2.27943E-12	72.6177E-3	-12.3701E-3	2.30006E-12	69.9809E-3	-538.923E-6
802.901E-6	2.29865E-12	77.8123E-3	-28.1782E-3	2.29280E-12	70.3902E-3	-3.15462E-3
797.899E-6	2.27728E-12	86.3747E-3	-39.3959E-3	2.30496E-12	67.0344E-3	-9.57427E-3
792.896E-6	2.24683E-12	78.0797E-3	-22.3544E-3	2.21802E-12	82.1335E-3	-5.27063E-3
787.894E-6	2.16801E-12	49.9406E-3	-7.26467E-3	2.14761E-12	98.1875E-3	-11.9332E-3
782.891E-6	2.17320E-12	47.4013E-3	-5.91948E-3	2.21437E-12	79.7145E-3	-21.7529E-3
777.889E-6	2.19342E-12	63.7844E-3	-7.05629E-3	2.16265E-12	65.0384E-3	-19.3886E-3
772.886E-6	2.07913E-12	66.9209E-3	-19.3581E-3	2.06297E-12	74.6201E-3	-17.6938E-3
767.884E-6	2.13429E-12	66.5729E-3	-30.8500E-3	2.04956E-12	76.5308E-3	-25.9122E-3
762.881E-6	2.14445E-12	65.5428E-3	-23.1817E-3	2.07372E-12	70.6730E-3	-28.0716E-3
757.879E-6	2.08199E-12	55.6373E-3	-14.6135E-3	2.05039E-12	70.8100E-3	-23.6299E-3
752.876E-6	2.02412E-12	55.5314E-3	-23.8489E-3	1.95324E-12	67.4303E-3	-21.1304E-3
747.874E-6	2.04093E-12	64.4816E-3	-33.5979E-3	1.90784E-12	59.7636E-3	-10.2686E-3
742.871E-6	2.05624E-12	54.8581E-3	-39.3775E-3	1.95852E-12	68.3923E-3	-6.26979E-3
737.869E-6	1.98908E-12	38.7984E-3	-35.9037E-3	1.98884E-12	72.6700E-3	-17.5703E-3
732.866E-6	1.95319E-12	39.5033E-3	-8.19256E-3	1.91509E-12	54.5814E-3	-11.3317E-3
727.864E-6	1.98669E-12	46.7863E-3	3.17426E-3	1.85586E-12	40.7209E-3	10.8977E-3
722.861E-6	1.99753E-12	55.7272E-3	-19.0238E-3	1.82933E-12	46.2125E-3	6.42327E-3
717.859E-6	1.90637E-12	65.2531E-3	-31.8319E-3	1.91444E-12	61.7321E-3	-11.1712E-3
712.856E-6	1.81610E-12	57.9672E-3	-17.0099E-3	1.88017E-12	65.2540E-3	-8.49659E-3
707.854E-6	1.91984E-12	54.5365E-3	-7.67003E-3	1.77242E-12	59.1183E-3	-7.65438E-3
702.851E-6	1.90884E-12	74.5451E-3	-20.4899E-3	1.84151E-12	51.2658E-3	-14.1428E-3
697.849E-6	1.76034E-12	77.8070E-3	-21.3367E-3	1.80049E-12	51.5943E-3	-17.0386E-3
692.846E-6	1.71075E-12	59.1699E-3	-13.6800E-3	1.76002E-12	65.9688E-3	-19.3196E-3
687.844E-6	1.77814E-12	50.5590E-3	-16.6671E-3	1.78603E-12	73.7325E-3	-13.3063E-3
682.841E-6	1.73363E-12	54.6631E-3	-21.9610E-3	1.75386E-12	73.5969E-3	-1.52445E-3
677.839E-6	1.61346E-12	70.1805E-3	-23.2149E-3	1.66450E-12	72.1666E-3	-3.44557E-3
672.836E-6	1.62283E-12	87.5893E-3	-20.2137E-3	1.71164E-12	68.3332E-3	-13.5793E-3
667.834E-6	1.60524E-12	84.0582E-3	-21.2785E-3	1.69395E-12	69.6987E-3	-16.8221E-3
662.831E-6	1.61624E-12	61.8764E-3	-24.5975E-3	1.62404E-12	75.9635E-3	-18.1424E-3
657.829E-6	1.55111E-12	56.8989E-3	-16.0934E-3	1.55902E-12	74.6149E-3	-15.1516E-3
652.826E-6	1.48361E-12	69.7976E-3	-5.48685E-3	1.55416E-12	77.4578E-3	-7.38672E-3
647.824E-6	1.58811E-12	68.5100E-3	-18.0482E-3	1.54829E-12	84.3942E-3	-19.3100E-3
642.821E-6	1.49458E-12	63.1122E-3	-35.5805E-3	1.55366E-12	79.3002E-3	-32.4099E-3
637.819E-6	1.48177E-12	60.3809E-3	-19.4117E-3	1.45542E-12	73.4859E-3	-15.8030E-3
632.816E-6	1.50632E-12	54.9081E-3	720.642E-6	1.42134E-12	73.8012E-3	-8.13351E-3
627.814E-6	1.52108E-12	54.9053E-3	-7.65578E-3	1.48269E-12	63.6331E-3	-20.2156E-3
622.811E-6	1.44990E-12	61.6255E-3	-16.6026E-3	1.48133E-12	56.1556E-3	-28.6594E-3
617.809E-6	1.34860E-12	68.7182E-3	-19.0976E-3	1.40851E-12	73.3651E-3	-43.7877E-3
612.806E-6	1.42568E-12	68.3623E-3	-16.8887E-3	1.32747E-12	90.3875E-3	-45.6109E-3
607.804E-6	1.42359E-12	68.9455E-3	2.58612E-3	1.40920E-12	81.8828E-3	-12.0593E-3
602.801E-6	1.31166E-12	67.6852E-3	5.10426E-3	1.40538E-12	68.7922E-3	8.95499E-3
597.799E-6	1.26047E-12	59.2019E-3	-18.4110E-3	1.35892E-12	67.4798E-3	-6.79334E-3
592.796E-6	1.27977E-12	47.9770E-3	-22.5019E-3	1.25662E-12	76.8198E-3	-17.3785E-3
587.794E-6	1.28370E-12	43.8012E-3	-17.2993E-3	1.28658E-12	93.4443E-3	-19.8177E-3
582.791E-6	1.21460E-12	59.7758E-3	-25.4899E-3	1.31538E-12	89.3750E-3	-30.1996E-3
577.789E-6	1.14388E-12	84.5332E-3	-28.6656E-3	1.21320E-12	66.8516E-3	-30.2920E-3
572.786E-6	1.22017E-12	93.1494E-3	-21.2306E-3	1.18277E-12	60.9124E-3	-33.0585E-3
567.784E-6	1.19437E-12	84.7476E-3	-10.6104E-3	1.14163E-12	66.5544E-3	-45.4808E-3
562.781E-6	1.07480E-12	75.0066E-3	312.203E-6	1.14831E-12	66.1739E-3	-30.3667E-3
557.779E-6	1.08199E-12	69.5806E-3	-6.34582E-3	1.10877E-12	68.1108E-3	-3.35264E-3
552.776E-6	1.08718E-12	68.6025E-3	-29.7982E-3	1.08539E-12	65.7499E-3	-7.92990E-3
547.774E-6	1.07960E-12	68.8469E-3	-42.1893E-3	1.08942E-12	58.5626E-3	-20.9455E-3
542.771E-6	1.07797E-12	61.8455E-3	-37.3556E-3	1.03902E-12	63.1357E-3	-22.5493E-3
537.769E-6	963.647E-15	55.3355E-3	-30.8990E-3	950.411E-15	71.9017E-3	-27.4478E-3
532.766E-6	1.01880E-12	62.5626E-3	-18.4243E-3	1.03098E-12	70.6928E-3	-26.3940E-3
527.764E-6	1.00910E-12	71.5493E-3	-1.54723E-3	1.00376E-12	71.9945E-3	-15.9599E-3
522.761E-6	944.229E-15	67.2544E-3	-4.12202E-3	919.963E-15	78.0969E-3	-14.7798E-3
517.759E-6	931.787E-15	54.8544E-3	-16.4334E-3	855.545E-15	71.7931E-3	-22.7251E-3
512.756E-6	916.615E-15	44.9279E-3	-20.7653E-3	931.054E-15	69.0171E-3	-22.4020E-3
507.754E-6	879.244E-15	47.8979E-3	-25.8468E-3	929.485E-15	78.0016E-3	-14.9430E-3
502.751E-6	770.715E-15	60.6941E-3	-29.1014E-3	819.770E-15	66.1449E-3	-8.99963E-3
497.749E-6	876.942E-15	68.5758E-3	-20.7745E-3	814.468E-15	48.1138E-3	-11.8800E-3
492.746E-6	845.832E-15	72.8305E-3	-18.1118E-3	854.813E-15	53.3274E-3	-14.1007E-3
487.744E-6	757.435E-15	78.0553E-3	-21.6940E-3	834.636E-15	59.1910E-3	-6.57299E-3
482.741E-6	690.576E-15	73.8582E-3	-11.8407E-3	797.352E-15	60.9193E-3	-5.16368E-3
477.739E-6	709.593E-15	64.6055E-3	-3.75002E-3	721.399E-15	68.1772E-3	-13.8754E-3
472.736E-6	736.884E-15	69.1504E-3	-10.8444E-3	706.035E-15	60.8666E-3	-20.0305E-3
467.734E-6	657.006E-15	71.2119E-3	-15.3656E-3	749.414E-15	45.4382E-3	-17.0062E-3
462.731E-6	620.891E-15	62.0583E-3	-15.2732E-3	663.180E-15	46.3125E-3	-18.6837E-3
457.729E-6	668.289E-15	64.6058E-3	-19.3509E-3	608.091E-15	48.9473E-3	-25.0852E-3
452.726E-6	684.760E-15	71.9472E-3	-19.2204E-3	669.824E-15	43.1604E-3	-12.2416E-3
447.724E-6	585.142E-15	67.2573E-3	-19.4968E-3	638.478E-15	51.7135E-3	454.101E-6
442.721E-6	543.917E-15	60.5360E-3	-18.9039E-3	538.633E-15	67.1000E-3	-13.3883E-3
437.719E-6	606.565E-15	51.0214E-3	-6.43374E-3	577.460E-15	64.7098E-3	-16.7666E-3
432.716E-6	603.993E-15	41.6625E-3	-2.33650E-3	557.240E-15	58.4003E-3	-3.07352E-3
427.714E-6	552.976E-15	50.9731E-3	-9.32745E-3	556.752E-15	50.3552E-3	-4.22010E-3
422.711E-6	487.721E-15	64.7080E-3	-5.46522E-3	518.832E-15	42.5551E-3	-9.89092E-3
417.709E-6	478.557E-15	59.4319E-3	-5.11045E-3	499.318E-15	44.6012E-3	-12.1676E-3
412.706E-6	515.728E-15	47.3122E-3	-19.4754E-3	538.345E-15	41.8300E-3	-22.1862E-3
407.704E-6	478.139E-15	47.3742E-3	-24.4295E-3	462.845E-15	32.4579E-3	-18.3233E-3
402.701E-6	405.036E-15	51.8750E-3	-17.9545E-3	369.636E-15	33.1479E-3	-788.400E-6
397.699E-6	415.909E-15	55.8476E-3	-29.7535E-3	430.418E-15	40.5476E-3	-8.41087E-3
392.696E-6	432.214E-15	62.6428E-3	-38.2681E-3	433.906E-15	39.7442E-3	-20.2484E-3
387.694E-6	347.698E-15	65.2849E-3	-21.5486E-3	364.317E-15	38.0602E-3	-14.6350E-3
382.691E-6	413.058E-15	64.2063E-3	-19.8993E-3	316.090E-15	42.3390E-3	-19.9096E-3
377.689E-6	441.770E-15	68.5990E-3	-27.6451E-3	353.278E-15	46.7381E-3	-26.9677E-3
372.686E-6	326.396E-15	60.4056E-3	-27.0084E-3	393.657E-15	57.0169E-3	-16.0414E-3
367.684E-6	236.535E-15	34.9949E-3	-39.5114E-3	320.964E-15	58.6570E-3	-9.27171E-3
362.681E-6	342.396E-15	23.4876E-3	-45.8213E-3	241.758E-15	38.6346E-3	-5.76836E-3
357.679E-6	314.503E-15	24.8308E-3	-27.9705E-3	267.306E-15	30.4671E-3	12.0810E-3
352.676E-6	253.939E-15	29.7543E-3	-17.6677E-3	344.873E-15	40.7520E-3	12.9801E-3
347.674E-6	212.418E-15	49.7483E-3	-21.8071E-3	263.792E-15	39.1744E-3	-10.5557E-3
342.671E-6	204.457E-15	63.1219E-3	-20.0102E-3	205.093E-15	31.4193E-3	-29.9910E-3
337.669E-6	287.622E-15	54.8704E-3	-16.1584E-3	241.296E-15	32.1460E-3	-32.8763E-3
332.666E-6	166.667E-15	46.8087E-3	-8.67722E-3	304.450E-15	24.9274E-3	-18.8272E-3
327.664E-6	138.905E-15	42.5683E-3	-6.87705E-3	210.883E-15	22.2695E-3	-9.04465E-3
322.661E-6	246.562E-15	44.7954E-3	-27.3546E-3	173.198E-15	40.2064E-3	-20.6979E-3
317.659E-6	234.844E-15	54.4608E-3	-40.6745E-3	154.234E-15	48.4436E-3	-32.0274E-3
312.656E-6	185.510E-15	44.7662E-3	-30.5349E-3	143.805E-15	39.6200E-3	-18.0869E-3
307.654E-6	108.850E-15	20.6064E-3	-19.3984E-3	158.620E-15	39.1446E-3	636.160E-6
302.651E-6	117.648E-15	24.0427E-3	-22.7911E-3	151.365E-15	38.5802E-3	4.92514E-3
297.649E-6	146.543E-15	49.4247E-3	-29.5878E-3	135.313E-15	34.9334E-3	1.43870E-3
292.646E-6	147.790E-15	53.6457E-3	-25.4938E-3	134.973E-15	36.1321E-3	-6.33301E-3
287.644E-6	61.3033E-15	39.7213E-3	-20.4446E-3	64.6516E-15	32.4667E-3	-10.9160E-3
282.641E-6	88.5076E-15	33.0323E-3	-15.2127E-3	105.257E-15	27.5406E-3	-3.84760E-3
277.639E-6	161.881E-15	23.8481E-3	-12.6730E-3	157.835E-15	32.9792E-3	6.11795E-3
272.636E-6	56.5688E-15	17.6447E-3	-16.8369E-3	89.7632E-15	35.9684E-3	517.587E-6
267.634E-6	77.6259E-15	18.9334E-3	-13.7169E-3	-2.62662E-15	22.0871E-3	-6.34902E-3
262.631E-6	79.7708E-15	16.4685E-3	-12.2327E-3	112.381E-15	15.1375E-3	-1.84374E-3
257.629E-6	23.6795E-15	20.6635E-3	-18.1682E-3	98.8574E-15	11.3737E-3	1.24425E-3
252.626E-6	-2.87076E-15	30.3525E-3	-9.67199E-3	38.0315E-15	-3.90435E-3	2.99534E-3
247.624E-6	71.6619E-15	29.6659E-3	-8.28115E-3	-18.8358E-15	-3.91731E-3	-853.969E-6
242.621E-6	57.9726E-15	21.4421E-3	-30.2331E-3	53.9443E-15	7.71654E-3	-20.8099E-3
237.619E-6	-15.0429E-15	13.6880E-3	-32.4745E-3	73.7022E-15	17.0504E-3	-38.1169E-3
232.616E-6	-35.7425E-15	10.5322E-3	-9.87795E-3	47.4745E-15	35.1712E-3	-32.2763E-3
227.614E-6	-18.2167E-15	22.9830E-3	-3.77834E-3	-59.4852E-15	42.8038E-3	-27.1598E-3
222.611E-6	21.1858E-15	36.8385E-3	-12.8015E-3	-26.2036E-15	19.4769E-3	-32.7224E-3
217.609E-6	-29.7175E-15	39.8439E-3	-14.1589E-3	19.4420E-15	2.97185E-3	-32.3568E-3
212.606E-6	-68.3353E-15	35.1110E-3	-17.6727E-3	-39.2041E-15	12.6527E-3	-38.9934E-3
207.604E-6	19.3112E-15	31.0755E-3	-17.1541E-3	-75.8688E-15	14.8231E-3	-40.9756E-3
202.601E-6	57.0919E-15	26.2394E-3	-8.90993E-3	24.8566E-15	8.76753E-3	-15.7343E-3
197.599E-6	-128.272E-15	19.7306E-3	-11.5455E-3	-13.8222E-15	8.95583E-3	861.921E-6
192.596E-6	-60.2264E-15	17.6418E-3	-21.1234E-3	-85.8524E-15	6.03224E-3	-12.2296E-3
187.594E-6	9.98150E-15	8.22705E-3	-20.5587E-3	-27.2063E-15	6.75457E-3	-16.6879E-3
182.591E-6	-9.41896E-15	-2.24700E-3	-16.8487E-3	-48.3855E-15	17.7771E-3	-4.84556E-3
177.589E-6	-45.3599E-15	10.9280E-3	-23.6352E-3	-63.3217E-15	15.6210E-3	-2.52647E-3
172.586E-6	-76.0432E-15	26.9002E-3	-29.5371E-3	-77.5516E-15	6.93516E-3	-6.26460E-3
167.584E-6	-39.1605E-15	8.80213E-3	-25.8045E-3	-29.3164E-15	10.2826E-3	-16.7385E-3
162.581E-6	-67.3152E-15	-8.52943E-3	-15.1352E-3	-60.5403E-15	15.8737E-3	-32.7052E-3
157.579E-6	-79.2170E-15	-1.98813E-3	4.29073E-3	-96.2894E-15	19.9178E-3	-36.1412E-3
152.576E-6	-100.152E-15	-2.48399E-3	9.42627E-3	-122.526E-15	27.9664E-3	-34.3874E-3
147.574E-6	-58.7877E-15	-2.71572E-3	-12.5603E-3	-58.8749E-15	17.9724E-3	-33.0530E-3
142.571E-6	-86.0006E-15	6.51125E-3	-26.2094E-3	-39.6226E-15	-6.30796E-3	-24.2479E-3
137.569E-6	-149.992E-15	3.51787E-3	-27.4695E-3	-125.124E-15	-2.00391E-3	-14.7282E-3
132.566E-6	-76.9326E-15	4.98969E-3	-24.8257E-3	-185.235E-15	8.69273E-3	-11.4368E-3
127.564E-6	-47.6706E-15	17.3294E-3	-4.16037E-3	-81.2835E-15	5.50828E-3	-5.98119E-3
122.561E-6	-132.169E-15	11.8976E-3	4.30641E-3	-56.4945E-15	9.00541E-3	-1.70319E-3
117.559E-6	-140.740E-15	6.69525E-3	-9.48807E-3	-120.390E-15	9.18229E-3	-14.3423E-3
112.556E-6	-105.506E-15	9.95934E-3	-6.65304E-3	-162.329E-15	7.59821E-3	-22.1034E-3
107.554E-6	-65.7195E-15	-1.31874E-3	5.34277E-3	-130.286E-15	16.6152E-3	-12.2278E-3
102.551E-6	-115.027E-15	-6.96736E-3	-3.54224E-3	-71.8841E-15	16.9493E-3	-12.1489E-3
97.5488E-6	-165.747E-15	2.12567E-3	-18.4987E-3	-127.941E-15	3.14564E-3	-15.6365E-3
92.5463E-6	-100.937E-15	-2.13350E-3	-21.2088E-3	-198.890E-15	-2.32147E-3	-13.5734E-3
87.5438E-6	-70.2710E-15	-10.7514E-3	-26.5686E-3	-145.205E-15	2.96197E-3	-19.1814E-3
82.5413E-6	-148.727E-15	810.207E-6	-32.2052E-3	-99.2714E-15	5.45421E-3	-22.0628E-3
77.5388E-6	-189.830E-15	6.49694E-3	-23.4110E-3	-186.212E-15	4.63525E-3	-10.6860E-3
72.5363E-6	-86.2012E-15	-1.92353E-3	-27.0832E-3	-129.501E-15	1.42600E-3	88.0385E-6
67.5338E-6	-83.8383E-15	-5.86387E-3	-41.8244E-3	-136.023E-15	682.773E-6	-4.70115E-3
62.5313E-6	-200.136E-15	-9.93918E-3	-30.8425E-3	-176.926E-15	6.13739E-3	-9.92237E-3
57.5288E-6	-185.784E-15	-11.2443E-3	-22.5055E-3	-150.000E-15	6.06776E-3	-10.7722E-3
52.5263E-6	-138.831E-15	2.62684E-3	-31.7397E-3	-144.664E-15	-5.90043E-3	-14.2091E-3
47.5238E-6	-127.661E-15	15.6486E-3	-34.2552E-3	-179.803E-15	-9.92542E-3	-6.88915E-3
42.5213E-6	-133.748E-15	6.70056E-3	-36.9209E-3	-185.845E-15	725.908E-6	-4.04872E-3
37.5188E-6	-199.404E-15	-5.12375E-3	-37.3092E-3	-185.732E-15	4.79317E-3	-18.3023E-3
32.5163E-6	-136.468E-15	-3.71913E-3	-21.5546E-3	-133.564E-15	10.2537E-3	-23.6887E-3
27.5138E-6	-159.034E-15	-1.40794E-3	-13.8440E-3	-100.893E-15	18.2981E-3	-16.5377E-3
22.5113E-6	-208.115E-15	6.74625E-3	-21.6835E-3	-221.961E-15	6.23383E-3	-9.06390E-3
17.5088E-6	-178.294E-15	13.3482E-3	-22.4828E-3	-191.783E-15	-9.15796E-3	-3.97261E-3
12.5063E-6	-130.478E-15	-821.359E-6	-26.2768E-3	-146.486E-15	183.262E-6	-9.22940E-3
7.50375E-6	-199.282E-15	-3.99656E-3	-31.7606E-3	-142.877E-15	8.85523E-3	-22.0392E-3
2.50125E-6	-265.557E-15	6.35747E-3	-22.5550E-3	-167.692E-15	3.44186E-3	-23.8922E-3
-2.50125E-6	-187.066E-15	-2.25251E-3	-18.5565E-3	-248.188E-15	14.8443E-3	-20.0197E-3
-7.50375E-6	-155.773E-15	-4.05166E-3	-20.4688E-3	-182.209E-15	29.0743E-3	-19.2909E-3
-12.5063E-6	-241.963E-15	4.08334E-3	-4.28421E-3	-104.451E-15	25.1137E-3	-12.1788E-3
-17.5088E-6	-240.481E-15	-7.07903E-3	6.71113E-3	-199.840E-15	21.3088E-3	-3.08542E-3
-22.5113E-6	-172.043E-15	-11.5255E-3	1.69346E-3	-272.646E-15	14.7682E-3	-6.66273E-3
-27.5138E-6	-134.349E-15	-2.25954E-3	-3.10811E-3	-250.264E-15	980.024E-6	-16.8508E-3
-32.5163E-6	-203.659E-15	-3.55172E-3	-13.7501E-3	-149.660E-15	1.05537E-3	-19.4871E-3
-37.5188E-6	-256.707E-15	-2.46532E-3	-21.3690E-3	-202.717E-15	4.54224E-3	-20.8137E-3
-42.5213E-6	-187.755E-15	4.83590E-3	-13.2800E-3	-243.698E-15	3.28203E-3	-19.6129E-3
-47.5238E-6	-171.450E-15	5.34433E-3	-2.39478E-3	-182.933E-15	12.1728E-3	-10.1128E-3
-52.5263E-6	-237.455E-15	14.3628E-3	-4.09744E-3	-206.074E-15	6.72062E-3	-7.10652E-3
-57.5288E-6	-273.605E-15	35.7835E-3	-10.5253E-3	-224.568E-15	-14.8578E-3	-8.26147E-3
-62.5313E-6	-212.919E-15	27.5175E-3	-10.1871E-3	-206.606E-15	-15.9983E-3	-14.2908E-3
-67.5338E-6	-183.465E-15	-1.33344E-3	-5.88440E-3	-237.603E-15	-3.78626E-3	-29.8521E-3
-72.5363E-6	-193.492E-15	4.27475E-3	-5.62102E-3	-231.212E-15	-773.394E-6	-25.1212E-3
-77.5388E-6	-239.583E-15	21.7819E-3	-9.73337E-3	-244.727E-15	5.84381E-3	-11.8638E-3
-82.5413E-6	-255.199E-15	13.7028E-3	-12.4814E-3	-236.635E-15	15.5526E-3	-25.4488E-3
-87.5438E-6	-204.845E-15	770.212E-6	-13.9696E-3	-226.259E-15	7.98914E-3	-35.9080E-3
-92.5463E-6	-262.427E-15	-1.98529E-3	-5.73077E-3	-306.852E-15	5.44902E-3	-23.1679E-3
-97.5488E-6	-311.351E-15	1.96634E-3	-891.906E-6	-253.551E-15	17.8627E-3	-19.5724E-3
-102.551E-6	-260.893E-15	10.2426E-3	-7.68257E-3	-208.830E-15	8.43217E-3	-29.0832E-3
-107.554E-6	-288.637E-15	10.1975E-3	-12.0729E-3	-210.504E-15	-12.9043E-3	-21.1585E-3
-112.556E-6	-348.801E-15	5.35818E-3	-18.3026E-3	-279.438E-15	-9.51928E-3	-14.6331E-3
-117.559E-6	-231.011E-15	13.9540E-3	-15.8150E-3	-315.301E-15	146.266E-6	-32.7041E-3
-122.561E-6	-218.700E-15	24.2028E-3	-5.58039E-3	-249.278E-15	-471.427E-6	-34.9360E-3
-127.564E-6	-331.780E-15	22.5551E-3	-15.3858E-3	-197.878E-15	11.9436E-3	-19.3213E-3
-132.566E-6	-307.645E-15	18.6921E-3	-33.1637E-3	-328.502E-15	23.0807E-3	-24.4925E-3
-137.569E-6	-291.916E-15	14.1042E-3	-37.0880E-3	-360.737E-15	10.1453E-3	-33.3333E-3
-142.571E-6	-269.795E-15	6.27137E-3	-38.0896E-3	-342.714E-15	3.82194E-3	-25.6161E-3
-147.574E-6	-318.431E-15	12.8615E-3	-34.4608E-3	-250.333E-15	4.98496E-3	-21.3867E-3
-152.576E-6	-352.820E-15	32.6686E-3	-18.6468E-3	-338.765E-15	1.97856E-3	-16.6784E-3
-157.579E-6	-324.997E-15	28.3236E-3	-10.6875E-3	-375.743E-15	14.7032E-3	-14.2797E-3
-162.581E-6	-250.865E-15	14.2118E-3	-22.2565E-3	-362.202E-15	28.3086E-3	-23.0027E-3
-167.584E-6	-386.791E-15	17.5351E-3	-26.7672E-3	-275.367E-15	24.0399E-3	-19.7913E-3
-172.586E-6	-377.348E-15	20.6563E-3	-15.3321E-3	-357.747E-15	24.4632E-3	-5.56247E-3
-177.589E-6	-339.706E-15	20.1743E-3	-11.7282E-3	-347.632E-15	36.5182E-3	-7.25964E-3
-182.591E-6	-304.881E-15	20.8664E-3	-10.1388E-3	-380.295E-15	34.8263E-3	-21.2328E-3
-187.594E-6	-420.613E-15	11.7535E-3	-4.68155E-3	-431.076E-15	22.4119E-3	-29.3232E-3
-192.596E-6	-449.979E-15	1.42973E-3	-7.35355E-3	-382.614E-15	23.3103E-3	-38.0360E-3
-197.599E-6	-408.981E-15	8.21924E-3	-7.89135E-3	-390.566E-15	22.0996E-3	-36.7789E-3
-202.601E-6	-381.228E-15	22.3153E-3	-7.08072E-3	-403.680E-15	12.4779E-3	-22.1623E-3
-207.604E-6	-405.276E-15	33.7064E-3	-15.0255E-3	-433.526E-15	16.9828E-3	-28.9617E-3
-212.606E-6	-472.013E-15	42.2650E-3	-15.7246E-3	-448.375E-15	21.2702E-3	-41.5774E-3
-217.609E-6	-390.400E-15	29.0290E-3	-4.53054E-3	-429.855E-15	25.3297E-3	-25.5748E-3
-222.611E-6	-451.209E-15	6.28407E-3	5.14494E-3	-414.867E-15	42.0892E-3	-18.0911E-3
-227.614E-6	-478.090E-15	13.3034E-3	9.83993E-3	-538.193E-15	41.9965E-3	-24.3371E-3
-232.616E-6	-481.875E-15	35.5673E-3	7.15843E-3	-521.914E-15	26.7146E-3	-15.1467E-3
-237.619E-6	-448.994E-15	39.4436E-3	-7.45821E-3	-494.282E-15	27.7786E-3	-16.8677E-3
-242.621E-6	-534.740E-15	31.0519E-3	-20.2390E-3	-438.923E-15	31.5387E-3	-33.0304E-3
-247.624E-6	-574.500E-15	28.5976E-3	-17.6166E-3	-523.396E-15	37.4880E-3	-31.7054E-3
-252.626E-6	-545.325E-15	28.7398E-3	-21.6738E-3	-597.632E-15	51.9719E-3	-27.0164E-3
-257.629E-6	-478.056E-15	25.9368E-3	-34.7865E-3	-521.818E-15	47.0249E-3	-36.0846E-3
-262.631E-6	-575.337E-15	20.9539E-3	-31.4173E-3	-524.024E-15	39.7995E-3	-31.0544E-3
-267.634E-6	-585.050E-15	14.9392E-3	-15.3370E-3	-582.905E-15	55.0911E-3	-17.1717E-3
-272.636E-6	-562.642E-15	23.7678E-3	-6.90100E-3	-682.776E-15	58.3830E-3	-19.8017E-3
-277.639E-6	-578.354E-15	48.3474E-3	-12.9254E-3	-644.036E-15	43.6108E-3	-21.3398E-3
-282.641E-6	-615.672E-15	59.3640E-3	-21.2914E-3	-595.505E-15	50.6173E-3	-17.6365E-3
-287.644E-6	-689.115E-15	57.3108E-3	-16.4668E-3	-675.879E-15	63.6249E-3	-22.8029E-3
-292.646E-6	-643.252E-15	63.1873E-3	-7.24711E-3	-718.456E-15	54.4445E-3	-21.8426E-3
-297.649E-6	-673.822E-15	67.6606E-3	-10.5247E-3	-646.452E-15	50.2530E-3	-10.8336E-3
-302.651E-6	-713.032E-15	58.0579E-3	-12.6581E-3	-711.236E-15	61.6703E-3	-9.56982E-3
-307.654E-6	-762.619E-15	48.4733E-3	-1.34850E-3	-722.937E-15	56.2686E-3	-12.9634E-3
-312.656E-6	-740.420E-15	45.3015E-3	611.328E-6	-718.569E-15	51.4398E-3	-17.8512E-3
-317.659E-6	-764.389E-15	45.1643E-3	-12.8785E-3	-757.318E-15	65.2674E-3	-30.4410E-3
-322.661E-6	-860.022E-15	51.5861E-3	-9.96563E-3	-804.062E-15	69.0911E-3	-29.8640E-3
-327.664E-6	-814.307E-15	56.4638E-3	7.25842E-3	-828.825E-15	75.5489E-3	-21.2761E-3
-332.666E-6	-850.789E-15	59.8893E-3	254.412E-6	-833.585E-15	81.4442E-3	-23.0447E-3
-337.669E-6	-830.133E-15	71.8113E-3	-24.5214E-3	-834.588E-15	65.6598E-3	-19.9835E-3
-342.671E-6	-941.155E-15	83.1321E-3	-31.4517E-3	-923.542E-15	61.5043E-3	-17.9032E-3
-347.674E-6	-941.966E-15	88.0607E-3	-20.0764E-3	-1.01377E-12	80.7005E-3	-21.7279E-3
-352.676E-6	-889.494E-15	88.7606E-3	-7.32233E-3	-916.375E-15	88.4201E-3	-15.7718E-3
-357.679E-6	-962.753E-15	80.2453E-3	-6.33829E-3	-910.969E-15	83.2764E-3	-4.35052E-3
-362.681E-6	-1.03282E-12	65.6144E-3	-25.7313E-3	-1.01959E-12	82.1056E-3	-3.22843E-3
-367.684E-6	-984.281E-15	55.9164E-3	-42.3681E-3	-1.11360E-12	85.1479E-3	-9.56416E-3
-372.686E-6	-1.02017E-12	57.6250E-3	-29.9709E-3	-1.02379E-12	98.9606E-3	-5.64337E-3
-377.689E-6	-1.11349E-12	68.3711E-3	-8.88324E-3	-1.03245E-12	112.879E-3	-2.97333E-3
-382.691E-6	-1.13321E-12	80.6472E-3	-4.51433E-3	-1.13370E-12	100.203E-3	-6.76914E-3
-387.694E-6	-1.10611E-12	86.5576E-3	-4.28523E-3	-1.17306E-12	81.1640E-3	557.242E-6
-392.696E-6	-1.19198E-12	79.7670E-3	9.13734E-6	-1.17012E-12	90.7239E-3	1.86156E-3
-397.699E-6	-1.25005E-12	80.2569E-3	-6.55220E-3	-1.13533E-12	103.426E-3	-17.4777E-3
-402.701E-6	-1.29374E-12	92.7394E-3	-16.7112E-3	-1.21580E-12	98.7230E-3	-26.0202E-3
-407.704E-6	-1.30555E-12	91.4077E-3	-23.5987E-3	-1.26321E-12	97.3222E-3	-23.1693E-3
-412.706E-6	-1.26211E-12	87.0718E-3	-23.4513E-3	-1.29782E-12	97.3523E-3	-28.3602E-3
-417.709E-6	-1.38010E-12	89.2220E-3	-14.2419E-3	-1.30879E-12	106.753E-3	-23.4091E-3
-422.711E-6	-1.43611E-12	82.6558E-3	-12.4311E-3	-1.38588E-12	128.617E-3	-13.9171E-3
-427.714E-6	-1.40776E-12	81.3269E-3	-14.4272E-3	-1.40008E-12	123.946E-3	-25.2392E-3
-432.716E-6	-1.41157E-12	95.9553E-3	-17.2616E-3	-1.45484E-12	109.523E-3	-27.1973E-3
-437.719E-6	-1.53634E-12	107.408E-3	-30.1840E-3	-1.49385E-12	119.668E-3	-10.0555E-3
-442.721E-6	-1.54472E-12	101.039E-3	-35.8382E-3	-1.55656E-12	117.695E-3	-16.1363E-3
-447.724E-6	-1.60571E-12	89.8236E-3	-19.0571E-3	-1.59855E-12	104.433E-3	-28.1705E-3
-452.726E-6	-1.56635E-12	90.1511E-3	-3.80876E-3	-1.57500E-12	115.071E-3	-17.3856E-3
-457.729E-6	-1.64468E-12	99.9739E-3	-20.0276E-3	-1.64427E-12	126.677E-3	-14.1522E-3
-462.731E-6	-1.69386E-12	110.101E-3	-40.7121E-3	-1.74330E-12	114.738E-3	-21.6540E-3
-467.734E-6	-1.70713E-12	104.422E-3	-27.4019E-3	-1.73271E-12	111.617E-3	-18.0401E-3
-472.736E-6	-1.70518E-12	98.1761E-3	242.519E-6	-1.70761E-12	122.927E-3	-10.1735E-3
-477.739E-6	-1.81116E-12	111.430E-3	12.6154E-3	-1.85636E-12	112.375E-3	-10.2153E-3
-482.741E-6	-1.75713E-12	123.174E-3	5.10159E-3	-1.90807E-12	100.359E-3	-8.05102E-3
-487.744E-6	-1.78806E-12	117.608E-3	-16.5008E-3	-1.83041E-12	107.889E-3	-8.59879E-3
-492.746E-6	-1.90287E-12	108.152E-3	-37.1967E-3	-1.86050E-12	114.220E-3	-16.8537E-3
-497.749E-6	-1.98604E-12	114.688E-3	-36.5302E-3	-1.97578E-12	120.918E-3	-9.10948E-3
-502.751E-6	-1.88337E-12	130.680E-3	-19.4889E-3	-2.06167E-12	134.354E-3	-4.13279E-3
-507.754E-6	-1.98182E-12	134.762E-3	-9.02118E-3	-2.03162E-12	135.341E-3	-9.63714E-3
-512.756E-6	-2.06398E-12	120.132E-3	-9.28789E-3	-2.04280E-12	129.329E-3	-4.71121E-3
-517.759E-6	-2.10118E-12	96.3860E-3	-7.86442E-3	-2.12812E-12	131.290E-3	-8.58771E-3
-522.761E-6	-2.11477E-12	99.5519E-3	-1.30388E-3	-2.22643E-12	130.411E-3	-14.2056E-3
-527.764E-6	-2.10309E-12	129.084E-3	-3.89118E-3	-2.27998E-12	134.212E-3	-4.34669E-3
-532.766E-6	-2.18977E-12	139.633E-3	-20.4616E-3	-2.23033E-12	140.146E-3	-2.94347E-3
-537.769E-6	-2.26393E-12	131.999E-3	-25.7005E-3	-2.32476E-12	126.792E-3	-10.6779E-3
-542.771E-6	-2.26472E-12	120.324E-3	-15.4611E-3	-2.42415E-12	122.185E-3	-6.16636E-3
-547.774E-6	-2.23606E-12	108.208E-3	-15.8418E-3	-2.39729E-12	142.033E-3	-5.89872E-3
-552.776E-6	-2.34651E-12	109.892E-3	-16.3063E-3	-2.40385E-12	143.092E-3	-12.3959E-3
-557.779E-6	-2.36690E-12	119.377E-3	-7.38817E-3	-2.48342E-12	126.657E-3	-5.06831E-3
-562.781E-6	-2.37686E-12	120.165E-3	-11.7242E-3	-2.50589E-12	127.248E-3	-8.30280E-3
-567.784E-6	-2.42870E-12	115.750E-3	-21.3223E-3	-2.56781E-12	130.485E-3	-30.9251E-3
-572.786E-6	-2.50598E-12	114.922E-3	-11.7974E-3	-2.65223E-12	120.391E-3	-36.4795E-3
-577.789E-6	-2.55731E-12	115.185E-3	-3.73767E-3	-2.68299E-12	115.431E-3	-21.7265E-3
-582.791E-6	-2.61717E-12	113.135E-3	-14.8971E-3	-2.68837E-12	112.602E-3	-15.1814E-3
-587.794E-6	-2.57554E-12	107.337E-3	-20.1825E-3	-2.70912E-12	111.439E-3	-19.5836E-3
-592.796E-6	-2.72139E-12	104.277E-3	-15.7784E-3	-2.81265E-12	121.328E-3	-21.7737E-3
-597.799E-6	-2.73473E-12	105.040E-3	-20.3647E-3	-2.82659E-12	125.387E-3	-18.1332E-3
-602.801E-6	-2.75948E-12	108.564E-3	-22.3356E-3	-2.79744E-12	113.450E-3	-8.72157E-3
-607.804E-6	-2.82246E-12	115.588E-3	-8.97601E-3	-2.80773E-12	99.6437E-3	-5.00555E-3
-612.806E-6	-2.91042E-12	125.239E-3	357.413E-6	-2.83501E-12	93.8489E-3	-14.3060E-3
-617.809E-6	-2.90907E-12	125.089E-3	-5.95619E-3	-3.01416E-12	95.6364E-3	-23.5190E-3
-622.811E-6	-2.87787E-12	108.729E-3	-14.1518E-3	-2.94665E-12	115.237E-3	-26.2701E-3
-627.814E-6	-3.05302E-12	110.024E-3	-16.5533E-3	-2.93292E-12	125.646E-3	-30.8827E-3
-632.816E-6	-3.14480E-12	134.245E-3	-14.9921E-3	-3.05853E-12	104.016E-3	-31.5894E-3
-637.819E-6	-3.11283E-12	136.977E-3	-13.9318E-3	-3.13350E-12	91.0290E-3	-22.3536E-3
-642.821E-6	-3.14094E-12	114.477E-3	-20.1976E-3	-3.09921E-12	102.535E-3	-26.9733E-3
-647.824E-6	-3.22090E-12	100.833E-3	-24.6817E-3	-3.04763E-12	96.1069E-3	-35.0851E-3
-652.826E-6	-3.32637E-12	96.3407E-3	-24.0165E-3	-3.14791E-12	83.9488E-3	-18.0067E-3
-657.829E-6	-3.28842E-12	89.8576E-3	-32.9312E-3	-3.26996E-12	95.9445E-3	-6.60644E-3
-662.831E-6	-3.28806E-12	91.0077E-3	-33.3142E-3	-3.25125E-12	96.2311E-3	-15.3952E-3
-667.834E-6	-3.39697E-12	99.6702E-3	-10.1409E-3	-3.24108E-12	94.4280E-3	-10.7877E-3
-672.836E-6	-3.45203E-12	108.151E-3	-4.84509E-3	-3.34248E-12	108.411E-3	-711.391E-6
-677.839E-6	-3.37265E-12	113.095E-3	-22.4556E-3	-3.36416E-12	106.630E-3	-6.20355E-3
-682.841E-6	-3.41067E-12	115.571E-3	-23.9263E-3	-3.34713E-12	97.4557E-3	-12.4307E-3
-687.844E-6	-3.52150E-12	114.374E-3	-18.2045E-3	-3.44317E-12	98.7609E-3	-18.5717E-3
-692.846E-6	-3.53869E-12	113.843E-3	-24.8037E-3	-3.44711E-12	92.3139E-3	-28.9453E-3
-697.849E-6	-3.56432E-12	115.940E-3	-26.7889E-3	-3.43073E-12	83.1758E-3	-16.0048E-3
-702.851E-6	-3.60101E-12	110.728E-3	-20.9165E-3	-3.47504E-12	88.4308E-3	6.03529E-3
-707.854E-6	-3.65187E-12	111.497E-3	-23.1932E-3	-3.55407E-12	87.5896E-3	-2.04358E-3
-712.856E-6	-3.69693E-12	113.572E-3	-30.9227E-3	-3.56729E-12	76.5987E-3	-18.5168E-3
-717.859E-6	-3.69685E-12	96.6060E-3	-35.1186E-3	-3.56092E-12	79.9594E-3	-23.5594E-3
-722.861E-6	-3.70130E-12	81.1384E-3	-30.4069E-3	-3.66375E-12	81.0523E-3	-25.8724E-3
-727.864E-6	-3.77814E-12	83.4193E-3	-23.8351E-3	-3.64681E-12	76.0611E-3	-20.0743E-3
-732.866E-6	-3.79271E-12	93.5658E-3	-21.4236E-3	-3.72277E-12	87.7307E-3	-15.5467E-3
-737.869E-6	-3.75762E-12	98.0723E-3	-19.5115E-3	-3.74562E-12	96.8701E-3	-30.0271E-3
-742.871E-6	-3.86678E-12	99.8875E-3	-15.7751E-3	-3.76285E-12	90.0435E-3	-31.1443E-3
-747.874E-6	-4.01017E-12	102.401E-3	-9.26448E-3	-3.79750E-12	91.0576E-3	-10.6158E-3
-752.876E-6	-3.75145E-12	95.3064E-3	-4.47457E-3	-3.90764E-12	98.5040E-3	-12.7347E-3
-757.879E-6	-3.84858E-12	83.6067E-3	-8.95574E-3	-3.90427E-12	86.7634E-3	-25.3883E-3
-762.881E-6	-4.00904E-12	74.2890E-3	-19.1154E-3	-3.89136E-12	82.0125E-3	-19.4921E-3
-767.884E-6	-4.03614E-12	68.6886E-3	-23.7079E-3	-4.02467E-12	101.083E-3	-22.6504E-3
-772.886E-6	-3.88233E-12	70.7755E-3	-17.5161E-3	-4.08828E-12	101.059E-3	-26.6857E-3
-777.889E-6	-3.86470E-12	77.1133E-3	-6.65737E-3	-4.08320E-12	92.5185E-3	-17.1471E-3
-782.891E-6	-4.04531E-12	81.0253E-3	-8.37879E-3	-4.12758E-12	100.901E-3	-23.9840E-3
-787.894E-6	-3.99925E-12	83.9305E-3	-17.5623E-3	-4.14705E-12	93.4331E-3	-27.4650E-3
-792.896E-6	-4.02432E-12	78.1660E-3	-14.6359E-3	-4.20490E-12	81.0441E-3	-7.02750E-3
-797.899E-6	-4.10807E-12	61.2835E-3	-13.7458E-3	-4.22072E-12	92.6582E-3	-7.39069E-3
-802.901E-6	-4.11874E-12	54.2712E-3	-21.2283E-3	-4.16913E-12	89.9331E-3	-20.9820E-3
-807.904E-6	-4.15153E-12	68.0697E-3	-19.8887E-3	-4.16704E-12	72.0514E-3	-4.32329E-3
-812.906E-6	-4.21358E-12	83.9923E-3	-13.8189E-3	-4.18648E-12	66.6095E-3	589.582E-6
-817.909E-6	-4.12121E-12	89.6202E-3	-18.7705E-3	-4.25609E-12	50.2181E-3	-22.6276E-3
-822.911E-6	-4.13813E-12	86.6801E-3	-22.4656E-3	-4.25598E-12	46.6437E-3	-26.4044E-3
-827.914E-6	-4.24134E-12	85.9749E-3	-18.2141E-3	-4.34598E-12	82.0397E-3	-19.5575E-3
-832.916E-6	-4.20956E-12	93.1443E-3	-16.6209E-3	-4.39541E-12	94.7167E-3	-26.0545E-3
-837.919E-6	-4.20275E-12	93.1147E-3	-11.7060E-3	-4.35771E-12	79.1430E-3	-21.5042E-3
-842.921E-6	-4.31517E-12	83.0906E-3	-12.3444E-3	-4.41715E-12	75.2081E-3	-8.91276E-3
-847.924E-6	-4.26809E-12	74.9580E-3	-25.8769E-3	-4.60776E-12	63.6155E-3	-15.4007E-3
-852.926E-6	-4.24414E-12	66.1520E-3	-24.1331E-3	-4.53443E-12	55.2648E-3	-17.0643E-3
-857.929E-6	-4.30513E-12	61.3815E-3	-10.3361E-3	-4.55001E-12	73.7852E-3	-2.16133E-3
-862.931E-6	-4.40184E-12	68.4429E-3	-11.1680E-3	-4.64388E-12	82.3160E-3	-3.53922E-3
-867.934E-6	-4.32832E-12	75.5994E-3	-18.3979E-3	-4.68699E-12	75.9868E-3	-14.3300E-3
-872.936E-6	-4.33314E-12	75.3538E-3	-23.6596E-3	-4.61417E-12	87.9299E-3	-13.2325E-3
-877.939E-6	-4.47690E-12	71.4347E-3	-26.4256E-3	-4.64345E-12	104.207E-3	-9.88831E-3
-882.941E-6	-4.51119E-12	72.9262E-3	-26.6436E-3	-4.72663E-12	94.1093E-3	-4.34632E-3
-887.944E-6	-4.50281E-12	75.5613E-3	-26.4007E-3	-4.75426E-12	75.0346E-3	-4.35553E-3
-892.946E-6	-4.50471E-12	70.5386E-3	-29.3175E-3	-4.79595E-12	78.7536E-3	-27.4433E-3
-897.949E-6	-4.57589E-12	66.8501E-3	-24.9173E-3	-4.69584E-12	93.1638E-3	-43.2007E-3
-902.951E-6	-4.73061E-12	73.1682E-3	-7.66689E-3	-4.68306E-12	109.730E-3	-28.4378E-3
-907.954E-6	-4.71909E-12	82.0973E-3	-2.87094E-3	-4.70151E-12	120.841E-3	-19.1444E-3
-912.956E-6	-4.71487E-12	92.2903E-3	-16.1782E-3	-4.76837E-12	111.534E-3	-25.4216E-3
-917.959E-6	-4.84125E-12	98.6574E-3	-15.9448E-3	-4.68850E-12	110.275E-3	-25.7573E-3
-922.961E-6	-4.95337E-12	93.0106E-3	-3.37722E-3	-4.73206E-12	116.465E-3	-31.6484E-3
-927.964E-6	-4.80247E-12	90.3868E-3	-1.22190E-3	-4.80102E-12	100.575E-3	-43.6243E-3
-932.966E-6	-4.85894E-12	97.8509E-3	-6.18128E-3	-4.86871E-12	89.0863E-3	-34.0701E-3
-937.969E-6	-5.03483E-12	96.7037E-3	-16.3723E-3	-4.89418E-12	101.386E-3	-24.1269E-3
-942.971E-6	-5.06700E-12	89.6624E-3	-24.7759E-3	-4.91825E-12	111.162E-3	-28.2886E-3
-947.974E-6	-5.05704E-12	97.4686E-3	-14.1000E-3	-4.95214E-12	117.463E-3	-13.4797E-3
-952.976E-6	-5.07617E-12	110.218E-3	4.62412E-3	-4.98870E-12	127.933E-3	2.01683E-3
-957.979E-6	-5.08217E-12	114.590E-3	6.71720E-3	-5.05802E-12	130.508E-3	-6.03821E-3
-962.981E-6	-5.22733E-12	118.626E-3	1.72895E-3	-5.08855E-12	138.570E-3	-5.83439E-3
-967.984E-6	-5.19106E-12	116.282E-3	-405.064E-6	-5.12885E-12	154.365E-3	-5.46654E-3
-972.986E-6	-5.22922E-12	105.006E-3	-2.23195E-3	-5.13474E-12	154.616E-3	-17.8135E-3
-977.989E-6	-5.27062E-12	108.530E-3	-11.1119E-3	-5.25652E-12	149.176E-3	-12.6823E-3
-982.991E-6	-5.31184E-12	120.411E-3	-27.9599E-3	-5.25449E-12	155.090E-3	-2.85887E-3
-987.994E-6	-5.30894E-12	128.447E-3	-38.4015E-3	-5.28721E-12	156.526E-3	-13.3124E-3
-992.997E-6	-5.44486E-12	136.311E-3	-31.7776E-3	-5.32147E-12	148.812E-3	-24.9768E-3
-997.999E-6	-5.50468E-12	133.768E-3	-17.8092E-3	-5.36865E-12	158.366E-3	-22.3397E-3
-1.00300E-3	-5.58257E-12	130.560E-3	-13.4746E-3	-5.45714E-12	163.221E-3	-23.5746E-3
-1.00800E-3	-5.46811E-12	139.737E-3	-14.2429E-3	-5.46221E-12	155.763E-3	-16.5841E-3
-1.01301E-3	-5.58507E-12	150.319E-3	-15.4368E-3	-5.49668E-12	170.577E-3	10.0839E-3
-1.01801E-3	-5.79942E-12	162.118E-3	-19.1691E-3	-5.54212E-12	188.586E-3	2.55341E-3
-1.02301E-3	-5.73330E-12	176.336E-3	-26.1220E-3	-5.71049E-12	196.295E-3	-31.5281E-3
-1.02801E-3	-5.68261E-12	176.327E-3	-23.3036E-3	-5.76318E-12	210.661E-3	-37.0419E-3
-1.03302E-3	-5.92914E-12	162.342E-3	-12.0230E-3	-5.79780E-12	220.599E-3	-31.1978E-3
-1.03802E-3	-6.04568E-12	160.080E-3	-14.5663E-3	-5.93741E-12	215.102E-3	-24.8582E-3
-1.04302E-3	-5.93406E-12	177.841E-3	-17.5263E-3	-6.12752E-12	221.801E-3	-16.5066E-3
-1.04802E-3	-6.05204E-12	192.725E-3	-10.4513E-3	-6.12932E-12	244.112E-3	-21.2111E-3
-1.05303E-3	-6.24787E-12	191.875E-3	-2.35895E-3	-6.26167E-12	248.341E-3	-28.8898E-3
-1.05803E-3	-6.27022E-12	201.828E-3	354.911E-6	-6.33454E-12	249.140E-3	-27.3959E-3
-1.06303E-3	-6.32226E-12	226.555E-3	-7.94189E-3	-6.37994E-12	264.129E-3	-27.8402E-3
-1.06803E-3	-6.38343E-12	239.206E-3	-15.5356E-3	-6.47936E-12	274.825E-3	-36.2335E-3
-1.07304E-3	-6.46732E-12	240.011E-3	-15.3180E-3	-6.55249E-12	288.545E-3	-33.5043E-3
-1.07804E-3	-6.58468E-12	247.554E-3	-18.1746E-3	-6.59868E-12	302.175E-3	-30.3675E-3
-1.08304E-3	-6.60425E-12	267.216E-3	-17.9525E-3	-6.64695E-12	295.235E-3	-31.8561E-3
-1.08804E-3	-6.60372E-12	281.948E-3	-5.71473E-3	-6.77327E-12	297.803E-3	-29.2269E-3
-1.09305E-3	-6.78197E-12	290.105E-3	-8.88365E-3	-6.84664E-12	324.341E-3	-41.6486E-3
-1.09805E-3	-6.88260E-12	297.411E-3	-25.8066E-3	-7.02742E-12	346.553E-3	-57.1991E-3
-1.10305E-3	-6.95518E-12	304.031E-3	-25.1677E-3	-7.08881E-12	369.018E-3	-47.2380E-3
-1.10805E-3	-7.09490E-12	313.977E-3	-12.0796E-3	-7.17352E-12	388.867E-3	-23.8112E-3
-1.11306E-3	-7.28564E-12	330.328E-3	-7.95452E-3	-7.37927E-12	385.424E-3	-14.0921E-3
-1.11806E-3	-7.34705E-12	343.863E-3	-10.0166E-3	-7.57571E-12	380.450E-3	-11.6683E-3
-1.12306E-3	-7.33021E-12	348.424E-3	-12.7260E-3	-7.70685E-12	391.817E-3	-16.2955E-3
-1.12806E-3	-7.68224E-12	361.322E-3	-16.2778E-3	-7.82060E-12	413.985E-3	-32.8342E-3
-1.13307E-3	-7.83791E-12	380.553E-3	-12.3420E-3	-7.99963E-12	446.009E-3	-26.8099E-3
-1.13807E-3	-7.92321E-12	388.299E-3	-6.85287E-3	-8.19578E-12	478.252E-3	-6.78948E-3
-1.14307E-3	-8.07000E-12	388.672E-3	-17.5304E-3	-8.28271E-12	492.772E-3	-12.3072E-3
-1.14807E-3	-8.31549E-12	395.799E-3	-32.8982E-3	-8.28052E-12	491.743E-3	-10.7458E-3
-1.15308E-3	-8.47506E-12	405.321E-3	-29.4262E-3	-8.56635E-12	499.517E-3	3.64236E-3
-1.15808E-3	-8.59036E-12	416.122E-3	-17.1994E-3	-8.71599E-12	507.081E-3	-9.71783E-3
-1.16308E-3	-8.66780E-12	437.350E-3	-13.4236E-3	-8.78823E-12	508.801E-3	-21.4187E-3
-1.16808E-3	-8.87992E-12	458.074E-3	-23.0687E-3	-8.95888E-12	538.863E-3	-14.1534E-3
-1.17309E-3	-9.06078E-12	474.958E-3	-31.4774E-3	-9.22480E-12	572.944E-3	-20.4257E-3
-1.17809E-3	-9.14774E-12	502.609E-3	-26.9319E-3	-9.30051E-12	576.880E-3	-22.8502E-3
-1.18309E-3	-9.25390E-12	528.504E-3	-19.4263E-3	-9.53964E-12	583.965E-3	-7.38580E-3
-1.18809E-3	-9.49409E-12	538.411E-3	-17.7303E-3	-9.86385E-12	603.317E-3	-6.29431E-3
-1.19310E-3	-9.70134E-12	543.292E-3	-20.8085E-3	-9.96390E-12	613.795E-3	-11.4734E-3
-1.19810E-3	-9.80387E-12	548.562E-3	-27.1605E-3	-10.0723E-12	623.142E-3	-3.60875E-3
-1.20310E-3	-9.86191E-12	557.750E-3	-33.7364E-3	-10.3558E-12	641.852E-3	-4.36222E-3
-1.20810E-3	-10.1440E-12	576.772E-3	-35.1750E-3	-10.5799E-12	660.526E-3	-5.01681E-3
-1.21311E-3	-10.5985E-12	593.713E-3	-24.7106E-3	-10.8263E-12	680.781E-3	7.47511E-3
-1.21811E-3	-10.6868E-12	594.414E-3	-15.8471E-3	-10.9315E-12	694.066E-3	-3.42658E-3
-1.22311E-3	-10.9737E-12	599.827E-3	-27.2312E-3	-11.1380E-12	689.097E-3	-16.2968E-3
-1.22811E-3	-11.3494E-12	623.621E-3	-29.4732E-3	-11.3362E-12	686.500E-3	-3.41132E-3
-1.23312E-3	-11.6747E-12	634.291E-3	-14.6957E-3	-11.5956E-12	707.278E-3	-4.64391E-3
-1.23812E-3	-11.7476E-12	638.412E-3	-15.9394E-3	-11.5903E-12	735.955E-3	-21.5310E-3
-1.24312E-3	-12.0986E-12	672.677E-3	-20.0320E-3	-11.8324E-12	756.038E-3	-17.7961E-3
-1.24812E-3	-12.5066E-12	713.718E-3	-13.9439E-3	-12.0701E-12	777.403E-3	-8.97580E-3
-1.25313E-3	-12.5870E-12	739.279E-3	-12.8013E-3	-12.2757E-12	798.504E-3	-24.2111E-3
-1.25813E-3	-12.8441E-12	761.432E-3	-11.8693E-3	-12.5270E-12	816.746E-3	-36.3733E-3
-1.26313E-3	-13.2062E-12	782.630E-3	-14.1006E-3	-12.7974E-12	832.845E-3	-33.2191E-3
-1.26813E-3	-13.5710E-12	798.597E-3	-21.0229E-3	-13.1618E-12	839.183E-3	-33.9315E-3
-1.27314E-3	-13.6544E-12	804.657E-3	-26.4766E-3	-13.3237E-12	848.198E-3	-25.5736E-3
-1.27814E-3	-13.8560E-12	809.548E-3	-29.4600E-3	-13.7079E-12	883.463E-3	-10.0611E-3
-1.28314E-3	-14.1225E-12	828.709E-3	-30.8356E-3	-14.0363E-12	902.122E-3	-8.21703E-3
-1.28814E-3	-14.4508E-12	848.020E-3	-34.5765E-3	-14.4131E-12	888.095E-3	-8.76172E-3
-1.29315E-3	-14.5711E-12	852.508E-3	-21.1532E-3	-14.6684E-12	894.274E-3	-16.5714E-3
-1.29815E-3	-14.8442E-12	850.826E-3	-1.99838E-3	-15.0020E-12	917.304E-3	-36.3765E-3
-1.30315E-3	-15.1888E-12	858.598E-3	-6.85371E-3	-15.4042E-12	941.359E-3	-36.7587E-3
-1.30815E-3	-15.4955E-12	873.349E-3	-18.5680E-3	-15.6525E-12	962.906E-3	-20.9385E-3
-1.31316E-3	-15.7548E-12	884.370E-3	-19.3914E-3	-15.7836E-12	965.879E-3	-30.2849E-3
-1.31816E-3	-15.9725E-12	899.824E-3	-19.2580E-3	-16.1067E-12	962.556E-3	-45.4206E-3
-1.32316E-3	-16.4071E-12	911.547E-3	-19.9218E-3	-16.5449E-12	975.668E-3	-40.0715E-3
-1.32816E-3	-16.8014E-12	918.787E-3	-18.5284E-3	-16.5498E-12	1.00190E+0	-36.0881E-3
-1.33317E-3	-17.1795E-12	944.662E-3	-18.9726E-3	-16.8102E-12	1.01063E+0	-16.5023E-3
-1.33817E-3	-17.4285E-12	977.252E-3	-15.2749E-3	-17.2079E-12	1.00952E+0	11.2404E-3
-1.34317E-3	-17.9690E-12	994.209E-3	-5.98072E-3	-17.5391E-12	1.02165E+0	-2.90689E-3
-1.34817E-3	-18.1752E-12	999.640E-3	3.02925E-3	-17.7562E-12	1.03007E+0	-31.6887E-3
-1.35318E-3	-18.2449E-12	1.01227E+0	-32.0782E-6	-18.0521E-12	1.05130E+0	-34.2318E-3
-1.35818E-3	-18.6708E-12	1.03118E+0	-10.1687E-3	-18.5826E-12	1.08979E+0	-30.9735E-3
-1.36318E-3	-19.2371E-12	1.03840E+0	-18.4804E-3	-19.1779E-12	1.10333E+0	-32.8366E-3
-1.36818E-3	-19.4818E-12	1.04616E+0	-21.9374E-3	-19.6683E-12	1.10306E+0	-23.4741E-3
-1.37319E-3	-19.7297E-12	1.06373E+0	-19.4037E-3	-20.0667E-12	1.11253E+0	-11.2734E-3
-1.37819E-3	-20.0219E-12	1.07916E+0	-17.7511E-3	-20.5640E-12	1.11404E+0	-3.79067E-3
-1.38319E-3	-20.4427E-12	1.07946E+0	-13.9463E-3	-21.0947E-12	1.11247E+0	8.81427E-3
-1.38819E-3	-20.6738E-12	1.07376E+0	-11.3697E-3	-21.4966E-12	1.12171E+0	3.45489E-3
-1.39320E-3	-20.9009E-12	1.07934E+0	-15.1642E-3	-21.8550E-12	1.12501E+0	-20.1005E-3
-1.39820E-3	-21.2286E-12	1.08225E+0	-19.2449E-3	-22.1436E-12	1.11960E+0	-23.4498E-3
-1.40320E-3	-21.6545E-12	1.07685E+0	-22.3699E-3	-22.6496E-12	1.12837E+0	-14.2596E-3
-1.40820E-3	-22.0020E-12	1.07707E+0	-28.7011E-3	-22.7696E-12	1.13645E+0	-22.4501E-3
-1.41321E-3	-22.1882E-12	1.08893E+0	-27.3233E-3	-23.0915E-12	1.12967E+0	-32.3963E-3
-1.41821E-3	-22.7302E-12	1.10424E+0	-18.1342E-3	-23.3174E-12	1.13843E+0	-29.2247E-3
-1.42321E-3	-23.2914E-12	1.11184E+0	-11.8370E-3	-23.6942E-12	1.15023E+0	-34.0044E-3
-1.42821E-3	-23.4429E-12	1.11221E+0	3.09347E-3	-23.7941E-12	1.15270E+0	-33.9356E-3
-1.43322E-3	-23.7907E-12	1.10886E+0	14.6235E-3	-24.2256E-12	1.16132E+0	-21.0498E-3
-1.43822E-3	-24.3267E-12	1.11278E+0	-1.93964E-3	-24.6414E-12	1.15496E+0	-24.8337E-3
-1.44322E-3	-24.8506E-12	1.12952E+0	-16.9686E-3	-24.9638E-12	1.14164E+0	-26.2252E-3
-1.44822E-3	-25.2301E-12	1.14521E+0	-16.7471E-3	-25.2282E-12	1.16490E+0	-16.6573E-3
-1.45323E-3	-25.4882E-12	1.14576E+0	-19.3914E-3	-25.5399E-12	1.19995E+0	-22.1587E-3
-1.45823E-3	-26.0943E-12	1.13767E+0	-14.7505E-3	-26.1461E-12	1.19170E+0	-16.7863E-3
-1.46323E-3	-26.5910E-12	1.13716E+0	1.44284E-3	-26.6744E-12	1.17621E+0	2.85835E-3
-1.46823E-3	-26.9486E-12	1.14861E+0	4.18555E-3	-27.0475E-12	1.17859E+0	-5.44057E-3
-1.47324E-3	-27.3768E-12	1.16677E+0	-12.0233E-3	-27.5297E-12	1.17937E+0	-21.3063E-3
-1.47824E-3	-27.9874E-12	1.18058E+0	-17.9439E-3	-28.1151E-12	1.19332E+0	-15.1511E-3
-1.48324E-3	-28.4805E-12	1.19103E+0	-12.4844E-3	-28.5376E-12	1.21356E+0	-16.3001E-3
-1.48824E-3	-28.6512E-12	1.19969E+0	-13.7862E-3	-28.7804E-12	1.20881E+0	-19.8992E-3
-1.49325E-3	-28.8982E-12	1.19421E+0	-9.91354E-3	-29.1452E-12	1.18085E+0	-583.654E-6
-1.49825E-3	-29.3785E-12	1.18432E+0	-6.28782E-3	-29.5541E-12	1.16355E+0	9.68006E-3
-1.50325E-3	-29.7756E-12	1.17804E+0	-20.7089E-3	-29.8528E-12	1.16447E+0	-6.42782E-3
-1.50825E-3	-29.9377E-12	1.16839E+0	-23.0796E-3	-30.0978E-12	1.16940E+0	-21.1917E-3
-1.51326E-3	-30.3230E-12	1.16098E+0	-7.76372E-3	-30.3675E-12	1.17397E+0	-21.2210E-3
-1.51826E-3	-30.9748E-12	1.16392E+0	-7.09777E-3	-30.8119E-12	1.16115E+0	-8.87377E-3
-1.52326E-3	-31.0470E-12	1.16989E+0	-10.9352E-3	-31.1433E-12	1.15058E+0	3.50939E-3
-1.52826E-3	-31.1544E-12	1.16437E+0	-4.65994E-3	-31.5075E-12	1.17347E+0	-4.83048E-3
-1.53327E-3	-31.6829E-12	1.16250E+0	-8.15070E-3	-31.8575E-12	1.17599E+0	-15.4268E-3
-1.53827E-3	-32.2149E-12	1.17365E+0	-22.2088E-3	-32.4258E-12	1.14989E+0	-5.90441E-3
-1.54327E-3	-32.6181E-12	1.16649E+0	-31.1679E-3	-32.7672E-12	1.13782E+0	-5.39253E-3
-1.54827E-3	-32.9816E-12	1.14809E+0	-25.1705E-3	-32.9714E-12	1.13138E+0	-26.5815E-3
-1.55328E-3	-33.6446E-12	1.14260E+0	-93.1139E-6	-33.4564E-12	1.12685E+0	-23.9516E-3
-1.55828E-3	-34.2086E-12	1.13880E+0	19.0116E-3	-33.8134E-12	1.13092E+0	5.88797E-3
-1.56328E-3	-34.8054E-12	1.14373E+0	6.26231E-3	-34.0862E-12	1.12840E+0	10.7484E-3
-1.56828E-3	-35.0771E-12	1.15719E+0	-9.16494E-3	-34.4780E-12	1.12061E+0	2.40699E-3
-1.57329E-3	-35.5255E-12	1.15694E+0	-9.87105E-3	-34.9510E-12	1.12758E+0	3.40975E-3
-1.57829E-3	-35.9682E-12	1.14852E+0	-9.92909E-3	-35.1563E-12	1.12985E+0	-5.51156E-3
-1.58329E-3	-36.3631E-12	1.15712E+0	-7.63599E-3	-35.4705E-12	1.12018E+0	-16.7608E-3
-1.58829E-3	-36.4766E-12	1.17130E+0	-7.88271E-3	-35.7927E-12	1.12494E+0	-26.2237E-3
-1.59330E-3	-36.9143E-12	1.17023E+0	-12.6023E-3	-36.4890E-12	1.12959E+0	-36.6909E-3
-1.59830E-3	-37.2946E-12	1.15702E+0	-20.0013E-3	-36.7952E-12	1.11907E+0	-32.4814E-3
-1.60330E-3	-37.3364E-12	1.13897E+0	-22.3858E-3	-37.1254E-12	1.11423E+0	-18.7889E-3
-1.60830E-3	-37.4222E-12	1.12025E+0	-10.1003E-3	-37.5627E-12	1.11284E+0	-13.5178E-3
-1.61331E-3	-37.7907E-12	1.10693E+0	1.95306E-3	-38.1493E-12	1.09793E+0	-16.1708E-3
-1.61831E-3	-38.0693E-12	1.10615E+0	-1.99834E-3	-38.5326E-12	1.09356E+0	-19.7589E-3
-1.62331E-3	-38.1900E-12	1.10883E+0	-15.3216E-3	-38.9205E-12	1.09941E+0	-23.5651E-3
-1.62831E-3	-38.5045E-12	1.09863E+0	-23.7611E-3	-39.2670E-12	1.08387E+0	-19.5300E-3
-1.63332E-3	-39.0220E-12	1.07661E+0	-24.1528E-3	-39.9510E-12	1.07539E+0	2.01234E-3
-1.63832E-3	-39.4780E-12	1.06407E+0	-27.2304E-3	-40.2620E-12	1.08188E+0	10.5207E-3
-1.64332E-3	-39.9003E-12	1.07659E+0	-35.2935E-3	-40.4269E-12	1.06675E+0	-13.7143E-3
-1.64832E-3	-40.2994E-12	1.09210E+0	-30.3257E-3	-40.7419E-12	1.04971E+0	-31.3032E-3
-1.65333E-3	-41.0597E-12	1.07860E+0	-14.4570E-3	-40.9686E-12	1.05678E+0	-23.8113E-3
-1.65833E-3	-41.5115E-12	1.05047E+0	-20.0509E-3	-41.2025E-12	1.05391E+0	-14.4348E-3
-1.66333E-3	-41.8072E-12	1.03860E+0	-29.6776E-3	-41.5038E-12	1.03456E+0	-9.26023E-3
-1.66833E-3	-42.2770E-12	1.03708E+0	-21.9001E-3	-41.8273E-12	1.02625E+0	-17.0469E-3
-1.67334E-3	-42.8057E-12	1.04168E+0	-24.3813E-3	-42.0851E-12	1.01422E+0	-39.8806E-3
-1.67834E-3	-43.1576E-12	1.06115E+0	-37.0798E-3	-42.2791E-12	1.00051E+0	-35.4816E-3
-1.68334E-3	-43.3695E-12	1.07458E+0	-37.9130E-3	-42.6984E-12	1.01481E+0	-15.2027E-3
-1.68834E-3	-43.8250E-12	1.05963E+0	-30.6370E-3	-43.0797E-12	1.02567E+0	-21.6740E-3
-1.69335E-3	-44.1047E-12	1.04291E+0	-26.0730E-3	-43.5693E-12	1.01131E+0	-28.4319E-3
-1.69835E-3	-44.2461E-12	1.04533E+0	-20.9441E-3	-43.9703E-12	1.00004E+0	-19.6697E-3
-1.70335E-3	-44.2534E-12	1.04216E+0	-18.6158E-3	-44.2963E-12	1.00590E+0	-22.3631E-3
-1.70835E-3	-44.4079E-12	1.02626E+0	-17.7545E-3	-44.9681E-12	1.01960E+0	-25.5197E-3
-1.71336E-3	-44.6144E-12	1.01617E+0	-8.17807E-3	-45.5324E-12	1.03283E+0	-20.0054E-3
-1.71836E-3	-44.7822E-12	1.02167E+0	-3.43585E-3	-46.0402E-12	1.02533E+0	-23.4211E-3
-1.72336E-3	-44.8650E-12	1.02813E+0	-15.3833E-3	-46.4085E-12	999.193E-3	-14.8244E-3
-1.72836E-3	-45.4427E-12	1.01438E+0	-18.8236E-3	-47.0138E-12	998.130E-3	9.30567E-3
-1.73337E-3	-45.7988E-12	993.670E-3	-3.42110E-3	-47.4793E-12	1.01111E+0	7.01718E-3
-1.73837E-3	-46.2774E-12	988.595E-3	-1.94196E-3	-47.7027E-12	995.441E-3	-8.02141E-3
-1.74337E-3	-46.8185E-12	985.039E-3	-13.5296E-3	-47.7131E-12	975.079E-3	-4.42449E-3
-1.74837E-3	-47.2210E-12	977.609E-3	-17.5278E-3	-48.2240E-12	973.982E-3	-12.6377E-3
-1.75338E-3	-47.7229E-12	980.085E-3	-12.1953E-3	-48.1954E-12	969.765E-3	-25.6031E-3
-1.75838E-3	-48.2115E-12	982.782E-3	4.15117E-3	-48.4283E-12	970.611E-3	-4.78205E-3
-1.76338E-3	-48.7850E-12	983.839E-3	12.6769E-3	-48.5003E-12	973.728E-3	3.84964E-3
-1.76838E-3	-49.2540E-12	985.843E-3	982.143E-6	-49.0365E-12	958.439E-3	-15.4903E-3
-1.77339E-3	-49.7801E-12	985.501E-3	-9.64580E-3	-49.0798E-12	946.729E-3	-13.8455E-3
-1.77839E-3	-49.9227E-12	986.778E-3	-9.10223E-3	-49.2621E-12	959.238E-3	-14.8408E-3
-1.78339E-3	-50.0414E-12	983.149E-3	-16.6478E-3	-49.4314E-12	970.533E-3	-25.0354E-3
-1.78839E-3	-50.3141E-12	973.311E-3	-22.3602E-3	-50.2140E-12	964.793E-3	-9.32377E-3
-1.79340E-3	-50.5121E-12	960.802E-3	-13.3790E-3	-50.4125E-12	960.610E-3	-1.32284E-3
-1.79840E-3	-50.5019E-12	957.239E-3	-4.81847E-3	-50.8382E-12	949.719E-3	-20.0031E-3
-1.80340E-3	-50.6749E-12	960.123E-3	-576.799E-6	-51.5663E-12	938.468E-3	-31.2066E-3
-1.80840E-3	-51.1041E-12	951.903E-3	-8.00086E-3	-52.2473E-12	951.492E-3	-32.2762E-3
-1.81341E-3	-51.2658E-12	942.903E-3	-18.8280E-3	-52.3806E-12	945.451E-3	-28.0738E-3
-1.81841E-3	-51.3034E-12	937.395E-3	-17.1006E-3	-52.6091E-12	923.760E-3	-14.1942E-3
-1.82341E-3	-51.7114E-12	932.612E-3	-13.3881E-3	-52.9432E-12	942.258E-3	-3.43457E-3
-1.82841E-3	-52.0991E-12	934.878E-3	-21.5468E-3	-53.0475E-12	964.051E-3	-3.08977E-3
-1.83342E-3	-52.6000E-12	935.603E-3	-24.0785E-3	-53.3120E-12	951.157E-3	-8.41698E-3
-1.83842E-3	-52.6617E-12	927.300E-3	-10.1260E-3	-53.3143E-12	935.750E-3	-11.9508E-3
-1.84342E-3	-53.1128E-12	918.082E-3	-5.03799E-3	-53.9414E-12	919.308E-3	-16.4600E-3
-1.84842E-3	-53.4913E-12	921.975E-3	-9.17208E-3	-54.2880E-12	890.867E-3	-17.5851E-3
-1.85343E-3	-53.7859E-12	925.738E-3	-2.84092E-3	-54.1799E-12	877.365E-3	-14.3879E-3
-1.85843E-3	-54.2357E-12	904.242E-3	1.82614E-3	-54.4114E-12	870.231E-3	-19.4659E-3
-1.86343E-3	-54.7019E-12	888.381E-3	-8.21322E-3	-54.4841E-12	863.214E-3	-17.0459E-3
-1.86843E-3	-55.0712E-12	897.311E-3	-23.9165E-3	-54.8613E-12	887.271E-3	-6.64405E-3
-1.87344E-3	-55.3991E-12	900.017E-3	-20.4240E-3	-54.9455E-12	917.532E-3	-9.08437E-3
-1.87844E-3	-55.7555E-12	896.946E-3	-7.01093E-3	-55.3037E-12	916.637E-3	-10.5922E-3
-1.88344E-3	-56.1372E-12	903.711E-3	-8.27006E-3	-55.6378E-12	909.938E-3	-5.36433E-3
-1.88844E-3	-56.3488E-12	906.242E-3	-11.5848E-3	-56.1618E-12	903.908E-3	-3.64657E-3
-1.89345E-3	-56.5537E-12	908.860E-3	-4.47023E-3	-56.3306E-12	877.871E-3	-7.56662E-3
-1.89845E-3	-56.6167E-12	915.099E-3	6.32099E-3	-56.4166E-12	863.572E-3	-17.2983E-3
-1.90345E-3	-57.0048E-12	903.419E-3	4.79751E-3	-56.9881E-12	881.045E-3	-31.3068E-3
-1.90845E-3	-57.2169E-12	882.405E-3	-7.78653E-3	-57.1656E-12	885.973E-3	-24.7686E-3
-1.91346E-3	-57.2709E-12	878.456E-3	-7.50660E-3	-57.5240E-12	867.907E-3	2.53312E-3
-1.91846E-3	-57.2456E-12	881.631E-3	3.16189E-3	-57.6688E-12	862.929E-3	10.6668E-3
-1.92346E-3	-57.4875E-12	882.421E-3	-2.18182E-3	-58.1103E-12	857.238E-3	2.03706E-3
-1.92846E-3	-57.6914E-12	879.773E-3	-18.9265E-3	-58.0022E-12	843.659E-3	-5.42510E-3
-1.93347E-3	-57.5131E-12	867.051E-3	-19.4217E-3	-58.3105E-12	850.406E-3	-16.4964E-3
-1.93847E-3	-57.9744E-12	858.547E-3	-6.90342E-3	-58.7625E-12	856.037E-3	-17.5055E-3
-1.94347E-3	-58.2474E-12	856.767E-3	5.25676E-3	-58.8822E-12	844.265E-3	6.40609E-3
-1.94847E-3	-58.6077E-12	857.870E-3	8.91285E-3	-59.2484E-12	840.042E-3	11.9963E-3
-1.95348E-3	-58.9178E-12	851.736E-3	-6.97351E-3	-59.4776E-12	841.382E-3	-12.0709E-3
-1.95848E-3	-59.4931E-12	848.021E-3	-22.6654E-3	-60.0075E-12	834.573E-3	-6.46464E-3
-1.96348E-3	-60.0571E-12	849.735E-3	-27.0286E-3	-60.3061E-12	844.269E-3	7.91002E-3
-1.96848E-3	-60.3722E-12	838.543E-3	-24.0308E-3	-60.7086E-12	853.553E-3	-16.0077E-3
-1.97349E-3	-61.2088E-12	835.695E-3	-19.8899E-3	-60.9935E-12	846.076E-3	-31.5897E-3
-1.97849E-3	-61.6894E-12	845.286E-3	-19.7058E-3	-61.4446E-12	854.540E-3	-25.5010E-3
-1.98349E-3	-62.1288E-12	852.468E-3	-19.3803E-3	-61.8928E-12	864.839E-3	-26.3186E-3
-1.98849E-3	-62.2844E-12	853.884E-3	-17.3698E-3	-62.0065E-12	857.901E-3	-17.4377E-3
-1.99350E-3	-62.7942E-12	840.776E-3	-20.8420E-3	-62.3537E-12	850.775E-3	-10.3967E-3
-1.99850E-3	-63.1142E-12	838.258E-3	-23.3056E-3	-62.6895E-12	840.495E-3	-27.3298E-3
-2.00350E-3	-63.2577E-12	855.311E-3	-12.3641E-3	-62.9146E-12	833.491E-3	-32.8865E-3
-2.00850E-3	-63.3674E-12	849.352E-3	-5.17634E-3	-63.1693E-12	841.970E-3	-4.99169E-3
-2.01351E-3	-63.5284E-12	833.161E-3	-3.26682E-3	-63.2459E-12	835.502E-3	10.8535E-3
-2.01851E-3	-63.7052E-12	832.846E-3	6.27041E-3	-63.5211E-12	813.736E-3	3.29370E-3
-2.02351E-3	-63.8059E-12	831.239E-3	10.0781E-3	-64.0626E-12	815.567E-3	-2.66653E-3
-2.02851E-3	-63.7512E-12	834.097E-3	-3.33707E-3	-64.0220E-12	822.463E-3	-12.1603E-3
-2.03352E-3	-63.9911E-12	848.812E-3	-20.2991E-3	-64.4148E-12	810.572E-3	-13.8367E-3
-2.03852E-3	-64.2848E-12	845.341E-3	-21.1191E-3	-64.8193E-12	809.316E-3	-1.28188E-3
-2.04352E-3	-64.5216E-12	814.103E-3	-10.1943E-3	-65.2470E-12	820.750E-3	-755.485E-6
-2.04852E-3	-64.7523E-12	796.332E-3	-18.7259E-3	-65.2712E-12	820.963E-3	-7.03789E-3
-2.05353E-3	-65.3807E-12	794.967E-3	-39.9581E-3	-65.6480E-12	821.982E-3	3.93047E-3
-2.05853E-3	-65.8398E-12	787.416E-3	-45.5324E-3	-66.2386E-12	829.917E-3	10.2254E-3
-2.06353E-3	-66.0905E-12	787.625E-3	-31.2787E-3	-66.4571E-12	829.873E-3	7.91115E-3
-2.06853E-3	-66.7786E-12	804.651E-3	-11.1812E-3	-66.7164E-12	828.954E-3	11.4155E-3
-2.07354E-3	-67.0250E-12	821.435E-3	-7.82280E-3	-66.8712E-12	824.540E-3	-3.89076E-3
-2.07854E-3	-67.5697E-12	829.141E-3	-14.0888E-3	-67.3667E-12	818.715E-3	-33.4089E-3
-2.08354E-3	-68.0668E-12	819.874E-3	-13.6520E-3	-67.3812E-12	825.081E-3	-36.2928E-3
-2.08854E-3	-68.3626E-12	803.819E-3	-17.4154E-3	-67.4642E-12	834.994E-3	-14.1716E-3
-2.09355E-3	-68.7860E-12	811.517E-3	-20.5753E-3	-67.7830E-12	831.022E-3	-8.93227E-3
-2.09855E-3	-69.2350E-12	829.144E-3	-18.9539E-3	-68.0236E-12	819.137E-3	-11.4471E-3
-2.10355E-3	-69.3338E-12	830.109E-3	-23.2899E-3	-68.3373E-12	817.762E-3	-5.11333E-3
-2.10855E-3	-69.5154E-12	820.142E-3	-27.2223E-3	-68.4710E-12	810.997E-3	-17.9619E-3
-2.11356E-3	-69.3970E-12	812.179E-3	-27.2228E-3	-69.0495E-12	797.301E-3	-33.4991E-3
-2.11856E-3	-69.3646E-12	806.246E-3	-22.5545E-3	-69.4303E-12	799.312E-3	-39.6871E-3
-2.12356E-3	-69.4860E-12	806.176E-3	-8.01749E-3	-69.8181E-12	805.471E-3	-44.7208E-3
-2.12856E-3	-69.6049E-12	815.665E-3	-1.27904E-3	-70.0598E-12	801.075E-3	-32.5041E-3
-2.13357E-3	-69.4010E-12	816.555E-3	-20.8375E-3	-70.6546E-12	798.515E-3	-5.01423E-3
-2.13857E-3	-69.6517E-12	806.382E-3	-42.5316E-3	-71.0321E-12	800.823E-3	4.45523E-3
-2.14357E-3	-69.3266E-12	794.798E-3	-41.6512E-3	-70.6786E-12	787.604E-3	-5.84478E-3
-2.14857E-3	-69.3352E-12	777.011E-3	-26.3586E-3	-70.8560E-12	777.517E-3	-8.28973E-3
-2.15358E-3	-69.6206E-12	769.137E-3	-19.1939E-3	-71.3951E-12	786.355E-3	-10.3489E-3
-2.15858E-3	-70.1496E-12	772.827E-3	-17.1415E-3	-71.6659E-12	788.220E-3	-7.13208E-3
-2.16358E-3	-70.7464E-12	764.838E-3	-256.191E-6	-71.7597E-12	786.859E-3	-721.993E-6
-2.16858E-3	-71.1644E-12	753.047E-3	3.60299E-3	-71.9051E-12	784.673E-3	-19.5716E-3
-2.17359E-3	-71.9836E-12	758.939E-3	-16.3312E-3	-72.2263E-12	780.841E-3	-30.2922E-3
-2.17859E-3	-72.1932E-12	775.928E-3	-21.2709E-3	-72.0214E-12	791.857E-3	-14.1184E-3
-2.18359E-3	-72.8659E-12	785.268E-3	-17.5767E-3	-72.2395E-12	799.000E-3	-11.5249E-3
-2.18859E-3	-72.8569E-12	783.391E-3	-20.8599E-3	-72.4603E-12	779.365E-3	-18.4649E-3
-2.19360E-3	-73.6050E-12	772.592E-3	-17.3201E-3	-72.7054E-12	765.509E-3	-21.5791E-3
-2.19860E-3	-73.7015E-12	763.658E-3	-24.9718E-3	-72.8653E-12	771.557E-3	-26.0183E-3
-2.20360E-3	-73.7484E-12	766.436E-3	-39.7831E-3	-73.2194E-12	773.870E-3	-21.6741E-3
-2.20860E-3	-73.6774E-12	775.610E-3	-20.0295E-3	-73.9131E-12	781.470E-3	-13.6542E-3
-2.21361E-3	-74.2476E-12	774.320E-3	-5.62401E-3	-74.3320E-12	793.602E-3	-11.2401E-3
-2.21861E-3	-73.8062E-12	764.109E-3	-27.3452E-3	-74.7588E-12	775.886E-3	-5.93749E-3
-2.22361E-3	-73.9548E-12	763.901E-3	-31.6338E-3	-75.2033E-12	755.819E-3	-1.30528E-3
-2.22861E-3	-73.8557E-12	765.400E-3	-18.5576E-3	-75.7942E-12	765.369E-3	-6.75951E-3
-2.23362E-3	-74.2928E-12	757.382E-3	-14.5314E-3	-75.9298E-12	768.748E-3	-20.2875E-3
-2.23862E-3	-73.8399E-12	755.659E-3	-3.64905E-3	-76.2008E-12	758.637E-3	-23.9352E-3
-2.24362E-3	-74.3203E-12	747.610E-3	10.0618E-3	-76.1791E-12	753.034E-3	-18.3409E-3
-2.24862E-3	-74.3349E-12	737.917E-3	2.89807E-3	-76.3903E-12	742.079E-3	-22.8197E-3
-2.25363E-3	-74.9985E-12	750.031E-3	-15.8473E-3	-76.2373E-12	739.431E-3	-31.9444E-3
-2.25863E-3	-74.9863E-12	753.213E-3	-11.5057E-3	-76.5986E-12	753.093E-3	-38.3075E-3
-2.26363E-3	-75.5392E-12	739.155E-3	-4.08874E-3	-76.4606E-12	751.870E-3	-32.1610E-3
-2.26863E-3	-75.8902E-12	731.392E-3	-5.61591E-3	-76.4508E-12	737.865E-3	-5.93041E-3
-2.27364E-3	-76.4466E-12	731.262E-3	5.87188E-3	-76.5387E-12	734.837E-3	9.19682E-3
-2.27864E-3	-76.8660E-12	743.667E-3	7.53703E-3	-76.5210E-12	736.963E-3	-2.19530E-3
-2.28364E-3	-77.4650E-12	759.765E-3	-6.53461E-3	-76.4830E-12	739.097E-3	-13.3213E-3
-2.28864E-3	-78.1625E-12	755.371E-3	-12.8511E-3	-76.9177E-12	752.940E-3	-14.5730E-3
-2.29365E-3	-78.4511E-12	753.630E-3	-13.4879E-3	-77.2562E-12	755.665E-3	-19.0775E-3
-2.29865E-3	-78.8793E-12	772.224E-3	-26.2412E-3	-77.2698E-12	740.836E-3	-22.4021E-3
-2.30365E-3	-79.4336E-12	778.651E-3	-28.5460E-3	-77.7889E-12	741.414E-3	-20.8903E-3
-2.30865E-3	-79.8280E-12	772.516E-3	-19.5952E-3	-78.0134E-12	748.757E-3	-24.7205E-3
-2.31366E-3	-80.3527E-12	777.406E-3	-25.5181E-3	-78.7907E-12	747.068E-3	-27.4331E-3
-2.31866E-3	-80.2658E-12	770.938E-3	-23.8064E-3	-79.0600E-12	749.040E-3	-29.6517E-3
-2.32366E-3	-80.7964E-12	744.879E-3	-22.3598E-3	-79.5957E-12	745.320E-3	-32.5548E-3
-2.32866E-3	-80.3904E-12	739.377E-3	-38.1611E-3	-79.8859E-12	732.182E-3	-18.7195E-3
-2.33367E-3	-80.8655E-12	752.932E-3	-38.7539E-3	-80.4951E-12	742.434E-3	-4.87167E-3
-2.33867E-3	-80.6049E-12	749.012E-3	-29.9633E-3	-80.4774E-12	767.429E-3	-11.6994E-3
-2.34367E-3	-81.2849E-12	749.269E-3	-33.3049E-3	-80.9329E-12	765.213E-3	-25.9247E-3
-2.34867E-3	-81.1529E-12	771.996E-3	-22.5862E-3	-81.2225E-12	750.397E-3	-31.7672E-3
-2.35368E-3	-81.3435E-12	769.292E-3	-10.3105E-3	-81.3582E-12	743.771E-3	-27.7775E-3
-2.35868E-3	-81.8467E-12	742.129E-3	-24.3391E-3	-81.3612E-12	739.263E-3	-23.2070E-3
-2.36368E-3	-81.8142E-12	730.699E-3	-32.9624E-3	-81.4612E-12	736.698E-3	-14.4023E-3
-2.36868E-3	-82.0598E-12	732.821E-3	-28.4551E-3	-81.7230E-12	733.627E-3	-13.0126E-3
-2.37369E-3	-82.2880E-12	744.350E-3	-27.2764E-3	-81.8895E-12	714.357E-3	-17.8173E-3
-2.37869E-3	-83.2325E-12	757.039E-3	-15.4626E-3	-81.5091E-12	705.259E-3	-9.68109E-3
-2.38369E-3	-83.2500E-12	754.837E-3	-5.89840E-3	-81.8093E-12	729.519E-3	-9.42191E-3
-2.38869E-3	-83.5247E-12	743.271E-3	-20.9763E-3	-82.2057E-12	746.178E-3	-10.2396E-3
-2.39370E-3	-83.6704E-12	745.496E-3	-28.2875E-3	-82.1781E-12	745.331E-3	-696.053E-6
-2.39870E-3	-84.1428E-12	748.068E-3	-22.2966E-3	-82.3428E-12	735.984E-3	-8.83434E-3
-2.40370E-3	-84.2237E-12	743.813E-3	-33.9408E-3	-82.7753E-12	727.656E-3	-23.6367E-3
-2.40870E-3	-84.6234E-12	752.948E-3	-46.0034E-3	-83.3048E-12	743.828E-3	-17.0948E-3
-2.41371E-3	-84.8898E-12	746.651E-3	-44.4464E-3	-83.5707E-12	766.405E-3	-13.6168E-3
-2.41871E-3	-85.0586E-12	730.563E-3	-44.9775E-3	-83.9510E-12	740.345E-3	-26.9093E-3
-2.42371E-3	-85.0883E-12	738.989E-3	-41.6331E-3	-84.7398E-12	699.236E-3	-25.8798E-3
-2.42871E-3	-85.1826E-12	758.205E-3	-33.2315E-3	-85.0571E-12	717.473E-3	-17.7116E-3
-2.43372E-3	-85.2621E-12	757.353E-3	-31.7477E-3	-85.4677E-12	752.605E-3	-22.1365E-3
-2.43872E-3	-85.1765E-12	744.100E-3	-26.3846E-3	-85.8191E-12	750.082E-3	-16.3324E-3
-2.44372E-3	-85.2092E-12	733.131E-3	-13.3207E-3	-86.6505E-12	739.142E-3	-8.43000E-3
-2.44872E-3	-85.0580E-12	711.993E-3	-13.4847E-3	-86.5572E-12	744.889E-3	-21.1227E-3
-2.45373E-3	-85.0725E-12	702.482E-3	-19.8936E-3	-86.7712E-12	735.851E-3	-37.8871E-3
-2.45873E-3	-84.9845E-12	709.614E-3	-5.32903E-3	-87.2087E-12	714.216E-3	-37.3961E-3
-2.46373E-3	-85.1079E-12	706.088E-3	5.25354E-3	-87.5551E-12	715.429E-3	-27.5566E-3
-2.46873E-3	-85.1021E-12	712.083E-3	-11.9569E-3	-87.4271E-12	723.839E-3	-21.2892E-3
-2.47374E-3	-85.4022E-12	719.105E-3	-18.4424E-3	-87.5749E-12	719.037E-3	-16.2346E-3
-2.47874E-3	-85.3287E-12	700.897E-3	-9.42766E-3	-87.9085E-12	711.310E-3	-20.8884E-3
-2.48374E-3	-85.5950E-12	695.544E-3	-22.4124E-3	-87.4510E-12	709.565E-3	-21.5725E-3
-2.48874E-3	-86.0532E-12	704.811E-3	-34.6397E-3	-87.8545E-12	716.920E-3	-3.31381E-3
-2.49375E-3	-86.3565E-12	692.899E-3	-26.7093E-3	-87.6396E-12	727.037E-3	4.79442E-3
-2.49875E-3	-86.9689E-12	676.346E-3	-23.4395E-3	-87.6499E-12	724.356E-3	-1.52134E-3
-2.50375E-3	-87.4501E-12	694.341E-3	-20.3361E-3	-87.7786E-12	712.379E-3	3.80482E-3
-2.50875E-3	-87.9878E-12	719.255E-3	-15.5241E-3	-87.8895E-12	707.756E-3	4.64411E-3
-2.51376E-3	-88.2705E-12	727.465E-3	-23.4679E-3	-87.9539E-12	698.757E-3	-9.82921E-3
-2.51876E-3	-88.7559E-12	743.735E-3	-16.7427E-3	-88.2582E-12	683.402E-3	-9.82339E-3
-2.52376E-3	-89.1052E-12	744.365E-3	-2.62164E-3	-89.1902E-12	688.266E-3	-2.87351E-3
-2.52876E-3	-89.5581E-12	735.119E-3	-27.2391E-3	-89.4140E-12	711.268E-3	-12.4789E-3
-2.53377E-3	-89.6582E-12	748.566E-3	-46.3293E-3	-90.1577E-12	725.808E-3	-17.4539E-3
-2.53877E-3	-90.1519E-12	748.703E-3	-35.9546E-3	-90.5342E-12	719.177E-3	-12.7465E-3
-2.54377E-3	-90.2773E-12	734.431E-3	-36.5861E-3	-91.0235E-12	702.269E-3	-14.9041E-3
-2.54877E-3	-90.4843E-12	735.730E-3	-29.5867E-3	-91.3874E-12	701.538E-3	-16.2542E-3
-2.55378E-3	-90.6756E-12	733.641E-3	-17.3055E-3	-91.6119E-12	718.271E-3	-18.2796E-3
-2.55878E-3	-90.8000E-12	725.497E-3	-31.5728E-3	-92.1424E-12	719.391E-3	-29.8186E-3
-2.56378E-3	-90.9767E-12	724.781E-3	-42.3787E-3	-92.2043E-12	700.167E-3	-26.7789E-3
-2.56878E-3	-90.5120E-12	723.745E-3	-17.5692E-3	-92.4739E-12	702.060E-3	-13.0790E-3
-2.57379E-3	-90.8796E-12	714.855E-3	9.76281E-3	-92.2000E-12	713.668E-3	-16.8120E-3
-2.57879E-3	-90.7942E-12	719.152E-3	-890.659E-6	-92.6040E-12	709.238E-3	-18.9048E-3
-2.58379E-3	-91.4018E-12	733.657E-3	-18.3921E-3	-92.3715E-12	719.782E-3	-15.2551E-3
-2.58879E-3	-92.1587E-12	720.773E-3	-21.7316E-3	-92.0648E-12	727.671E-3	-24.2226E-3
-2.59380E-3	-92.6559E-12	706.714E-3	-19.0340E-3	-92.1089E-12	707.633E-3	-22.0621E-3
-2.59880E-3	-93.3002E-12	717.224E-3	-10.2044E-3	-92.1670E-12	689.617E-3	-15.9276E-3
-2.60380E-3	-93.7179E-12	719.809E-3	-9.22341E-3	-92.3658E-12	683.623E-3	-28.6188E-3
-2.60880E-3	-94.5691E-12	713.962E-3	-11.9504E-3	-92.1811E-12	684.017E-3	-30.8956E-3
-2.61381E-3	-94.8743E-12	725.624E-3	-4.28455E-3	-92.6197E-12	699.409E-3	-18.3305E-3
-2.61881E-3	-95.6209E-12	721.097E-3	1.14477E-3	-93.0642E-12	720.208E-3	-13.7813E-3
-2.62381E-3	-95.4857E-12	701.562E-3	-6.77901E-3	-93.6519E-12	727.096E-3	-7.20439E-3
-2.62881E-3	-96.0774E-12	705.965E-3	-12.7200E-3	-94.3544E-12	730.890E-3	1.49014E-3
-2.63382E-3	-96.6128E-12	716.213E-3	-2.81944E-3	-94.4023E-12	733.508E-3	-7.75382E-3
-2.63882E-3	-96.5796E-12	728.356E-3	-522.461E-6	-95.1964E-12	722.049E-3	-21.0174E-3
-2.64382E-3	-96.5503E-12	733.751E-3	-13.0131E-3	-95.5014E-12	706.271E-3	-22.1821E-3
-2.64882E-3	-96.9863E-12	718.356E-3	-8.90247E-3	-95.9477E-12	702.268E-3	-28.7232E-3
-2.65383E-3	-96.6229E-12	707.821E-3	-3.10582E-3	-96.1974E-12	705.219E-3	-44.2105E-3
-2.65883E-3	-96.7166E-12	717.567E-3	-8.58947E-3	-97.1759E-12	710.570E-3	-31.5800E-3
-2.66383E-3	-96.2793E-12	720.799E-3	-2.74249E-3	-97.0902E-12	719.123E-3	-8.55511E-3
-2.66883E-3	-96.9243E-12	715.172E-3	-1.47594E-3	-97.1848E-12	710.924E-3	-13.4624E-3
-2.67384E-3	-96.4320E-12	709.988E-3	-16.5280E-3	-97.4422E-12	686.705E-3	-7.41712E-3
-2.67884E-3	-96.9782E-12	697.660E-3	-22.9166E-3	-97.3604E-12	680.227E-3	8.44158E-3
-2.68384E-3	-96.8124E-12	701.377E-3	-21.1760E-3	-97.0080E-12	690.085E-3	-4.27529E-3
-2.68884E-3	-97.4307E-12	718.902E-3	-18.9952E-3	-97.0303E-12	686.142E-3	-11.6103E-3
-2.69385E-3	-97.5484E-12	718.631E-3	-13.3054E-3	-97.5156E-12	680.646E-3	-2.27850E-3
-2.69885E-3	-97.9092E-12	716.532E-3	-33.4265E-3	-97.4102E-12	681.634E-3	-17.0230E-3
-2.70385E-3	-98.4570E-12	725.402E-3	-54.8018E-3	-97.4503E-12	682.498E-3	-29.3433E-3
-2.70885E-3	-98.7868E-12	716.306E-3	-37.7185E-3	-97.5458E-12	700.767E-3	-27.2603E-3
-2.71386E-3	-99.2090E-12	692.869E-3	-21.1113E-3	-97.5215E-12	709.888E-3	-36.3073E-3
-2.71886E-3	-99.4919E-12	687.503E-3	-11.7842E-3	-97.8477E-12	694.694E-3	-34.6552E-3
-2.72386E-3	-99.6933E-12	710.319E-3	-3.48594E-3	-98.2174E-12	695.293E-3	-20.5489E-3
-2.72886E-3	-100.486E-12	721.405E-3	-17.8930E-3	-98.8141E-12	704.840E-3	-20.3353E-3
-2.73387E-3	-99.9930E-12	718.435E-3	-40.7449E-3	-99.3533E-12	702.015E-3	-21.4856E-3
-2.73887E-3	-100.392E-12	723.494E-3	-43.2370E-3	-99.9479E-12	705.227E-3	-14.3541E-3
-2.74387E-3	-100.304E-12	715.186E-3	-38.0633E-3	-100.056E-12	716.811E-3	-13.5848E-3
-2.74887E-3	-100.369E-12	712.483E-3	-37.5014E-3	-100.454E-12	711.843E-3	-5.01635E-3
-2.75388E-3	-99.7132E-12	707.200E-3	-25.1033E-3	-100.960E-12	695.324E-3	-4.09108E-3
-2.75888E-3	-100.137E-12	684.848E-3	-13.2368E-3	-101.389E-12	694.442E-3	-24.1625E-3
-2.76388E-3	-99.5441E-12	688.386E-3	-22.1341E-3	-101.465E-12	690.907E-3	-28.8846E-3
-2.76888E-3	-99.5640E-12	706.680E-3	-24.8092E-3	-102.169E-12	690.211E-3	-28.4319E-3
-2.77389E-3	-99.6243E-12	698.576E-3	-18.6716E-3	-102.487E-12	706.342E-3	-39.8485E-3
-2.77889E-3	-99.6326E-12	676.272E-3	-21.3731E-3	-102.439E-12	715.229E-3	-40.9423E-3
-2.78389E-3	-99.9991E-12	665.087E-3	-15.9519E-3	-102.887E-12	721.488E-3	-26.8547E-3
-2.78889E-3	-100.124E-12	667.259E-3	-2.38683E-3	-102.866E-12	715.727E-3	-13.7897E-3
-2.79390E-3	-100.436E-12	678.218E-3	12.7860E-3	-103.097E-12	687.791E-3	-8.66112E-3
-2.79890E-3	-100.698E-12	686.256E-3	29.1203E-3	-102.553E-12	676.278E-3	-6.76623E-3
-2.80390E-3	-101.161E-12	668.106E-3	21.1327E-3	-102.849E-12	681.051E-3	-12.2154E-3
-2.80890E-3	-101.303E-12	652.576E-3	-1.91307E-3	-102.488E-12	669.291E-3	-17.7859E-3
-2.81391E-3	-101.954E-12	670.404E-3	-8.54449E-3	-102.560E-12	659.269E-3	-3.48606E-3
-2.81891E-3	-102.139E-12	673.613E-3	-8.59937E-3	-102.408E-12	674.733E-3	4.74960E-3
-2.82391E-3	-102.200E-12	660.824E-3	-18.5531E-3	-102.580E-12	688.700E-3	-11.2158E-3
-2.82891E-3	-102.404E-12	669.278E-3	-20.9423E-3	-102.837E-12	684.519E-3	-18.5802E-3
-2.83392E-3	-102.902E-12	675.031E-3	3.30954E-3	-103.133E-12	687.023E-3	-11.4198E-3
-2.83892E-3	-103.116E-12	668.604E-3	15.9210E-3	-103.875E-12	689.742E-3	-9.97229E-3
-2.84392E-3	-103.696E-12	675.464E-3	3.25882E-3	-104.077E-12	680.951E-3	-13.9071E-3
-2.84892E-3	-104.093E-12	680.582E-3	285.898E-6	-104.252E-12	683.299E-3	-11.3108E-3
-2.85393E-3	-104.585E-12	662.979E-3	-5.65183E-3	-104.760E-12	684.681E-3	-8.73874E-3
-2.85893E-3	-104.948E-12	667.691E-3	-28.1601E-3	-105.140E-12	679.406E-3	-15.6954E-3
-2.86393E-3	-105.554E-12	704.572E-3	-32.6644E-3	-105.683E-12	696.783E-3	-21.8343E-3
-2.86893E-3	-105.465E-12	708.679E-3	-21.8294E-3	-105.975E-12	720.145E-3	-26.1252E-3
-2.87394E-3	-105.632E-12	697.592E-3	-26.7467E-3	-106.100E-12	715.443E-3	-19.9128E-3
-2.87894E-3	-105.692E-12	705.421E-3	-27.9198E-3	-106.678E-12	696.111E-3	-13.2769E-3
-2.88394E-3	-106.045E-12	694.821E-3	-20.3888E-3	-106.570E-12	686.236E-3	-23.3096E-3
-2.88894E-3	-105.892E-12	688.437E-3	-22.0583E-3	-106.573E-12	686.293E-3	-27.5293E-3
-2.89395E-3	-106.269E-12	698.922E-3	-23.6770E-3	-106.507E-12	695.096E-3	-16.4699E-3
-2.89895E-3	-106.790E-12	684.253E-3	-25.9986E-3	-106.569E-12	689.940E-3	-12.1516E-3
-2.90395E-3	-107.171E-12	669.474E-3	-31.3721E-3	-106.506E-12	674.416E-3	-16.6413E-3
-2.90895E-3	-107.428E-12	673.736E-3	-25.4606E-3	-106.563E-12	686.129E-3	-23.3144E-3
-2.91396E-3	-107.816E-12	672.053E-3	-12.9052E-3	-106.424E-12	705.988E-3	-35.1962E-3
-2.91896E-3	-108.031E-12	675.440E-3	-5.04530E-3	-106.362E-12	688.106E-3	-28.0166E-3
-2.92396E-3	-108.768E-12	687.287E-3	-3.13052E-3	-106.765E-12	668.313E-3	-6.63617E-3
-2.92896E-3	-108.714E-12	697.030E-3	-14.6649E-3	-106.468E-12	687.428E-3	-14.5485E-3
-2.93397E-3	-109.350E-12	706.267E-3	-29.3035E-3	-106.899E-12	694.861E-3	-28.0938E-3
-2.93897E-3	-109.763E-12	712.844E-3	-33.0159E-3	-106.944E-12	675.618E-3	-19.2340E-3
-2.94397E-3	-110.378E-12	700.400E-3	-40.1498E-3	-107.893E-12	658.510E-3	-28.7147E-3
-2.94897E-3	-110.791E-12	675.229E-3	-42.9361E-3	-108.216E-12	655.175E-3	-46.8746E-3
-2.95398E-3	-110.868E-12	683.110E-3	-32.9387E-3	-108.896E-12	670.752E-3	-39.2725E-3
-2.95898E-3	-111.765E-12	696.834E-3	-18.7102E-3	-109.326E-12	695.010E-3	-31.7508E-3
-2.96398E-3	-111.497E-12	687.066E-3	-10.1719E-3	-109.673E-12	705.858E-3	-35.6419E-3
-2.96898E-3	-111.676E-12	694.667E-3	-10.6114E-3	-110.249E-12	684.938E-3	-19.8347E-3
-2.97399E-3	-111.624E-12	719.775E-3	-12.2771E-3	-110.240E-12	661.188E-3	-5.44053E-3
-2.97899E-3	-111.738E-12	732.194E-3	-25.4010E-3	-110.518E-12	645.977E-3	-18.4783E-3
-2.98399E-3	-111.423E-12	728.825E-3	-38.0622E-3	-110.893E-12	641.403E-3	-20.7971E-3
-2.98899E-3	-110.886E-12	712.729E-3	-35.6661E-3	-111.133E-12	669.540E-3	-2.84147E-3
-2.99400E-3	-111.276E-12	693.789E-3	-26.7445E-3	-110.859E-12	678.325E-3	-7.39718E-3
-2.99900E-3	-111.071E-12	697.469E-3	-13.4720E-3	-111.632E-12	650.897E-3	-30.8980E-3
-3.00400E-3	-111.235E-12	698.244E-3	-4.34145E-3	-111.894E-12	653.001E-3	-32.9591E-3
-3.00900E-3	-110.668E-12	671.918E-3	8.64094E-3	-111.558E-12	678.724E-3	-22.9875E-3
-3.01401E-3	-111.601E-12	661.563E-3	16.7726E-3	-112.110E-12	686.516E-3	-19.1196E-3
-3.01901E-3	-111.564E-12	665.046E-3	-176.462E-6	-112.086E-12	691.099E-3	-28.4920E-3
-3.02401E-3	-111.719E-12	654.279E-3	-21.3973E-3	-112.598E-12	702.511E-3	-48.4632E-3
-3.02901E-3	-112.286E-12	661.679E-3	-37.3929E-3	-112.382E-12	704.405E-3	-44.8177E-3
-3.03402E-3	-112.949E-12	681.325E-3	-26.5890E-3	-112.797E-12	699.924E-3	-29.3685E-3
-3.03902E-3	-113.488E-12	682.634E-3	-6.86053E-3	-113.250E-12	692.442E-3	-25.1162E-3
-3.04402E-3	-113.640E-12	690.176E-3	-28.9172E-3	-113.811E-12	679.131E-3	-13.7164E-3
-3.04902E-3	-113.748E-12	705.365E-3	-45.4765E-3	-114.323E-12	678.680E-3	3.79568E-3
-3.05403E-3	-113.797E-12	702.456E-3	-25.8535E-3	-114.892E-12	688.246E-3	-909.589E-6
-3.05903E-3	-113.957E-12	693.508E-3	-11.0160E-3	-115.425E-12	690.572E-3	-23.8540E-3
-3.06403E-3	-113.922E-12	686.659E-3	-884.208E-6	-115.650E-12	690.011E-3	-28.9837E-3
-3.06903E-3	-113.835E-12	678.722E-3	361.773E-6	-115.951E-12	678.741E-3	-17.2441E-3
-3.07404E-3	-113.668E-12	672.695E-3	-22.4400E-3	-116.344E-12	653.531E-3	-6.54224E-3
-3.07904E-3	-113.701E-12	671.854E-3	-13.0629E-3	-116.571E-12	655.331E-3	-4.04171E-3
-3.08404E-3	-113.589E-12	673.293E-3	18.9853E-3	-116.982E-12	675.881E-3	-13.6767E-3
-3.08904E-3	-113.498E-12	681.182E-3	-3.63329E-3	-117.361E-12	674.439E-3	-29.2876E-3
-3.09405E-3	-113.783E-12	692.397E-3	-40.5710E-3	-117.548E-12	671.747E-3	-28.3717E-3
-3.09905E-3	-113.654E-12	683.893E-3	-35.5153E-3	-117.220E-12	679.188E-3	-19.7110E-3
-3.10405E-3	-114.292E-12	666.318E-3	-18.5188E-3	-117.397E-12	673.326E-3	-23.6260E-3
-3.10905E-3	-114.693E-12	669.345E-3	-12.0349E-3	-117.152E-12	661.441E-3	-22.7512E-3
-3.11406E-3	-115.788E-12	684.304E-3	-7.84734E-3	-117.275E-12	668.657E-3	-20.2508E-3
-3.11906E-3	-115.600E-12	689.519E-3	-17.3471E-3	-116.822E-12	659.874E-3	-25.0224E-3
-3.12406E-3	-116.438E-12	671.923E-3	-32.0466E-3	-117.071E-12	635.833E-3	-20.2980E-3
-3.12906E-3	-117.436E-12	643.533E-3	-23.4792E-3	-116.965E-12	645.958E-3	-902.614E-6
-3.13407E-3	-117.727E-12	649.859E-3	-13.0283E-3	-117.172E-12	660.160E-3	7.68720E-3
-3.13907E-3	-117.993E-12	692.898E-3	-10.3686E-3	-116.839E-12	662.903E-3	-3.91205E-3
-3.14407E-3	-118.492E-12	714.548E-3	-1.03980E-3	-117.610E-12	679.350E-3	-13.1628E-3
-3.14907E-3	-119.104E-12	695.943E-3	-6.28061E-3	-117.877E-12	690.261E-3	-22.2095E-3
-3.15408E-3	-119.406E-12	680.012E-3	-19.6897E-3	-118.041E-12	680.322E-3	-41.3496E-3
-3.15908E-3	-119.572E-12	673.243E-3	-16.3569E-3	-118.678E-12	666.813E-3	-48.0028E-3
-3.16408E-3	-119.879E-12	668.311E-3	-21.1779E-3	-119.226E-12	656.842E-3	-33.7599E-3
-3.16908E-3	-120.228E-12	672.498E-3	-37.7018E-3	-119.632E-12	650.327E-3	-8.59974E-3
-3.17409E-3	-120.331E-12	672.972E-3	-27.9143E-3	-119.873E-12	649.460E-3	-21.5104E-6
-3.17909E-3	-120.509E-12	676.438E-3	-8.01446E-3	-120.424E-12	657.599E-3	-15.2267E-3
-3.18409E-3	-120.514E-12	695.987E-3	1.95812E-3	-120.677E-12	666.728E-3	-24.7301E-3
-3.18909E-3	-120.389E-12	708.391E-3	7.57515E-3	-120.865E-12	661.976E-3	-29.4918E-3
-3.19410E-3	-120.590E-12	709.638E-3	-11.3288E-3	-120.650E-12	645.570E-3	-37.7812E-3
-3.19910E-3	-120.820E-12	712.628E-3	-30.2538E-3	-120.698E-12	624.747E-3	-36.8383E-3
-3.20410E-3	-120.642E-12	707.601E-3	-14.2632E-3	-120.774E-12	626.583E-3	-30.6161E-3
-3.20910E-3	-121.041E-12	687.914E-3	2.61370E-3	-120.399E-12	651.434E-3	-44.2720E-3
-3.21411E-3	-121.538E-12	677.687E-3	-10.8624E-3	-120.541E-12	659.851E-3	-51.1459E-3
-3.21911E-3	-122.030E-12	684.076E-3	-24.8750E-3	-120.100E-12	652.205E-3	-18.1135E-3
-3.22411E-3	-122.376E-12	678.601E-3	-21.1766E-3	-120.236E-12	641.060E-3	5.95591E-3
-3.22911E-3	-123.113E-12	661.689E-3	-23.9377E-3	-119.908E-12	625.273E-3	-10.1114E-3
-3.23412E-3	-122.865E-12	663.707E-3	-29.7817E-3	-119.903E-12	629.460E-3	-19.2952E-3
-3.23912E-3	-122.765E-12	679.294E-3	-27.1230E-3	-120.070E-12	655.348E-3	-10.6817E-3
-3.24412E-3	-123.578E-12	675.212E-3	-25.2939E-3	-120.182E-12	674.855E-3	-15.5554E-3
-3.24912E-3	-123.989E-12	663.345E-3	-18.0146E-3	-120.569E-12	678.845E-3	-21.1763E-3
-3.25413E-3	-124.422E-12	666.448E-3	3.45191E-3	-121.452E-12	685.532E-3	-14.4632E-3
-3.25913E-3	-124.258E-12	684.035E-3	10.6966E-3	-122.289E-12	697.691E-3	-14.9759E-3
-3.26413E-3	-125.079E-12	704.532E-3	1.07960E-3	-122.891E-12	690.439E-3	-13.3629E-3
-3.26913E-3	-124.882E-12	700.672E-3	560.521E-6	-123.716E-12	689.510E-3	3.41520E-3
-3.27414E-3	-125.061E-12	682.834E-3	-16.3843E-3	-124.602E-12	699.909E-3	1.57050E-3
-3.27914E-3	-125.328E-12	679.927E-3	-33.9500E-3	-124.886E-12	686.965E-3	-22.9130E-3
-3.28414E-3	-125.053E-12	684.217E-3	-13.3744E-3	-125.235E-12	673.197E-3	-29.1498E-3
-3.28914E-3	-125.642E-12	686.627E-3	-45.9242E-6	-125.241E-12	663.505E-3	-18.6401E-3
-3.29415E-3	-125.060E-12	696.670E-3	-11.9523E-3	-126.021E-12	653.658E-3	5.02030E-3
-3.29915E-3	-125.215E-12	689.072E-3	-17.3342E-3	-125.664E-12	666.534E-3	23.6859E-3
-3.30415E-3	-124.563E-12	663.950E-3	-33.1289E-3	-126.126E-12	678.960E-3	7.72247E-3
-3.30915E-3	-125.133E-12	669.033E-3	-43.5853E-3	-126.050E-12	673.316E-3	-11.2363E-3
-3.31416E-3	-124.087E-12	687.552E-3	-18.4192E-3	-126.219E-12	670.507E-3	-19.9566E-3
-3.31916E-3	-124.058E-12	695.471E-3	632.280E-6	-126.057E-12	661.612E-3	-25.2343E-3
-3.32416E-3	-124.505E-12	695.626E-3	-18.3687E-3	-125.986E-12	645.093E-3	-20.6543E-3
-3.32916E-3	-124.218E-12	672.786E-3	-33.5572E-3	-125.638E-12	642.360E-3	-14.9488E-3
-3.33417E-3	-124.905E-12	635.178E-3	-31.7451E-3	-125.640E-12	655.920E-3	-10.4773E-3
-3.33917E-3	-124.734E-12	625.311E-3	-37.4565E-3	-125.267E-12	670.066E-3	-6.27044E-3
-3.34417E-3	-126.116E-12	645.880E-3	-22.7193E-3	-125.896E-12	677.219E-3	-7.06918E-3
-3.34917E-3	-125.653E-12	657.469E-3	4.39939E-3	-126.302E-12	674.792E-3	-13.0024E-3
-3.35418E-3	-126.018E-12	659.803E-3	-2.81876E-3	-126.829E-12	657.135E-3	-14.1065E-3
-3.35918E-3	-126.546E-12	673.395E-3	-14.3167E-3	-126.835E-12	659.173E-3	-16.9324E-3
-3.36418E-3	-127.217E-12	669.262E-3	-6.58247E-3	-127.828E-12	682.203E-3	-39.1717E-3
-3.36918E-3	-127.463E-12	660.331E-3	-3.82801E-3	-128.267E-12	678.284E-3	-41.8008E-3
-3.37419E-3	-127.440E-12	679.914E-3	-1.93898E-3	-129.046E-12	671.116E-3	-19.9874E-3
-3.37919E-3	-127.909E-12	678.002E-3	-10.7752E-3	-129.707E-12	673.456E-3	-13.3076E-3
-3.38419E-3	-127.857E-12	662.914E-3	-36.8345E-3	-130.259E-12	654.514E-3	-15.4875E-3
-3.38919E-3	-128.323E-12	677.537E-3	-39.2143E-3	-130.818E-12	640.510E-3	-11.3059E-3
-3.39420E-3	-128.119E-12	672.254E-3	-14.8856E-3	-130.648E-12	647.665E-3	-14.8149E-3
-3.39920E-3	-128.200E-12	641.922E-3	-13.5132E-3	-131.168E-12	655.191E-3	-29.1493E-3
-3.40420E-3	-128.599E-12	642.898E-3	-19.4292E-3	-131.085E-12	668.732E-3	-25.3479E-3
-3.40920E-3	-127.714E-12	657.308E-3	-11.1494E-3	-131.312E-12	686.507E-3	-19.7958E-3
-3.41421E-3	-128.347E-12	662.666E-3	-12.2639E-3	-130.921E-12	684.904E-3	-29.4982E-3
-3.41921E-3	-127.771E-12	681.408E-3	-16.0365E-3	-130.916E-12	669.770E-3	-22.4896E-3
-3.42421E-3	-128.865E-12	682.521E-3	-25.1299E-3	-130.998E-12	663.555E-3	-11.0874E-3
-3.42921E-3	-129.176E-12	661.412E-3	-39.1744E-3	-130.400E-12	663.213E-3	-19.6433E-3
-3.43422E-3	-129.679E-12	659.989E-3	-32.9598E-3	-130.524E-12	667.286E-3	-18.0786E-3
-3.43922E-3	-130.300E-12	659.778E-3	-16.3153E-3	-130.257E-12	684.799E-3	4.40869E-3
-3.44422E-3	-130.819E-12	654.695E-3	-25.9330E-3	-130.631E-12	680.376E-3	8.70891E-3
-3.44922E-3	-131.366E-12	659.139E-3	-45.8821E-3	-130.717E-12	648.125E-3	-14.9510E-3
-3.45423E-3	-131.617E-12	659.373E-3	-35.4754E-3	-130.726E-12	642.610E-3	-36.7349E-3
-3.45923E-3	-132.158E-12	651.922E-3	-2.63687E-3	-131.086E-12	659.946E-3	-37.9069E-3
-3.46423E-3	-132.768E-12	644.956E-3	11.3210E-3	-131.317E-12	652.882E-3	-14.7545E-3
-3.46923E-3	-133.072E-12	645.916E-3	10.0775E-3	-131.910E-12	645.027E-3	4.45240E-3
-3.47424E-3	-133.911E-12	656.420E-3	8.88242E-3	-132.553E-12	651.215E-3	-1.47435E-3
-3.47924E-3	-134.556E-12	663.680E-3	-16.5185E-3	-132.887E-12	650.905E-3	-11.5779E-3
-3.48424E-3	-135.088E-12	674.571E-3	-26.9841E-3	-133.041E-12	663.411E-3	-20.1505E-3
-3.48924E-3	-134.965E-12	680.738E-3	-3.13981E-3	-133.642E-12	684.221E-3	-30.7273E-3
-3.49425E-3	-135.544E-12	673.464E-3	5.07979E-3	-134.620E-12	685.358E-3	-31.1128E-3
-3.49925E-3	-135.887E-12	677.547E-3	-310.878E-6	-134.343E-12	682.875E-3	-24.0021E-3
-3.50425E-3	-136.135E-12	677.332E-3	1.57493E-3	-135.183E-12	681.024E-3	-25.4544E-3
-3.50925E-3	-136.100E-12	671.617E-3	-4.06867E-3	-134.927E-12	662.433E-3	-20.0397E-3
-3.51426E-3	-136.616E-12	682.720E-3	-10.4169E-3	-135.565E-12	656.486E-3	-11.2103E-3
-3.51926E-3	-136.873E-12	676.281E-3	-2.90467E-3	-135.072E-12	665.920E-3	-26.0995E-3
-3.52426E-3	-137.356E-12	657.550E-3	58.8209E-6	-135.030E-12	668.652E-3	-34.5134E-3
-3.52926E-3	-137.134E-12	678.019E-3	-739.807E-6	-134.645E-12	673.465E-3	-33.7505E-3
-3.53427E-3	-137.388E-12	691.777E-3	1.25944E-3	-134.345E-12	678.351E-3	-35.1751E-3
-3.53927E-3	-137.590E-12	674.687E-3	-8.29635E-3	-134.347E-12	672.127E-3	-11.0776E-3
-3.54427E-3	-137.225E-12	676.658E-3	-14.7020E-3	-134.102E-12	661.585E-3	17.8952E-3
-3.54927E-3	-137.347E-12	679.235E-3	-8.85680E-3	-134.209E-12	660.573E-3	7.49056E-3
-3.55428E-3	-137.239E-12	669.019E-3	-10.2458E-3	-133.994E-12	665.169E-3	-10.7990E-3
-3.55928E-3	-138.008E-12	666.774E-3	-9.01590E-3	-134.505E-12	667.562E-3	-3.45522E-3
-3.56428E-3	-137.104E-12	676.045E-3	998.676E-6	-134.687E-12	656.735E-3	-8.93474E-3
-3.56928E-3	-137.957E-12	687.314E-3	-8.58375E-3	-135.089E-12	637.646E-3	-16.7565E-3
-3.57429E-3	-137.973E-12	678.984E-3	-25.4823E-3	-135.263E-12	639.410E-3	-2.88667E-3
-3.57929E-3	-138.332E-12	646.795E-3	-21.0281E-3	-136.099E-12	674.321E-3	-19.5362E-3
-3.58429E-3	-138.383E-12	613.995E-3	-13.7478E-3	-136.761E-12	701.226E-3	-49.3956E-3
-3.58929E-3	-138.285E-12	621.380E-3	-27.1055E-3	-136.662E-12	687.535E-3	-33.2632E-3
-3.59430E-3	-138.721E-12	641.315E-3	-46.4064E-3	-137.788E-12	670.275E-3	-10.0424E-3
-3.59930E-3	-138.363E-12	646.299E-3	-55.7524E-3	-138.708E-12	663.501E-3	-21.7696E-3
-3.60430E-3	-138.576E-12	667.334E-3	-57.0095E-3	-139.337E-12	648.677E-3	-31.8653E-3
-3.60930E-3	-138.909E-12	679.469E-3	-34.4130E-3	-139.825E-12	656.156E-3	-21.3565E-3
-3.61431E-3	-139.616E-12	656.967E-3	-4.04962E-3	-140.481E-12	673.116E-3	-25.5360E-3
-3.61931E-3	-139.479E-12	649.085E-3	-6.28795E-3	-141.301E-12	668.385E-3	-28.2830E-3
-3.62431E-3	-139.064E-12	675.905E-3	-15.4088E-3	-141.041E-12	669.314E-3	-13.4217E-3
-3.62931E-3	-138.882E-12	686.506E-3	-22.4961E-3	-141.194E-12	667.765E-3	-24.4671E-3
-3.63432E-3	-138.320E-12	678.325E-3	-32.5846E-3	-141.179E-12	668.758E-3	-41.0551E-3
-3.63932E-3	-138.601E-12	680.162E-3	-13.0555E-3	-141.572E-12	682.705E-3	-28.4023E-3
-3.64432E-3	-137.829E-12	678.282E-3	778.651E-6	-141.490E-12	682.873E-3	-25.0306E-3
-3.64932E-3	-138.385E-12	684.592E-3	-18.7097E-3	-141.173E-12	681.439E-3	-41.0094E-3
-3.65433E-3	-137.986E-12	685.398E-3	-19.5818E-3	-141.013E-12	694.284E-3	-51.1349E-3
-3.65933E-3	-138.685E-12	646.575E-3	706.046E-6	-141.059E-12	693.667E-3	-59.5926E-3
-3.66433E-3	-137.981E-12	617.969E-3	796.613E-6	-141.174E-12	662.892E-3	-60.6253E-3
-3.66933E-3	-138.906E-12	633.233E-3	-14.4517E-3	-141.071E-12	643.282E-3	-44.5993E-3
-3.67434E-3	-138.678E-12	646.103E-3	-22.9009E-3	-141.892E-12	649.445E-3	-31.9163E-3
-3.67934E-3	-139.161E-12	636.957E-3	-27.8147E-3	-141.723E-12	650.222E-3	-25.0866E-3
-3.68434E-3	-139.328E-12	640.473E-3	-23.2672E-3	-142.421E-12	644.456E-3	-672.284E-6
-3.68934E-3	-140.427E-12	652.596E-3	-8.82085E-3	-142.824E-12	641.130E-3	7.73262E-3
-3.69435E-3	-141.042E-12	653.921E-3	-16.5327E-3	-144.005E-12	637.719E-3	-23.3890E-3
-3.69935E-3	-141.780E-12	669.383E-3	-28.6033E-3	-143.727E-12	636.852E-3	-34.9730E-3
-3.70435E-3	-142.130E-12	665.957E-3	-26.6480E-3	-144.471E-12	650.758E-3	-16.4565E-3
-3.70935E-3	-142.778E-12	638.053E-3	-37.5534E-3	-145.441E-12	647.064E-3	-17.0603E-3
-3.71436E-3	-142.931E-12	645.877E-3	-33.4426E-3	-145.638E-12	630.584E-3	-34.4336E-3
-3.71936E-3	-142.700E-12	663.667E-3	-15.3665E-3	-145.929E-12	655.489E-3	-34.1656E-3
-3.72436E-3	-142.491E-12	663.297E-3	-33.2906E-3	-145.884E-12	676.666E-3	-22.8735E-3
-3.72936E-3	-142.969E-12	664.407E-3	-43.9926E-3	-146.614E-12	673.269E-3	-20.5991E-3
-3.73437E-3	-143.056E-12	654.894E-3	-15.7521E-3	-145.976E-12	678.700E-3	-19.5407E-3
-3.73937E-3	-143.173E-12	626.270E-3	4.33663E-3	-145.808E-12	676.386E-3	-10.8738E-3
-3.74437E-3	-143.510E-12	635.832E-3	6.39519E-3	-146.095E-12	664.032E-3	1.70214E-3
-3.74937E-3	-144.305E-12	670.307E-3	3.36843E-3	-145.853E-12	662.635E-3	-2.30615E-3
-3.75438E-3	-144.971E-12	653.338E-3	-8.61086E-3	-145.159E-12	664.315E-3	-34.0717E-3
-3.75938E-3	-145.470E-12	624.262E-3	-11.7977E-3	-144.744E-12	660.742E-3	-61.6385E-3
-3.76438E-3	-145.596E-12	627.058E-3	8.79768E-3	-144.899E-12	662.992E-3	-50.1053E-3
-3.76938E-3	-146.313E-12	636.505E-3	15.0652E-3	-144.601E-12	659.591E-3	-21.9086E-3
-3.77439E-3	-146.884E-12	658.983E-3	-4.51900E-3	-145.490E-12	647.227E-3	-15.8313E-3
-3.77939E-3	-147.211E-12	678.269E-3	-14.9013E-3	-144.745E-12	647.356E-3	-15.0752E-3
-3.78439E-3	-147.672E-12	666.031E-3	-18.4739E-3	-145.616E-12	662.214E-3	-3.63496E-3
-3.78939E-3	-148.386E-12	653.540E-3	-15.8121E-3	-146.292E-12	673.093E-3	-5.82806E-3
-3.79440E-3	-148.628E-12	646.547E-3	-1.32790E-3	-146.271E-12	675.342E-3	-21.5214E-3
-3.79940E-3	-148.510E-12	637.692E-3	1.00098E-3	-147.091E-12	677.884E-3	-34.6592E-3
-3.80440E-3	-148.927E-12	643.116E-3	-13.7675E-3	-147.236E-12	681.205E-3	-37.6036E-3
-3.80940E-3	-148.764E-12	652.966E-3	-22.8814E-3	-148.418E-12	696.232E-3	-36.1236E-3
-3.81441E-3	-148.364E-12	658.928E-3	-17.2366E-3	-147.915E-12	702.186E-3	-48.5078E-3
-3.81941E-3	-148.149E-12	679.059E-3	-25.6836E-3	-148.449E-12	662.620E-3	-49.0387E-3
-3.82441E-3	-148.749E-12	704.155E-3	-33.9134E-3	-148.524E-12	628.190E-3	-22.7711E-3
-3.82941E-3	-148.448E-12	688.694E-3	-13.5551E-3	-148.541E-12	641.955E-3	-17.1064E-3
-3.83442E-3	-148.544E-12	659.512E-3	-1.89344E-3	-148.912E-12	657.606E-3	-32.3935E-3
-3.83942E-3	-148.893E-12	665.144E-3	-8.31831E-3	-149.107E-12	655.384E-3	-35.4151E-3
-3.84442E-3	-149.359E-12	657.091E-3	-14.3014E-3	-149.274E-12	646.232E-3	-14.6425E-3
-3.84942E-3	-149.776E-12	617.207E-3	-26.7254E-3	-149.269E-12	630.807E-3	1.13454E-3
-3.85443E-3	-149.617E-12	616.363E-3	-29.7163E-3	-149.300E-12	636.279E-3	-9.78844E-3
-3.85943E-3	-150.403E-12	658.580E-3	-19.7282E-3	-149.083E-12	657.030E-3	-12.4327E-3
-3.86443E-3	-150.846E-12	684.929E-3	-27.3773E-3	-149.040E-12	653.601E-3	-15.6853E-3
-3.86943E-3	-150.890E-12	683.824E-3	-33.2060E-3	-148.905E-12	642.632E-3	-37.5607E-3
-3.87444E-3	-151.137E-12	673.661E-3	-23.6320E-3	-149.242E-12	641.714E-3	-51.9398E-3
-3.87944E-3	-150.979E-12	665.801E-3	-25.2241E-3	-149.911E-12	637.464E-3	-53.3819E-3
-3.88444E-3	-150.934E-12	673.825E-3	-26.6566E-3	-150.457E-12	643.921E-3	-42.9333E-3
-3.88944E-3	-150.741E-12	672.043E-3	-889.518E-6	-151.234E-12	667.087E-3	-32.7214E-3
-3.89445E-3	-150.701E-12	636.631E-3	15.9089E-3	-151.912E-12	666.838E-3	-24.5020E-3
-3.89945E-3	-150.516E-12	632.103E-3	-9.79014E-3	-151.516E-12	642.870E-3	-4.60808E-3
-3.90445E-3	-150.714E-12	654.048E-3	-28.3689E-3	-152.507E-12	623.981E-3	10.0819E-3
-3.90945E-3	-150.365E-12	634.259E-3	-18.2255E-3	-152.979E-12	621.147E-3	-1.03201E-3
-3.91446E-3	-150.662E-12	623.024E-3	-12.0194E-3	-153.173E-12	632.008E-3	-12.5126E-3
-3.91946E-3	-150.641E-12	649.060E-3	-10.1113E-3	-153.418E-12	646.038E-3	-11.5922E-3
-3.92446E-3	-150.972E-12	639.349E-3	-10.5839E-3	-154.178E-12	669.215E-3	-19.5999E-3
-3.92946E-3	-151.159E-12	619.911E-3	-25.0888E-3	-154.806E-12	681.665E-3	-17.1301E-3
-3.93447E-3	-151.601E-12	641.241E-3	-18.5518E-3	-154.715E-12	682.784E-3	4.11407E-3
-3.93947E-3	-151.683E-12	647.536E-3	-11.5357E-3	-155.595E-12	676.497E-3	15.9939E-3
-3.94447E-3	-151.933E-12	637.796E-3	-38.4409E-3	-154.983E-12	647.214E-3	16.1746E-3
-3.94947E-3	-152.878E-12	666.821E-3	-48.1829E-3	-156.278E-12	646.094E-3	-459.970E-6
-3.95448E-3	-153.342E-12	694.985E-3	-35.1015E-3	-154.826E-12	672.583E-3	-27.5737E-3
-3.95948E-3	-153.647E-12	665.592E-3	-37.4807E-3	-155.691E-12	651.077E-3	-41.9348E-3
-3.96448E-3	-154.347E-12	635.773E-3	-35.3634E-3	-155.443E-12	628.573E-3	-42.5918E-3
-3.96948E-3	-154.502E-12	641.934E-3	-15.5124E-3	-156.266E-12	656.719E-3	-29.1277E-3
-3.97449E-3	-155.051E-12	653.495E-3	-10.0132E-3	-155.652E-12	664.057E-3	-14.8998E-3
-3.97949E-3	-154.884E-12	659.744E-3	-10.4788E-3	-155.824E-12	653.645E-3	-6.02704E-3
-3.98449E-3	-154.664E-12	651.519E-3	-6.20320E-3	-156.413E-12	664.244E-3	-6.07732E-3
-3.98949E-3	-154.577E-12	639.032E-3	-5.78068E-3	-155.872E-12	669.442E-3	-17.3067E-3
-3.99450E-3	-154.272E-12	640.924E-3	-9.18629E-3	-156.339E-12	678.671E-3	-13.2802E-3
-3.99950E-3	-154.345E-12	640.111E-3	-7.37886E-3	-156.079E-12	698.793E-3	-71.2358E-6
-4.00450E-3	-154.425E-12	636.188E-3	-1.35792E-3	-157.201E-12	682.176E-3	-2.61693E-3
-4.00950E-3	-154.100E-12	650.234E-3	-4.74150E-3	-156.509E-12	644.059E-3	5.97120E-3
-4.01451E-3	-155.135E-12	650.430E-3	-4.82011E-3	-156.426E-12	641.965E-3	17.2628E-3
-4.01951E-3	-155.055E-12	636.017E-3	-10.2258E-3	-156.853E-12	658.419E-3	-5.69758E-3
-4.02451E-3	-155.593E-12	642.139E-3	-26.3018E-3	-156.931E-12	665.356E-3	-22.9547E-3
-4.02951E-3	-155.417E-12	658.866E-3	-18.8028E-3	-157.601E-12	667.872E-3	-18.8328E-3
-4.03452E-3	-156.118E-12	666.419E-3	4.52811E-3	-157.232E-12	658.148E-3	-23.8986E-3
-4.03952E-3	-156.599E-12	650.926E-3	8.85488E-3	-158.079E-12	642.753E-3	-38.1188E-3
-4.04452E-3	-157.948E-12	631.183E-3	-2.69359E-3	-158.093E-12	654.430E-3	-48.5970E-3
-4.04952E-3	-158.159E-12	623.139E-3	-14.5466E-3	-158.215E-12	675.541E-3	-47.2760E-3
-4.05453E-3	-159.624E-12	634.198E-3	-16.0784E-3	-158.465E-12	673.862E-3	-25.9010E-3
-4.05953E-3	-159.966E-12	664.877E-3	4.76137E-3	-158.509E-12	670.102E-3	-10.2081E-3
-4.06453E-3	-160.307E-12	669.907E-3	25.4628E-3	-158.548E-12	667.224E-3	-28.9445E-3
-4.06953E-3	-159.858E-12	655.709E-3	13.9515E-3	-158.628E-12	655.860E-3	-37.6830E-3
-4.07454E-3	-160.223E-12	650.321E-3	-3.01189E-3	-158.759E-12	653.861E-3	-21.4817E-3
-4.07954E-3	-160.255E-12	629.685E-3	-17.2507E-3	-158.889E-12	652.418E-3	-29.3192E-3
-4.08454E-3	-160.173E-12	614.008E-3	-31.2493E-3	-158.887E-12	634.667E-3	-50.7056E-3
-4.08954E-3	-159.584E-12	627.907E-3	-28.4512E-3	-158.901E-12	618.379E-3	-45.8418E-3
-4.09455E-3	-159.953E-12	650.116E-3	-29.5174E-3	-159.677E-12	619.122E-3	-29.6894E-3
-4.09955E-3	-160.072E-12	662.073E-3	-60.2165E-3	-159.924E-12	634.573E-3	-19.2167E-3
-4.10455E-3	-159.978E-12	663.931E-3	-66.9178E-3	-160.417E-12	645.386E-3	2.37909E-3
-4.10955E-3	-160.651E-12	674.952E-3	-15.9766E-3	-160.511E-12	643.040E-3	10.7869E-3
-4.11456E-3	-161.328E-12	681.166E-3	466.561E-6	-160.252E-12	647.550E-3	-6.73517E-3
-4.11956E-3	-161.402E-12	664.261E-3	-19.2298E-3	-161.127E-12	662.475E-3	-19.1469E-3
-4.12456E-3	-161.685E-12	646.883E-3	7.15896E-3	-161.069E-12	671.860E-3	-27.0333E-3
-4.12956E-3	-162.007E-12	626.951E-3	26.2628E-3	-161.642E-12	661.351E-3	-30.0687E-3
-4.13457E-3	-162.877E-12	613.169E-3	-1.64994E-3	-162.009E-12	646.336E-3	-31.6309E-3
-4.13957E-3	-162.680E-12	615.837E-3	-11.8653E-3	-162.983E-12	646.237E-3	-51.4951E-3
-4.14457E-3	-162.531E-12	626.583E-3	-5.04259E-3	-162.996E-12	638.015E-3	-53.9661E-3
-4.14957E-3	-163.157E-12	662.925E-3	-18.1700E-3	-163.224E-12	617.175E-3	-18.0367E-3
-4.15458E-3	-163.621E-12	686.840E-3	-17.0942E-3	-163.030E-12	615.924E-3	-4.08412E-3
-4.15958E-3	-163.300E-12	663.723E-3	-15.7875E-3	-163.301E-12	635.856E-3	-10.7209E-3
-4.16458E-3	-163.426E-12	651.091E-3	-26.6179E-3	-162.888E-12	647.335E-3	-8.98686E-3
-4.16958E-3	-163.231E-12	659.961E-3	-2.53020E-3	-163.222E-12	643.945E-3	-22.9000E-3
-4.17459E-3	-163.852E-12	661.569E-3	19.1117E-3	-162.709E-12	653.600E-3	-55.0167E-3
-4.17959E-3	-163.374E-12	679.694E-3	-5.06357E-3	-162.851E-12	668.060E-3	-65.2126E-3
-4.18459E-3	-164.372E-12	685.064E-3	-17.9711E-3	-162.910E-12	670.568E-3	-41.2890E-3
-4.18959E-3	-164.812E-12	654.198E-3	-10.9817E-3	-163.246E-12	669.845E-3	-22.9318E-3
-4.19460E-3	-165.591E-12	646.529E-3	-24.9491E-3	-163.517E-12	662.082E-3	-10.0973E-3
-4.19960E-3	-165.825E-12	661.077E-3	-17.4328E-3	-163.833E-12	654.205E-3	4.95915E-3
-4.20460E-3	-166.265E-12	655.884E-3	1.09161E-3	-163.891E-12	643.954E-3	13.8756E-3
-4.20960E-3	-166.190E-12	648.788E-3	-13.7428E-3	-164.154E-12	621.480E-3	17.0772E-3
-4.21461E-3	-165.814E-12	658.116E-3	-18.9434E-3	-164.455E-12	630.255E-3	9.13656E-3
-4.21961E-3	-166.064E-12	661.067E-3	-1.88628E-3	-165.631E-12	663.030E-3	-16.3301E-3
-4.22461E-3	-166.133E-12	651.690E-3	6.08305E-3	-165.731E-12	660.355E-3	-30.5677E-3
-4.22961E-3	-166.181E-12	637.076E-3	3.69365E-3	-166.188E-12	643.694E-3	-14.5506E-3
-4.23462E-3	-166.192E-12	623.367E-3	5.55429E-3	-166.521E-12	635.238E-3	-14.9330E-3
-4.23962E-3	-166.111E-12	629.843E-3	6.64566E-3	-166.604E-12	623.643E-3	-25.8139E-3
-4.24462E-3	-165.518E-12	644.504E-3	-2.17657E-3	-167.057E-12	619.267E-3	-28.7976E-3
-4.24962E-3	-165.389E-12	648.276E-3	-8.67149E-3	-167.523E-12	627.924E-3	-35.7928E-3
-4.25463E-3	-165.210E-12	647.221E-3	-30.4930E-3	-167.737E-12	634.982E-3	-28.0373E-3
-4.25963E-3	-165.420E-12	641.822E-3	-50.7623E-3	-167.445E-12	649.194E-3	-6.60094E-3
-4.26463E-3	-165.508E-12	633.715E-3	-46.1775E-3	-167.153E-12	661.571E-3	213.423E-6
-4.26963E-3	-165.589E-12	622.717E-3	-38.0373E-3	-167.766E-12	659.903E-3	-3.56218E-3
-4.27464E-3	-166.229E-12	619.259E-3	-21.2653E-3	-167.815E-12	654.190E-3	5.29104E-3
-4.27964E-3	-166.861E-12	640.486E-3	2.91011E-3	-167.636E-12	647.247E-3	-2.84426E-3
-4.28464E-3	-167.340E-12	651.122E-3	-1.87991E-3	-167.073E-12	640.906E-3	-18.6592E-3
-4.28964E-3	-167.765E-12	649.727E-3	-17.8041E-3	-168.300E-12	639.153E-3	-11.9270E-3
-4.29465E-3	-169.134E-12	651.703E-3	-8.96059E-3	-168.013E-12	647.714E-3	-11.7787E-3
-4.29965E-3	-169.423E-12	649.250E-3	-9.00550E-3	-168.372E-12	641.353E-3	-15.4606E-3
-4.30465E-3	-169.861E-12	656.250E-3	-24.1600E-3	-168.326E-12	640.835E-3	-3.07265E-3
-4.30965E-3	-169.931E-12	647.854E-3	-18.8428E-3	-169.774E-12	664.518E-3	6.30382E-3
-4.31466E-3	-170.371E-12	628.340E-3	155.518E-6	-170.056E-12	667.468E-3	287.084E-6
-4.31966E-3	-170.133E-12	642.675E-3	631.714E-6	-171.050E-12	656.855E-3	-6.75820E-3
-4.32466E-3	-169.766E-12	664.555E-3	-3.86718E-3	-171.284E-12	660.028E-3	-16.8999E-3
-4.32966E-3	-169.810E-12	649.522E-3	-6.43336E-3	-172.215E-12	667.092E-3	-30.4491E-3
-4.33467E-3	-169.555E-12	623.622E-3	-15.6300E-3	-172.348E-12	668.773E-3	-27.6665E-3
-4.33967E-3	-169.729E-12	616.511E-3	-21.9185E-3	-172.407E-12	675.872E-3	-21.0160E-3
-4.34467E-3	-169.340E-12	622.023E-3	-27.7505E-3	-172.711E-12	671.416E-3	-22.2841E-3
-4.34967E-3	-169.763E-12	640.733E-3	-37.8053E-3	-172.517E-12	644.783E-3	-36.5935E-3
-4.35468E-3	-170.133E-12	656.707E-3	-48.6660E-3	-171.809E-12	623.250E-3	-43.2918E-3
-4.35968E-3	-170.558E-12	649.180E-3	-50.1859E-3	-172.334E-12	616.580E-3	-29.0063E-3
-4.36468E-3	-171.175E-12	636.689E-3	-46.8893E-3	-172.106E-12	627.060E-3	-25.3625E-3
-4.36968E-3	-172.123E-12	631.925E-3	-39.7575E-3	-172.489E-12	639.392E-3	-16.3737E-3
-4.37469E-3	-172.810E-12	632.961E-3	-37.3293E-3	-172.091E-12	629.174E-3	-3.57584E-3
-4.37969E-3	-174.019E-12	643.750E-3	-34.2063E-3	-172.424E-12	627.869E-3	-11.6064E-3
-4.38469E-3	-174.809E-12	659.940E-3	-14.3262E-3	-172.867E-12	650.602E-3	-13.4164E-3
-4.38969E-3	-175.330E-12	677.769E-3	-10.7856E-3	-173.091E-12	663.891E-3	-14.1060E-3
-4.39470E-3	-175.352E-12	689.850E-3	-31.5861E-3	-173.408E-12	646.594E-3	-37.6858E-3
-4.39970E-3	-175.397E-12	686.316E-3	-35.5367E-3	-173.200E-12	619.023E-3	-58.6302E-3
-4.40470E-3	-176.060E-12	668.004E-3	-24.6709E-3	-174.093E-12	625.644E-3	-49.7614E-3
-4.40970E-3	-175.648E-12	644.472E-3	-27.5289E-3	-174.160E-12	644.319E-3	-16.5008E-3
-4.41471E-3	-175.277E-12	642.314E-3	-33.3585E-3	-174.612E-12	648.712E-3	-9.64903E-3
-4.41971E-3	-174.464E-12	658.932E-3	-22.3773E-3	-174.563E-12	667.479E-3	-37.8269E-3
-4.42471E-3	-174.799E-12	647.068E-3	-18.4509E-3	-174.985E-12	670.753E-3	-26.3994E-3
-4.42971E-3	-173.895E-12	634.404E-3	-27.2638E-3	-174.688E-12	643.780E-3	19.5459E-3
-4.43472E-3	-173.999E-12	644.923E-3	-25.4524E-3	-174.872E-12	646.616E-3	21.2564E-3
-4.43972E-3	-173.286E-12	633.176E-3	-21.4223E-3	-174.550E-12	653.473E-3	-5.13023E-3
-4.44472E-3	-173.946E-12	625.710E-3	-17.4271E-3	-174.845E-12	643.632E-3	-10.2436E-3
-4.44972E-3	-174.270E-12	638.745E-3	-7.29581E-3	-175.129E-12	651.993E-3	-20.8720E-3
-4.45473E-3	-175.250E-12	637.607E-3	722.002E-6	-175.138E-12	649.946E-3	-37.5681E-3
-4.45973E-3	-175.835E-12	634.797E-3	-909.764E-6	-175.285E-12	636.192E-3	-22.9689E-3
-4.46473E-3	-176.452E-12	632.524E-3	-12.8958E-3	-175.841E-12	626.679E-3	-412.276E-6
-4.46973E-3	-176.757E-12	635.936E-3	-32.8170E-3	-175.920E-12	628.189E-3	-3.64682E-3
-4.47474E-3	-176.986E-12	658.559E-3	-35.7176E-3	-176.132E-12	647.103E-3	-9.05276E-3
-4.47974E-3	-178.027E-12	680.869E-3	-14.8161E-3	-176.161E-12	654.106E-3	-12.0501E-3
-4.48474E-3	-177.955E-12	670.931E-3	-9.18193E-3	-176.475E-12	646.550E-3	-17.4018E-3
-4.48974E-3	-178.260E-12	645.798E-3	-22.8362E-3	-176.908E-12	643.194E-3	-21.7228E-3
-4.49475E-3	-178.142E-12	642.916E-3	-10.4085E-3	-176.929E-12	637.801E-3	-39.3188E-3
-4.49975E-3	-178.810E-12	631.490E-3	6.84862E-3	-176.665E-12	625.809E-3	-47.9828E-3
-4.50475E-3	-178.219E-12	623.267E-3	-8.41017E-3	-177.119E-12	615.766E-3	-27.7241E-3
-4.50975E-3	-177.868E-12	651.125E-3	-8.75083E-3	-177.039E-12	618.694E-3	-2.95137E-3
-4.51476E-3	-177.934E-12	655.397E-3	11.5077E-3	-177.160E-12	630.658E-3	1.23130E-3
-4.51976E-3	-177.915E-12	635.455E-3	-1.65633E-3	-177.444E-12	639.315E-3	-18.0471E-3
-4.52476E-3	-177.671E-12	633.379E-3	-34.9623E-3	-178.282E-12	643.171E-3	-37.9858E-3
-4.52976E-3	-177.524E-12	627.227E-3	-43.2874E-3	-178.659E-12	640.849E-3	-30.2175E-3
-4.53477E-3	-178.171E-12	613.136E-3	-38.9294E-3	-178.804E-12	647.417E-3	-7.61028E-3
-4.53977E-3	-178.222E-12	613.503E-3	-26.0594E-3	-179.652E-12	670.028E-3	-5.26728E-3
-4.54477E-3	-177.792E-12	602.717E-3	14.9091E-3	-180.405E-12	677.081E-3	-26.0107E-3
-4.54977E-3	-178.487E-12	602.215E-3	26.2700E-3	-180.272E-12	652.062E-3	-48.4989E-3
-4.55478E-3	-178.614E-12	645.702E-3	-8.66622E-3	-180.679E-12	636.019E-3	-53.0978E-3
-4.55978E-3	-179.069E-12	675.799E-3	-40.1999E-3	-181.179E-12	648.639E-3	-42.6501E-3
-4.56478E-3	-179.028E-12	667.932E-3	-62.4253E-3	-181.247E-12	661.345E-3	-28.8771E-3
-4.56978E-3	-179.309E-12	645.586E-3	-53.7981E-3	-181.307E-12	662.699E-3	-10.0547E-3
-4.57479E-3	-179.991E-12	627.884E-3	-17.4927E-3	-181.243E-12	653.082E-3	-7.71912E-3
-4.57979E-3	-179.772E-12	611.800E-3	-14.3544E-3	-181.800E-12	631.992E-3	-12.0902E-3
-4.58479E-3	-180.684E-12	616.894E-3	-24.7829E-3	-181.586E-12	624.193E-3	-1.25044E-3
-4.58979E-3	-180.508E-12	650.011E-3	-6.81119E-3	-180.763E-12	641.340E-3	-666.451E-6
-4.59480E-3	-181.790E-12	660.919E-3	-9.49879E-3	-180.475E-12	647.314E-3	-5.43979E-3
-4.59980E-3	-181.727E-12	652.124E-3	-31.6709E-3	-180.164E-12	649.476E-3	2.87324E-3
-4.60480E-3	-181.670E-12	649.899E-3	-26.0768E-3	-179.720E-12	677.052E-3	2.50734E-3
-4.60980E-3	-182.316E-12	642.147E-3	-28.1441E-3	-179.760E-12	673.139E-3	-20.9682E-3
-4.61481E-3	-182.474E-12	641.900E-3	-44.0235E-3	-180.302E-12	638.333E-3	-29.4078E-3
-4.61981E-3	-182.698E-12	652.247E-3	-31.5328E-3	-181.192E-12	641.250E-3	-11.3557E-3
-4.62481E-3	-182.863E-12	656.109E-3	-21.4606E-3	-181.499E-12	635.403E-3	-24.3089E-3
-4.62981E-3	-183.648E-12	661.027E-3	-32.8679E-3	-181.930E-12	615.219E-3	-64.8204E-3
-4.63482E-3	-183.408E-12	655.894E-3	-41.0822E-3	-182.741E-12	621.330E-3	-72.1650E-3
-4.63982E-3	-183.426E-12	642.138E-3	-51.4004E-3	-182.924E-12	608.555E-3	-49.8669E-3
-4.64482E-3	-183.552E-12	644.553E-3	-41.9279E-3	-183.501E-12	600.890E-3	-18.9952E-3
-4.64982E-3	-184.552E-12	662.869E-3	775.391E-6	-183.977E-12	631.240E-3	16.7304E-3
-4.65483E-3	-183.881E-12	665.431E-3	30.5566E-3	-184.613E-12	655.705E-3	38.7919E-3
-4.65983E-3	-183.885E-12	662.055E-3	20.5564E-3	-185.725E-12	643.265E-3	28.3602E-3
-4.66483E-3	-184.574E-12	669.828E-3	8.97681E-3	-185.170E-12	627.277E-3	6.38755E-3
-4.66983E-3	-184.176E-12	646.106E-3	1.10272E-3	-186.021E-12	639.418E-3	1.64024E-3
-4.67484E-3	-184.096E-12	617.244E-3	-23.9717E-3	-185.715E-12	646.358E-3	9.67228E-3
-4.67984E-3	-183.982E-12	635.987E-3	-41.0486E-3	-185.774E-12	645.593E-3	-722.194E-6
-4.68484E-3	-184.051E-12	646.641E-3	-17.8028E-3	-185.232E-12	649.395E-3	-30.4202E-3
-4.68984E-3	-184.180E-12	641.207E-3	-1.88131E-3	-185.476E-12	634.739E-3	-28.4681E-3
-4.69485E-3	-185.321E-12	675.443E-3	-37.4749E-3	-184.938E-12	635.310E-3	2.65942E-3
-4.69985E-3	-185.874E-12	702.486E-3	-51.3979E-3	-185.363E-12	663.341E-3	-8.69812E-3
-4.70485E-3	-186.179E-12	694.658E-3	-36.0497E-3	-184.896E-12	653.870E-3	-41.1612E-3
-4.70985E-3	-187.465E-12	671.463E-3	-24.0829E-3	-185.748E-12	635.291E-3	-39.5752E-3
-4.71486E-3	-187.958E-12	638.082E-3	-2.41657E-3	-185.443E-12	656.777E-3	-28.2213E-3
-4.71986E-3	-188.392E-12	618.598E-3	4.85338E-3	-186.875E-12	659.439E-3	-23.4101E-3
-4.72486E-3	-188.626E-12	617.429E-3	-1.34470E-3	-187.178E-12	640.622E-3	-10.6182E-3
-4.72986E-3	-189.098E-12	635.055E-3	7.48948E-3	-187.733E-12	659.723E-3	3.94520E-3
-4.73487E-3	-189.736E-12	656.522E-3	10.2339E-3	-188.430E-12	669.197E-3	2.33146E-3
-4.73987E-3	-189.945E-12	670.361E-3	-7.83119E-3	-188.617E-12	637.727E-3	-9.56358E-3
-4.74487E-3	-189.934E-12	666.169E-3	-11.4118E-3	-189.562E-12	622.335E-3	-32.4076E-3
-4.74988E-3	-189.648E-12	651.168E-3	-15.5861E-3	-189.468E-12	634.960E-3	-45.6124E-3
-4.75488E-3	-190.093E-12	668.264E-3	-32.5983E-3	-190.464E-12	649.389E-3	-36.2799E-3
-4.75988E-3	-189.208E-12	688.066E-3	-34.5524E-3	-190.762E-12	643.708E-3	-37.7525E-3
-4.76488E-3	-189.707E-12	673.884E-3	-33.5401E-3	-191.273E-12	622.399E-3	-32.6682E-3
-4.76988E-3	-189.420E-12	651.636E-3	-31.4396E-3	-190.839E-12	624.862E-3	9.86685E-3
-4.77489E-3	-189.625E-12	647.767E-3	-34.5312E-3	-191.388E-12	657.356E-3	26.4789E-3
-4.77989E-3	-189.441E-12	662.204E-3	-48.8373E-3	-191.216E-12	674.115E-3	-1.38887E-3
-4.78489E-3	-189.923E-12	663.526E-3	-57.7118E-3	-190.592E-12	664.428E-3	-12.1929E-3
-4.78989E-3	-190.067E-12	646.241E-3	-45.0446E-3	-190.149E-12	647.236E-3	-10.9641E-3
-4.79490E-3	-191.492E-12	635.187E-3	-19.7411E-3	-190.359E-12	633.339E-3	-21.5371E-3
-4.79990E-3	-191.636E-12	644.496E-3	-5.95863E-3	-190.126E-12	625.294E-3	-21.3963E-3
-4.80490E-3	-193.175E-12	652.713E-3	8.26348E-3	-190.042E-12	631.619E-3	-626.029E-6
-4.80990E-3	-193.438E-12	642.467E-3	18.3616E-3	-190.676E-12	639.234E-3	-2.35856E-3
-4.81491E-3	-193.924E-12	646.187E-3	-3.26357E-3	-190.906E-12	623.517E-3	-35.2739E-3
-4.81991E-3	-193.986E-12	660.010E-3	-25.9953E-3	-191.528E-12	624.575E-3	-48.8730E-3
-4.82491E-3	-194.349E-12	657.784E-3	-10.7141E-3	-192.453E-12	651.461E-3	-30.6805E-3
-4.82991E-3	-194.505E-12	662.869E-3	36.4551E-6	-192.400E-12	667.282E-3	-1.12515E-3
-4.83492E-3	-193.677E-12	677.227E-3	-18.6694E-3	-193.144E-12	680.335E-3	19.3519E-3
-4.83992E-3	-193.475E-12	658.964E-3	-35.1307E-3	-192.775E-12	678.790E-3	8.74880E-3
-4.84492E-3	-193.389E-12	639.615E-3	-49.0394E-3	-193.367E-12	642.725E-3	-18.9169E-3
-4.84992E-3	-192.401E-12	657.678E-3	-46.1243E-3	-193.498E-12	607.411E-3	-31.5278E-3
-4.85493E-3	-191.874E-12	671.926E-3	-28.0860E-3	-193.489E-12	602.606E-3	-34.5624E-3
-4.85993E-3	-192.085E-12	663.401E-3	-22.3159E-3	-193.542E-12	606.454E-3	-23.4921E-3
-4.86493E-3	-192.657E-12	662.896E-3	-15.5671E-3	-193.658E-12	622.406E-3	-8.22395E-3
-4.86993E-3	-191.969E-12	659.043E-3	-9.96753E-3	-194.069E-12	658.198E-3	-15.3637E-3
-4.87494E-3	-192.457E-12	641.576E-3	-11.8719E-3	-193.570E-12	653.447E-3	-26.1994E-3
-4.87994E-3	-193.033E-12	645.107E-3	-9.06376E-3	-193.816E-12	614.763E-3	-18.2806E-3
-4.88494E-3	-193.243E-12	659.426E-3	-3.61294E-3	-193.214E-12	619.126E-3	-16.4679E-3
-4.88995E-3	-193.389E-12	664.474E-3	-1.11832E-3	-193.747E-12	643.812E-3	-47.6327E-3
-4.89495E-3	-193.779E-12	648.299E-3	400.269E-6	-192.935E-12	652.645E-3	-66.5441E-3
-4.89995E-3	-194.302E-12	621.077E-3	18.5239E-3	-193.911E-12	648.299E-3	-67.4993E-3
-4.90495E-3	-194.394E-12	605.858E-3	30.5008E-3	-194.221E-12	633.159E-3	-71.8744E-3
-4.90995E-3	-195.282E-12	607.755E-3	24.6299E-3	-195.331E-12	646.637E-3	-44.5191E-3
-4.91496E-3	-195.166E-12	634.795E-3	21.8687E-3	-195.219E-12	666.857E-3	-6.10314E-3
-4.91996E-3	-196.268E-12	660.360E-3	24.0538E-3	-195.721E-12	651.414E-3	-1.73222E-3
-4.92496E-3	-195.708E-12	659.809E-3	17.1103E-3	-195.410E-12	635.624E-3	-2.69420E-3
-4.92996E-3	-195.908E-12	643.636E-3	-7.94283E-3	-195.180E-12	658.459E-3	14.4732E-3
-4.93497E-3	-195.272E-12	626.585E-3	-17.1127E-3	-194.595E-12	692.355E-3	9.05049E-3
-4.93997E-3	-195.421E-12	640.850E-3	-11.2892E-3	-195.136E-12	678.116E-3	-22.9714E-3
-4.94497E-3	-194.635E-12	671.936E-3	-22.2620E-3	-195.034E-12	648.251E-3	-32.6779E-3
-4.94997E-3	-194.848E-12	666.943E-3	-27.8195E-3	-195.359E-12	636.018E-3	-13.6401E-3
-4.95498E-3	-193.861E-12	650.200E-3	-31.1794E-3	-195.538E-12	623.144E-3	4.49316E-3
-4.95998E-3	-194.136E-12	654.689E-3	-37.9104E-3	-196.014E-12	625.007E-3	11.9840E-3
-4.96498E-3	-194.568E-12	636.487E-3	-19.9399E-3	-196.613E-12	639.311E-3	13.9619E-3
-4.96998E-3	-194.768E-12	612.166E-3	-7.15206E-3	-197.262E-12	651.936E-3	2.40047E-3
-4.97499E-3	-195.477E-12	631.232E-3	7.33291E-3	-198.479E-12	667.246E-3	-26.8458E-3
-4.97999E-3	-195.990E-12	658.125E-3	31.2396E-3	-198.896E-12	666.644E-3	-48.4454E-3
-4.98499E-3	-197.022E-12	666.810E-3	12.3419E-3	-199.055E-12	624.737E-3	-54.3488E-3
-4.98999E-3	-197.261E-12	653.267E-3	-13.1156E-3	-198.484E-12	584.831E-3	-45.1904E-3
-4.99500E-3	-198.049E-12	621.950E-3	-14.2328E-3	-198.393E-12	594.679E-3	-23.2314E-3
-5.00000E-3	-198.119E-12	602.425E-3	-19.9769E-3	-198.646E-12	605.009E-3	-18.2812E-3
