Experiment	bias spectroscopy	
Date	19.01.2016 21:21:42	
User		
X (m)	49.5216E-9	
Y (m)	256.997E-9	
Z (m)	-132.589E-9	
Z offset (m)	0E+0	
Settling time (s)	200E-6	
Integration time (s)	5E-3	
Z-Ctrl hold	TRUE	
Final Z (m)	N/A	
Filter type	None	
Order		
Cutoff frq		
Comment01	MnPc/Pb(111)	
Comment02	dz =00pm	
Comment03	7 Sweeps	
Comment04	MagField =0.T	
Comment05	Divider 1:10	
Comment06	Setpoint:5mV,200 pA	
Comment07	Lockin: 50uVrms,5ms,5mV	
Comment08	Gain:9; 912Hz modulation	
Comment09	T=1.06K	
Bias>Bias (V)	5E-3	
Bias>Calibration (V/V)	81.475E-3	
Bias>Offset (V)	1.046E-3	
Bias Spectroscopy>Sweep Start (V)	5E-3	
Bias Spectroscopy>Sweep End (V)	-5E-3	
Bias Spectroscopy>Num Pixel	2000	
Bias Spectroscopy>Z Avg time (s)	500E-3	
Bias Spectroscopy>Z offset (m)	0E+0	
Bias Spectroscopy>1st Settling time (s)	500E-3	
Bias Spectroscopy>Settling time (s)	200E-6	
Bias Spectroscopy>Integration time (s)	5E-3	
Bias Spectroscopy>End Settling time (s)	500E-3	
Bias Spectroscopy>Z control time (s)	500E-3	
Bias Spectroscopy>Max Slew rate (V/s)	Inf	
Bias Spectroscopy>backward sweep	TRUE	
Bias Spectroscopy>Z-controller hold	TRUE	
Bias Spectroscopy>Number of sweeps	7	
Bias Spectroscopy>Channels	Current (A);X% LockIn (V);Y% LockIn (V)	
Bias Spectroscopy>Reset Bias	TRUE	
Bias Spectroscopy>Record final Z	FALSE	
Bias Spectroscopy>Lock-In run	FALSE	
Bias Spectroscopy>Sweep mode	Linear	
Bias Spectroscopy>MultiLine Settings : Segment Start (V), Segment End (V), Settling (s), Integration (s), Steps (xn)	100E-3,3.3E-3,100E-6,10E-3,2500;3.3E-3,-3.3E-3,100E-6,10E-3,10;-3.3E-3,-100E-3,100E-6,10E-3,2500	
Current>Current (A)	200.084E-12	
Current>Calibration (A/V)	999.99900E-12	
Current>Offset (A)	-455.429E-15	
Current>Gain	LN 10^9	
Z-Controller>Z (m)	-132.589E-9	
Z-Controller>Controller name	log Current	
Z-Controller>Controller status	ON	
Z-Controller>Setpoint	200E-12	
Z-Controller>Setpoint unit	A	
Z-Controller>P gain	2.96994E-12	
Z-Controller>I gain	67.0321E-9	
Z-Controller>Time const (s)	44.3062E-6	
Z-Controller>TipLift (m)	0E+0	
Z-Controller>Switch off delay (s)	50E-3	
Current (A)	200.226E-12	
Z (m)	-132.589E-9	

[DATA]
Bias calc (V)	Current (A)	X% LockIn (V)	Y% LockIn (V)	Current [bwd] (A)	X% LockIn [bwd] (V)	Y% LockIn [bwd] (V)
5.00000E-3	199.042E-12	593.517E-3	-21.5764E-3	202.575E-12	584.732E-3	-23.0053E-3
4.99500E-3	199.119E-12	569.236E-3	17.3914E-3	202.217E-12	597.988E-3	5.48472E-3
4.98999E-3	198.922E-12	587.529E-3	27.1398E-3	199.662E-12	626.201E-3	19.2958E-3
4.98499E-3	199.859E-12	610.681E-3	4.93175E-3	198.562E-12	637.584E-3	2.50131E-3
4.97999E-3	200.474E-12	608.614E-3	-12.2840E-3	199.313E-12	641.871E-3	-28.6323E-3
4.97499E-3	200.732E-12	618.003E-3	-14.2898E-3	199.526E-12	661.926E-3	-48.1065E-3
4.96998E-3	200.678E-12	643.187E-3	-24.7753E-3	197.532E-12	654.867E-3	-42.9153E-3
4.96498E-3	200.865E-12	650.054E-3	-34.3315E-3	196.512E-12	616.036E-3	-27.6695E-3
4.95998E-3	200.299E-12	642.445E-3	-15.6557E-3	197.701E-12	599.817E-3	-11.9649E-3
4.95498E-3	199.051E-12	648.174E-3	-2.82686E-3	198.434E-12	613.413E-3	4.29881E-3
4.94997E-3	197.587E-12	644.673E-3	-5.56090E-3	198.095E-12	624.831E-3	7.74562E-3
4.94497E-3	197.007E-12	626.406E-3	-6.93139E-3	197.167E-12	624.884E-3	-6.36389E-3
4.93997E-3	196.392E-12	621.750E-3	-23.7880E-3	197.709E-12	634.707E-3	-23.4424E-3
4.93497E-3	195.993E-12	642.456E-3	-53.1763E-3	197.330E-12	645.879E-3	-27.7332E-3
4.92996E-3	195.405E-12	648.850E-3	-52.3350E-3	197.522E-12	646.033E-3	-20.5799E-3
4.92496E-3	195.469E-12	635.113E-3	-18.5271E-3	198.099E-12	647.499E-3	-3.49036E-3
4.91996E-3	195.106E-12	643.077E-3	-10.3138E-3	197.206E-12	646.000E-3	-14.7909E-3
4.91496E-3	195.605E-12	664.026E-3	-23.4936E-3	196.351E-12	638.270E-3	-53.8530E-3
4.90995E-3	196.210E-12	667.549E-3	-13.6549E-3	196.122E-12	628.489E-3	-64.3247E-3
4.90495E-3	195.515E-12	646.222E-3	-11.0479E-3	196.952E-12	621.994E-3	-29.1230E-3
4.89995E-3	195.606E-12	622.205E-3	-27.7434E-3	195.803E-12	619.369E-3	6.74772E-3
4.89495E-3	196.931E-12	621.693E-3	-31.4014E-3	194.518E-12	626.190E-3	-2.15268E-3
4.88995E-3	198.268E-12	627.560E-3	-21.1519E-3	194.098E-12	636.319E-3	-8.68060E-3
4.88494E-3	198.473E-12	627.927E-3	-8.37286E-3	194.649E-12	630.119E-3	-4.11070E-3
4.87994E-3	198.648E-12	636.937E-3	-17.5619E-3	193.175E-12	610.836E-3	-21.3822E-3
4.87494E-3	198.669E-12	657.988E-3	-37.6043E-3	192.866E-12	608.063E-3	-39.0992E-3
4.86993E-3	199.208E-12	687.346E-3	-44.9878E-3	194.009E-12	634.221E-3	-39.0757E-3
4.86493E-3	199.106E-12	681.684E-3	-25.2538E-3	195.279E-12	651.136E-3	-36.3831E-3
4.85993E-3	198.121E-12	640.233E-3	-10.3364E-3	195.512E-12	641.452E-3	-50.8246E-3
4.85493E-3	196.875E-12	629.334E-3	-18.1848E-3	195.490E-12	646.315E-3	-65.8691E-3
4.84992E-3	196.245E-12	647.781E-3	-2.55208E-3	196.323E-12	654.696E-3	-42.7856E-3
4.84492E-3	195.258E-12	666.577E-3	4.01827E-3	197.265E-12	642.957E-3	1.28107E-3
4.83992E-3	194.685E-12	676.575E-3	-21.3363E-3	197.443E-12	648.029E-3	427.918E-6
4.83492E-3	194.005E-12	659.423E-3	-29.1174E-3	197.602E-12	648.995E-3	-12.0132E-3
4.82991E-3	193.598E-12	637.087E-3	-26.3899E-3	196.996E-12	631.246E-3	437.421E-6
4.82491E-3	192.540E-12	624.919E-3	-27.5347E-3	196.884E-12	625.451E-3	-5.82549E-3
4.81991E-3	192.463E-12	617.498E-3	-6.31134E-3	196.474E-12	614.873E-3	-23.7162E-3
4.81491E-3	192.780E-12	606.816E-3	-1.18644E-3	195.250E-12	592.461E-3	-13.0649E-3
4.80990E-3	191.859E-12	611.913E-3	-33.7744E-3	194.085E-12	589.776E-3	18.4229E-3
4.80490E-3	191.933E-12	644.135E-3	-59.6504E-3	193.758E-12	629.805E-3	14.0970E-3
4.79990E-3	193.036E-12	655.119E-3	-54.4438E-3	193.073E-12	669.635E-3	-23.6737E-3
4.79490E-3	192.827E-12	647.319E-3	-39.5053E-3	191.404E-12	664.260E-3	-38.8098E-3
4.78989E-3	191.890E-12	629.245E-3	-31.8827E-3	190.997E-12	650.935E-3	-41.4773E-3
4.78489E-3	191.744E-12	615.160E-3	-20.2552E-3	190.051E-12	656.682E-3	-24.3484E-3
4.77989E-3	191.401E-12	617.743E-3	-31.3409E-3	189.459E-12	664.408E-3	2.95285E-3
4.77489E-3	191.672E-12	621.782E-3	-65.2457E-3	188.917E-12	659.415E-3	-13.1458E-3
4.76988E-3	190.961E-12	640.216E-3	-68.6527E-3	189.298E-12	654.951E-3	-45.2887E-3
4.76488E-3	189.978E-12	660.022E-3	-27.3228E-3	190.171E-12	662.316E-3	-68.8231E-3
4.75988E-3	188.233E-12	649.743E-3	-16.1741E-3	190.177E-12	663.746E-3	-76.4202E-3
4.75488E-3	188.042E-12	611.593E-3	-35.3029E-3	190.513E-12	663.301E-3	-53.8372E-3
4.74988E-3	187.544E-12	595.132E-3	-38.2815E-3	190.401E-12	668.149E-3	-26.6538E-3
4.74487E-3	187.220E-12	605.245E-3	-55.3599E-3	191.599E-12	658.384E-3	-20.9446E-3
4.73987E-3	186.012E-12	620.338E-3	-46.2840E-3	191.711E-12	640.638E-3	-10.7868E-3
4.73487E-3	185.954E-12	625.255E-3	-4.34574E-3	191.771E-12	652.872E-3	-17.4881E-3
4.72986E-3	185.703E-12	613.447E-3	16.9810E-3	190.435E-12	662.829E-3	-34.5692E-3
4.72486E-3	185.828E-12	606.748E-3	14.8115E-3	190.036E-12	636.033E-3	-10.9467E-3
4.71986E-3	185.826E-12	603.516E-3	-23.1813E-3	189.516E-12	635.746E-3	5.48018E-3
4.71486E-3	186.083E-12	604.977E-3	-48.6380E-3	188.564E-12	644.221E-3	4.99674E-3
4.70985E-3	186.215E-12	617.823E-3	-35.2783E-3	187.441E-12	632.521E-3	21.8946E-3
4.70485E-3	186.238E-12	635.536E-3	-41.2297E-3	186.148E-12	644.194E-3	29.3665E-3
4.69985E-3	186.514E-12	659.339E-3	-38.4463E-3	186.731E-12	645.327E-3	12.3535E-3
4.69485E-3	186.574E-12	668.587E-3	-20.5977E-3	186.287E-12	610.258E-3	-12.0338E-3
4.68984E-3	186.474E-12	666.820E-3	-20.0268E-3	186.630E-12	590.953E-3	-21.4117E-3
4.68484E-3	186.219E-12	676.564E-3	-24.0748E-3	185.309E-12	608.207E-3	-12.7828E-3
4.67984E-3	186.302E-12	673.440E-3	-29.8154E-3	185.858E-12	623.926E-3	12.2219E-3
4.67484E-3	185.529E-12	646.689E-3	-44.7823E-3	186.277E-12	627.912E-3	24.1288E-3
4.66983E-3	184.349E-12	604.354E-3	-57.5822E-3	186.245E-12	636.984E-3	6.91151E-3
4.66483E-3	184.719E-12	580.756E-3	-48.3492E-3	185.676E-12	646.532E-3	-2.98678E-3
4.65983E-3	183.839E-12	597.534E-3	-39.5488E-3	185.111E-12	658.555E-3	-3.71094E-3
4.65483E-3	183.704E-12	615.951E-3	-53.4946E-3	186.054E-12	664.867E-3	-19.8046E-3
4.64982E-3	184.085E-12	619.477E-3	-51.7493E-3	186.421E-12	652.789E-3	-39.1846E-3
4.64482E-3	184.241E-12	621.567E-3	-24.2095E-3	186.046E-12	643.571E-3	-50.0400E-3
4.63982E-3	184.256E-12	624.554E-3	-14.3540E-3	185.524E-12	638.617E-3	-60.7587E-3
4.63482E-3	184.641E-12	622.088E-3	-14.5065E-3	185.961E-12	620.034E-3	-53.0454E-3
4.62981E-3	185.090E-12	628.036E-3	-11.5406E-3	187.080E-12	625.489E-3	-31.5024E-3
4.62481E-3	185.735E-12	643.987E-3	-14.3485E-3	186.816E-12	653.175E-3	-33.6626E-3
4.61981E-3	185.877E-12	648.983E-3	-22.7544E-3	184.602E-12	640.800E-3	-44.3702E-3
4.61481E-3	186.427E-12	644.355E-3	-33.8579E-3	184.705E-12	630.602E-3	-28.4887E-3
4.60980E-3	186.509E-12	638.139E-3	-18.0161E-3	186.159E-12	656.623E-3	-20.5954E-3
4.60480E-3	187.848E-12	628.008E-3	10.5540E-3	185.917E-12	666.165E-3	-27.6341E-3
4.59980E-3	187.835E-12	616.092E-3	-10.0785E-3	183.854E-12	664.387E-3	-15.3934E-3
4.59480E-3	186.791E-12	623.687E-3	-43.4819E-3	184.318E-12	660.479E-3	-3.28679E-3
4.58979E-3	186.419E-12	645.333E-3	-34.0989E-3	183.814E-12	642.964E-3	-4.37204E-3
4.58479E-3	186.365E-12	659.323E-3	-14.6064E-3	183.574E-12	632.919E-3	-6.79967E-3
4.57979E-3	185.737E-12	677.454E-3	-5.74117E-3	183.218E-12	634.631E-3	-6.46429E-3
4.57479E-3	184.057E-12	691.013E-3	-17.0675E-3	182.275E-12	638.236E-3	-19.7098E-3
4.56978E-3	183.194E-12	683.169E-3	-14.4192E-3	181.201E-12	633.636E-3	-42.0828E-3
4.56478E-3	182.982E-12	653.444E-3	16.2740E-3	180.384E-12	617.643E-3	-43.5489E-3
4.55978E-3	182.244E-12	628.381E-3	15.9134E-3	179.990E-12	618.988E-3	-23.7928E-3
4.55478E-3	181.588E-12	635.827E-3	-27.5124E-3	179.967E-12	631.437E-3	-9.91417E-3
4.54977E-3	180.768E-12	639.698E-3	-49.8106E-3	178.609E-12	625.732E-3	-31.5252E-3
4.54477E-3	180.786E-12	631.612E-3	-16.9971E-3	178.401E-12	609.207E-3	-54.1155E-3
4.53977E-3	180.210E-12	612.089E-3	8.54482E-3	178.270E-12	611.732E-3	-34.6128E-3
4.53477E-3	179.293E-12	602.575E-3	-283.369E-6	178.844E-12	636.031E-3	-11.7318E-3
4.52976E-3	178.747E-12	630.878E-3	-24.7207E-3	178.419E-12	642.762E-3	-6.01583E-3
4.52476E-3	178.298E-12	656.007E-3	-35.2889E-3	179.346E-12	640.702E-3	-11.9813E-3
4.51976E-3	177.548E-12	653.191E-3	-28.3700E-3	179.659E-12	647.679E-3	-35.9726E-3
4.51476E-3	177.161E-12	620.783E-3	-34.9464E-3	181.737E-12	662.974E-3	-47.3990E-3
4.50975E-3	177.069E-12	613.536E-3	-42.3288E-3	181.562E-12	666.303E-3	-30.4201E-3
4.50475E-3	176.600E-12	635.808E-3	-23.6368E-3	180.782E-12	649.185E-3	-16.0182E-3
4.49975E-3	176.781E-12	643.896E-3	-5.79932E-3	180.979E-12	641.468E-3	-14.1594E-3
4.49475E-3	177.325E-12	640.042E-3	-16.9376E-3	181.027E-12	624.545E-3	2.62565E-3
4.48974E-3	177.662E-12	637.378E-3	-28.9365E-3	180.330E-12	618.389E-3	4.05689E-3
4.48474E-3	177.674E-12	638.475E-3	-7.97167E-3	177.944E-12	654.238E-3	-30.3472E-3
4.47974E-3	177.651E-12	641.677E-3	26.6423E-3	177.277E-12	680.766E-3	-30.7606E-3
4.47474E-3	178.119E-12	646.949E-3	36.2820E-3	176.712E-12	660.291E-3	-13.2388E-3
4.46973E-3	178.638E-12	654.956E-3	21.8804E-3	176.244E-12	643.212E-3	-40.4310E-3
4.46473E-3	178.669E-12	654.088E-3	-414.254E-6	174.767E-12	668.745E-3	-44.5868E-3
4.45973E-3	178.461E-12	638.926E-3	-3.73405E-3	174.191E-12	689.345E-3	-11.6920E-3
4.45473E-3	178.912E-12	640.376E-3	5.00799E-3	173.935E-12	662.901E-3	-23.5050E-3
4.44972E-3	178.681E-12	654.861E-3	7.59903E-3	173.747E-12	629.647E-3	-44.4144E-3
4.44472E-3	177.289E-12	653.386E-3	-6.96571E-3	174.631E-12	630.245E-3	-24.7224E-3
4.43972E-3	177.029E-12	637.375E-3	-44.3768E-3	174.883E-12	624.501E-3	-18.6893E-3
4.43472E-3	176.157E-12	639.511E-3	-57.6337E-3	175.837E-12	621.444E-3	-50.8366E-3
4.42971E-3	175.397E-12	656.261E-3	-57.5232E-3	176.826E-12	664.962E-3	-71.1985E-3
4.42471E-3	173.875E-12	659.154E-3	-60.8931E-3	179.454E-12	694.517E-3	-56.0044E-3
4.41971E-3	173.448E-12	640.180E-3	-60.5840E-3	180.340E-12	670.318E-3	-26.3597E-3
4.41471E-3	172.481E-12	620.226E-3	-74.7206E-3	179.656E-12	653.317E-3	-1.68772E-3
4.40970E-3	172.652E-12	616.051E-3	-88.8937E-3	179.357E-12	662.221E-3	-8.71943E-3
4.40470E-3	172.654E-12	607.592E-3	-76.8128E-3	180.053E-12	666.139E-3	-52.6080E-3
4.39970E-3	172.048E-12	609.406E-3	-52.1774E-3	179.737E-12	682.663E-3	-80.9821E-3
4.39470E-3	172.062E-12	621.435E-3	-35.4030E-3	178.822E-12	705.216E-3	-62.9502E-3
4.38969E-3	173.229E-12	626.032E-3	-24.2300E-3	176.590E-12	699.256E-3	-24.5926E-3
4.38469E-3	174.094E-12	632.337E-3	-3.78552E-3	175.790E-12	679.814E-3	1.88779E-3
4.37969E-3	175.172E-12	634.825E-3	11.5104E-3	175.449E-12	673.268E-3	-2.24075E-3
4.37469E-3	175.358E-12	638.527E-3	2.08359E-3	174.604E-12	658.735E-3	-28.6793E-3
4.36968E-3	176.874E-12	652.521E-3	-5.74166E-3	172.427E-12	634.263E-3	-32.2995E-3
4.36468E-3	176.946E-12	653.433E-3	-2.09453E-3	170.934E-12	631.789E-3	-13.7959E-3
4.35968E-3	175.926E-12	636.612E-3	-7.09115E-3	171.272E-12	632.730E-3	-7.51206E-3
4.35468E-3	175.947E-12	644.090E-3	-12.4289E-3	170.497E-12	638.098E-3	-7.04107E-3
4.34967E-3	176.236E-12	669.999E-3	-125.419E-6	169.604E-12	661.709E-3	-6.72996E-3
4.34467E-3	175.236E-12	660.605E-3	-9.78058E-3	169.053E-12	666.250E-3	-19.3333E-3
4.33967E-3	173.008E-12	641.509E-3	-30.3556E-3	169.857E-12	647.346E-3	-33.7370E-3
4.33467E-3	172.144E-12	646.496E-3	-27.4124E-3	169.649E-12	640.639E-3	-24.0566E-3
4.32966E-3	170.927E-12	634.416E-3	-28.1112E-3	170.468E-12	638.718E-3	-2.50815E-3
4.32466E-3	169.408E-12	620.768E-3	-31.4689E-3	171.146E-12	634.916E-3	12.2312E-3
4.31966E-3	168.356E-12	620.777E-3	-37.2438E-3	170.975E-12	653.576E-3	30.2101E-3
4.31466E-3	168.051E-12	616.368E-3	-52.7142E-3	171.270E-12	674.472E-3	25.2657E-3
4.30965E-3	167.017E-12	610.894E-3	-57.2051E-3	171.194E-12	666.964E-3	1.68860E-3
4.30465E-3	166.985E-12	612.177E-3	-46.9969E-3	171.544E-12	642.754E-3	-958.462E-6
4.29965E-3	167.414E-12	612.899E-3	-24.9438E-3	170.872E-12	630.173E-3	-7.86775E-3
4.29465E-3	168.062E-12	609.705E-3	-4.95345E-3	170.661E-12	647.118E-3	-29.8638E-3
4.28964E-3	169.197E-12	615.719E-3	-9.47337E-3	170.540E-12	667.877E-3	-45.0692E-3
4.28464E-3	170.160E-12	629.776E-3	-21.4852E-3	170.581E-12	662.676E-3	-71.5071E-3
4.27964E-3	170.991E-12	637.583E-3	-46.9084E-3	169.236E-12	639.703E-3	-73.6618E-3
4.27464E-3	171.538E-12	625.741E-3	-60.8705E-3	168.964E-12	632.950E-3	-20.3499E-3
4.26963E-3	172.580E-12	628.908E-3	-22.3531E-3	169.194E-12	638.997E-3	5.67517E-3
4.26463E-3	172.220E-12	653.544E-3	7.02216E-3	169.085E-12	622.622E-3	5.77284E-6
4.25963E-3	172.670E-12	666.063E-3	-17.8912E-3	169.215E-12	631.891E-3	-9.04078E-3
4.25463E-3	172.382E-12	670.268E-3	-28.3048E-3	168.234E-12	666.832E-3	-32.0348E-3
4.24962E-3	171.033E-12	656.929E-3	-16.9146E-3	168.782E-12	647.333E-3	-27.4492E-3
4.24462E-3	170.136E-12	640.007E-3	-37.4133E-3	168.756E-12	628.531E-3	3.52847E-3
4.23962E-3	169.431E-12	657.136E-3	-46.3702E-3	168.377E-12	644.592E-3	12.0790E-3
4.23462E-3	168.299E-12	670.356E-3	-28.6536E-3	167.956E-12	635.185E-3	3.91217E-3
4.22961E-3	166.283E-12	668.975E-3	-18.6078E-3	167.654E-12	623.104E-3	5.31914E-3
4.22461E-3	165.868E-12	665.882E-3	-10.3304E-3	168.105E-12	618.406E-3	-5.61092E-3
4.21961E-3	165.717E-12	658.952E-3	-4.98015E-3	167.701E-12	611.997E-3	-10.6218E-3
4.21461E-3	165.421E-12	667.399E-3	-4.75727E-3	168.422E-12	633.109E-3	10.3209E-3
4.20960E-3	164.294E-12	658.185E-3	-3.33270E-3	167.754E-12	653.348E-3	-876.046E-6
4.20460E-3	164.478E-12	634.228E-3	-16.4891E-3	167.712E-12	647.128E-3	-40.1382E-3
4.19960E-3	166.070E-12	632.604E-3	-33.0279E-3	167.273E-12	638.295E-3	-64.6504E-3
4.19460E-3	165.966E-12	639.772E-3	-34.3126E-3	167.771E-12	655.737E-3	-80.2041E-3
4.18959E-3	165.696E-12	630.570E-3	-43.0525E-3	167.672E-12	684.309E-3	-73.9503E-3
4.18459E-3	166.099E-12	623.932E-3	-52.5819E-3	168.135E-12	694.398E-3	-39.4239E-3
4.17959E-3	166.955E-12	645.509E-3	-28.6419E-3	167.443E-12	671.658E-3	-20.2650E-3
4.17459E-3	166.983E-12	649.652E-3	-1.13518E-3	167.535E-12	637.128E-3	-34.0831E-3
4.16958E-3	166.711E-12	654.427E-3	-20.3828E-3	167.707E-12	645.684E-3	-34.0194E-3
4.16458E-3	166.227E-12	676.762E-3	-44.0431E-3	167.381E-12	661.283E-3	-9.95797E-3
4.15958E-3	166.542E-12	669.221E-3	-34.0820E-3	166.684E-12	634.809E-3	-3.82309E-3
4.15458E-3	166.246E-12	649.925E-3	-27.2813E-3	165.404E-12	619.117E-3	-5.91621E-3
4.14957E-3	165.986E-12	644.246E-3	-35.2477E-3	164.433E-12	637.496E-3	-2.07974E-3
4.14457E-3	165.352E-12	637.964E-3	-25.8318E-3	163.311E-12	637.591E-3	666.024E-6
4.13957E-3	164.424E-12	635.489E-3	-3.64045E-3	162.750E-12	611.372E-3	-5.00574E-3
4.13457E-3	163.958E-12	636.428E-3	-10.3928E-3	162.164E-12	584.159E-3	-26.5606E-3
4.12956E-3	163.294E-12	635.301E-3	-34.8791E-3	160.924E-12	579.179E-3	-34.4074E-3
4.12456E-3	162.528E-12	645.068E-3	-38.9378E-3	160.731E-12	606.420E-3	-9.56367E-3
4.11956E-3	161.418E-12	673.627E-3	-18.3809E-3	160.343E-12	642.381E-3	2.76760E-3
4.11456E-3	160.521E-12	680.993E-3	-670.968E-6	160.202E-12	654.106E-3	-18.4411E-3
4.10955E-3	160.119E-12	660.927E-3	1.56815E-3	160.141E-12	645.604E-3	-26.3232E-3
4.10455E-3	160.298E-12	659.445E-3	-13.2282E-3	160.353E-12	647.864E-3	-15.3309E-3
4.09955E-3	159.107E-12	660.016E-3	-45.1149E-3	160.782E-12	632.210E-3	-8.28523E-3
4.09455E-3	158.518E-12	656.585E-3	-65.0759E-3	161.769E-12	612.423E-3	-1.22847E-3
4.08954E-3	157.971E-12	657.597E-3	-61.6583E-3	162.757E-12	642.118E-3	7.16525E-3
4.08454E-3	158.022E-12	639.041E-3	-39.1566E-3	162.526E-12	675.761E-3	4.00792E-3
4.07954E-3	157.598E-12	604.837E-3	-7.13507E-3	162.310E-12	671.091E-3	-9.23158E-3
4.07454E-3	158.283E-12	592.954E-3	6.37174E-3	162.167E-12	658.461E-3	-5.28767E-3
4.06953E-3	157.969E-12	597.093E-3	7.20732E-3	162.178E-12	645.217E-3	-2.65690E-3
4.06453E-3	158.379E-12	607.099E-3	-3.88604E-3	161.462E-12	613.219E-3	-2.61524E-3
4.05953E-3	159.352E-12	620.775E-3	-31.8399E-3	160.045E-12	586.081E-3	9.37953E-3
4.05453E-3	160.741E-12	626.310E-3	-37.6854E-3	159.595E-12	587.077E-3	1.09459E-3
4.04952E-3	160.933E-12	642.364E-3	-23.0188E-3	158.514E-12	611.396E-3	-21.8503E-3
4.04452E-3	161.320E-12	671.572E-3	-13.2476E-3	157.452E-12	650.726E-3	-42.9386E-3
4.03952E-3	161.647E-12	676.541E-3	-11.0126E-3	156.504E-12	657.945E-3	-61.2701E-3
4.03452E-3	162.905E-12	663.132E-3	-7.43918E-3	156.547E-12	627.161E-3	-56.8217E-3
4.02951E-3	162.983E-12	657.596E-3	9.40762E-3	155.957E-12	624.318E-3	-30.2157E-3
4.02451E-3	162.911E-12	642.203E-3	23.2825E-3	156.065E-12	640.333E-3	-5.18640E-3
4.01951E-3	162.656E-12	640.202E-3	-2.81811E-3	156.670E-12	638.741E-3	2.16812E-3
4.01451E-3	162.373E-12	664.648E-3	-40.0401E-3	157.306E-12	643.394E-3	4.06501E-3
4.00950E-3	161.668E-12	670.720E-3	-33.1337E-3	157.999E-12	652.914E-3	16.7801E-3
4.00450E-3	161.133E-12	645.318E-3	-14.9825E-3	158.340E-12	650.122E-3	12.8918E-3
3.99950E-3	159.472E-12	652.455E-3	-16.0138E-3	159.231E-12	655.001E-3	-2.86106E-3
3.99450E-3	158.339E-12	700.347E-3	-17.1870E-3	160.828E-12	659.952E-3	-2.93019E-3
3.98949E-3	157.583E-12	690.867E-3	-6.78362E-3	161.027E-12	631.778E-3	-11.4554E-3
3.98449E-3	156.390E-12	651.364E-3	-5.29037E-3	160.584E-12	621.613E-3	-18.8834E-3
3.97949E-3	155.589E-12	649.798E-3	-10.8873E-3	160.440E-12	652.358E-3	-31.2655E-3
3.97449E-3	155.275E-12	643.899E-3	-2.17154E-3	159.813E-12	650.393E-3	-48.1406E-3
3.96948E-3	154.809E-12	629.358E-3	-10.1440E-3	158.940E-12	638.283E-3	-20.6908E-3
3.96448E-3	155.502E-12	626.879E-3	-20.1020E-3	157.387E-12	658.818E-3	7.62064E-3
3.95948E-3	155.516E-12	618.753E-3	-19.0049E-3	156.744E-12	662.606E-3	-3.47431E-3
3.95448E-3	155.879E-12	619.431E-3	-42.4596E-3	155.328E-12	645.907E-3	-13.8021E-3
3.94947E-3	156.208E-12	634.529E-3	-65.8533E-3	154.517E-12	640.832E-3	-8.69109E-3
3.94447E-3	156.527E-12	645.364E-3	-36.5594E-3	154.229E-12	642.979E-3	-13.8838E-3
3.93947E-3	156.352E-12	657.805E-3	3.78576E-3	153.506E-12	644.742E-3	-23.9664E-3
3.93447E-3	156.925E-12	656.038E-3	7.27754E-3	152.877E-12	657.091E-3	-26.6887E-3
3.92946E-3	157.244E-12	638.294E-3	8.10372E-3	152.810E-12	666.848E-3	-21.4402E-3
3.92446E-3	156.840E-12	619.308E-3	6.16786E-3	153.697E-12	656.335E-3	3.08352E-3
3.91946E-3	155.918E-12	626.818E-3	-1.08378E-3	153.557E-12	635.408E-3	6.43733E-3
3.91446E-3	155.593E-12	659.933E-3	5.83803E-3	154.451E-12	616.287E-3	-17.4035E-3
3.90945E-3	154.579E-12	668.809E-3	319.885E-6	154.408E-12	613.781E-3	-9.66243E-3
3.90445E-3	152.453E-12	646.377E-3	-19.7065E-3	153.956E-12	632.160E-3	4.37132E-3
3.89945E-3	150.550E-12	624.573E-3	-34.2151E-3	154.253E-12	653.376E-3	-26.3687E-3
3.89445E-3	150.185E-12	614.103E-3	-42.2519E-3	154.326E-12	648.552E-3	-54.3745E-3
3.88944E-3	150.330E-12	618.079E-3	-35.3214E-3	154.437E-12	627.596E-3	-43.9706E-3
3.88444E-3	148.342E-12	631.185E-3	-17.6178E-3	153.537E-12	620.871E-3	-20.1901E-3
3.87944E-3	147.213E-12	642.502E-3	-11.2303E-3	153.464E-12	620.839E-3	-1.09422E-3
3.87444E-3	147.977E-12	636.698E-3	-9.57673E-3	152.379E-12	621.556E-3	-7.07005E-3
3.86943E-3	148.757E-12	621.027E-3	-6.12618E-3	151.912E-12	633.192E-3	-30.2379E-3
3.86443E-3	148.460E-12	617.247E-3	-14.7403E-3	151.045E-12	645.056E-3	-44.4985E-3
3.85943E-3	148.244E-12	614.915E-3	-15.8389E-3	150.716E-12	642.867E-3	-57.8404E-3
3.85443E-3	150.336E-12	612.179E-3	-7.55307E-3	150.627E-12	623.954E-3	-64.0829E-3
3.84942E-3	150.718E-12	619.873E-3	-9.63773E-3	150.838E-12	612.411E-3	-46.9033E-3
3.84442E-3	151.733E-12	647.804E-3	-8.64413E-3	150.309E-12	623.503E-3	-25.8347E-3
3.83942E-3	151.727E-12	676.822E-3	12.1656E-3	149.937E-12	633.569E-3	-22.1951E-3
3.83442E-3	152.605E-12	673.583E-3	10.2768E-3	150.031E-12	639.444E-3	-6.61763E-3
3.82941E-3	152.930E-12	663.602E-3	-4.44463E-3	150.242E-12	650.539E-3	11.0824E-3
3.82441E-3	152.642E-12	658.027E-3	10.6357E-3	150.292E-12	646.550E-3	-15.1151E-3
3.81941E-3	152.239E-12	649.000E-3	5.73365E-3	150.109E-12	622.095E-3	-32.4594E-3
3.81441E-3	150.848E-12	650.330E-3	-18.5673E-3	149.659E-12	619.513E-3	-9.83030E-3
3.80940E-3	151.184E-12	648.556E-3	-16.6829E-3	149.729E-12	640.592E-3	-6.37056E-3
3.80440E-3	150.087E-12	629.916E-3	-17.2996E-3	149.913E-12	648.638E-3	-6.84456E-3
3.79940E-3	149.985E-12	634.241E-3	-30.4993E-3	150.160E-12	644.417E-3	11.5389E-3
3.79440E-3	149.086E-12	661.731E-3	-27.5371E-3	149.626E-12	643.789E-3	-1.45267E-3
3.78939E-3	148.829E-12	666.766E-3	-25.8810E-3	149.651E-12	635.952E-3	-37.7417E-3
3.78439E-3	148.239E-12	670.977E-3	-26.3321E-3	149.428E-12	635.445E-3	-45.3666E-3
3.77939E-3	149.129E-12	680.166E-3	-3.01279E-3	149.603E-12	661.793E-3	-37.6015E-3
3.77439E-3	148.951E-12	674.843E-3	23.2911E-3	148.965E-12	683.771E-3	-37.4135E-3
3.76938E-3	148.796E-12	665.307E-3	16.6237E-3	149.228E-12	679.708E-3	-25.9566E-3
3.76438E-3	149.094E-12	653.439E-3	-16.5757E-3	149.052E-12	655.309E-3	-21.8177E-3
3.75938E-3	149.757E-12	647.027E-3	-19.5737E-3	148.249E-12	636.051E-3	-33.9180E-3
3.75438E-3	150.204E-12	638.616E-3	-7.60644E-3	148.232E-12	637.432E-3	-27.8183E-3
3.74937E-3	150.492E-12	632.396E-3	-21.3371E-3	147.655E-12	634.293E-3	-31.5336E-3
3.74437E-3	150.696E-12	639.379E-3	-36.1060E-3	147.774E-12	615.554E-3	-40.4443E-3
3.73937E-3	150.340E-12	660.284E-3	-37.2502E-3	146.833E-12	600.129E-3	-36.4104E-3
3.73437E-3	150.798E-12	676.443E-3	-33.7978E-3	146.292E-12	598.570E-3	-50.9178E-3
3.72936E-3	149.372E-12	673.170E-3	-39.1772E-3	145.799E-12	602.666E-3	-68.6391E-3
3.72436E-3	148.881E-12	677.009E-3	-32.4704E-3	145.615E-12	615.804E-3	-62.9209E-3
3.71936E-3	147.449E-12	667.088E-3	-27.0596E-3	144.647E-12	614.973E-3	-50.0020E-3
3.71436E-3	147.406E-12	638.596E-3	-31.2575E-3	144.556E-12	582.739E-3	-41.8085E-3
3.70935E-3	146.462E-12	644.245E-3	-20.1620E-3	144.217E-12	574.404E-3	-27.2923E-3
3.70435E-3	145.388E-12	664.515E-3	-6.86207E-3	144.256E-12	611.116E-3	-14.3432E-3
3.69935E-3	145.047E-12	658.182E-3	697.257E-6	143.755E-12	646.284E-3	-9.92368E-3
3.69435E-3	144.226E-12	642.868E-3	-5.63012E-3	144.016E-12	640.817E-3	-13.4701E-3
3.68934E-3	143.668E-12	639.298E-3	-18.0635E-3	144.570E-12	643.652E-3	-33.2530E-3
3.68434E-3	143.632E-12	638.083E-3	-17.6948E-3	144.892E-12	672.976E-3	-49.4182E-3
3.67934E-3	143.359E-12	636.260E-3	-30.8027E-3	145.273E-12	675.659E-3	-36.7650E-3
3.67434E-3	142.402E-12	639.025E-3	-38.6996E-3	145.980E-12	670.944E-3	-15.4074E-3
3.66933E-3	142.040E-12	644.374E-3	-21.4776E-3	145.810E-12	656.980E-3	5.99989E-3
3.66433E-3	142.293E-12	651.210E-3	-18.1198E-3	145.769E-12	627.301E-3	18.7744E-3
3.65933E-3	141.994E-12	664.516E-3	-14.9685E-3	145.708E-12	623.001E-3	7.21022E-3
3.65433E-3	141.895E-12	658.067E-3	-17.2028E-3	145.772E-12	621.408E-3	-7.29068E-3
3.64932E-3	141.084E-12	634.478E-3	-28.7191E-3	144.615E-12	610.090E-3	-9.29954E-3
3.64432E-3	139.969E-12	625.493E-3	-11.1223E-3	143.878E-12	631.127E-3	-11.9931E-3
3.63932E-3	139.809E-12	627.117E-3	8.78299E-3	142.675E-12	657.252E-3	-19.4670E-3
3.63432E-3	139.593E-12	618.802E-3	-74.3489E-6	142.089E-12	650.335E-3	-9.55619E-3
3.62931E-3	139.064E-12	615.351E-3	-4.91473E-3	141.005E-12	634.020E-3	-2.28437E-3
3.62431E-3	138.752E-12	633.812E-3	-1.29431E-3	139.611E-12	617.679E-3	-23.4636E-3
3.61931E-3	138.715E-12	648.941E-3	-3.45442E-3	138.776E-12	613.858E-3	-32.2204E-3
3.61431E-3	139.255E-12	658.772E-3	-6.24293E-3	139.250E-12	626.684E-3	-28.5361E-3
3.60930E-3	138.981E-12	648.676E-3	-7.57097E-3	138.692E-12	639.046E-3	-31.0753E-3
3.60430E-3	139.844E-12	618.973E-3	-15.6656E-3	137.490E-12	658.400E-3	-25.7493E-3
3.59930E-3	139.830E-12	618.415E-3	-40.1095E-3	137.955E-12	687.552E-3	-16.5807E-3
3.59430E-3	139.975E-12	630.953E-3	-45.2371E-3	138.907E-12	701.172E-3	-13.1605E-3
3.58929E-3	139.553E-12	621.274E-3	-17.4485E-3	139.817E-12	696.406E-3	-9.00104E-3
3.58429E-3	139.936E-12	638.132E-3	-1.00010E-3	139.796E-12	694.702E-3	-8.48418E-3
3.57929E-3	139.550E-12	679.942E-3	-5.68119E-3	140.283E-12	682.880E-3	-35.2628E-3
3.57429E-3	139.646E-12	688.675E-3	-6.10051E-3	141.371E-12	659.543E-3	-50.9864E-3
3.56928E-3	139.303E-12	668.160E-3	-14.5408E-3	142.365E-12	649.585E-3	-28.1750E-3
3.56428E-3	139.158E-12	640.412E-3	-35.5963E-3	142.669E-12	653.221E-3	-17.6193E-3
3.55928E-3	138.723E-12	623.189E-3	-43.5217E-3	142.502E-12	647.928E-3	-15.4542E-3
3.55428E-3	138.376E-12	621.832E-3	-40.0862E-3	141.984E-12	636.064E-3	-15.2472E-3
3.54927E-3	138.574E-12	624.812E-3	-33.1209E-3	141.726E-12	627.555E-3	-36.0906E-3
3.54427E-3	138.198E-12	636.575E-3	-14.6862E-3	140.587E-12	623.831E-3	-42.5691E-3
3.53927E-3	137.474E-12	663.619E-3	-1.65547E-3	138.713E-12	630.690E-3	-15.8315E-3
3.53427E-3	137.792E-12	678.982E-3	-4.52373E-3	137.874E-12	636.689E-3	-4.56606E-3
3.52926E-3	138.568E-12	666.055E-3	-10.8779E-3	137.353E-12	635.532E-3	-24.4628E-3
3.52426E-3	138.847E-12	656.597E-3	-29.2269E-3	136.229E-12	619.825E-3	-40.1280E-3
3.51926E-3	138.706E-12	665.776E-3	-42.1246E-3	135.047E-12	603.821E-3	-57.6531E-3
3.51426E-3	138.825E-12	663.811E-3	-40.3312E-3	135.257E-12	611.219E-3	-71.8659E-3
3.50925E-3	138.633E-12	643.715E-3	-25.2916E-3	135.625E-12	642.189E-3	-55.2714E-3
3.50425E-3	138.999E-12	643.113E-3	5.28700E-3	135.261E-12	668.260E-3	-35.4985E-3
3.49925E-3	137.492E-12	650.548E-3	16.3996E-3	134.467E-12	672.036E-3	-25.8085E-3
3.49425E-3	137.059E-12	638.702E-3	1.55826E-3	134.835E-12	673.396E-3	-20.6272E-3
3.48924E-3	136.569E-12	633.144E-3	-18.0245E-3	135.008E-12	667.819E-3	-26.4161E-3
3.48424E-3	135.731E-12	643.344E-3	-26.1662E-3	135.764E-12	645.499E-3	-38.8897E-3
3.47924E-3	134.548E-12	657.895E-3	-26.0257E-3	135.815E-12	635.253E-3	-48.1041E-3
3.47424E-3	133.737E-12	666.753E-3	-30.7924E-3	135.909E-12	654.419E-3	-54.1412E-3
3.46923E-3	132.841E-12	659.703E-3	-24.3642E-3	136.161E-12	658.358E-3	-56.9130E-3
3.46423E-3	132.632E-12	647.964E-3	-15.1476E-3	137.013E-12	653.888E-3	-47.0623E-3
3.45923E-3	132.325E-12	640.487E-3	-27.7062E-3	137.065E-12	670.296E-3	-44.4729E-3
3.45423E-3	132.516E-12	627.613E-3	-32.0985E-3	136.029E-12	663.535E-3	-53.4044E-3
3.44922E-3	131.963E-12	627.894E-3	-29.6412E-3	135.679E-12	645.871E-3	-45.9012E-3
3.44422E-3	132.824E-12	651.644E-3	-28.7662E-3	136.126E-12	642.559E-3	-34.9449E-3
3.43922E-3	133.206E-12	665.258E-3	-19.7533E-3	135.480E-12	638.470E-3	-25.7337E-3
3.43422E-3	134.221E-12	662.136E-3	-18.7999E-3	133.881E-12	638.883E-3	-20.2175E-3
3.42921E-3	134.960E-12	659.373E-3	-25.8464E-3	132.195E-12	637.895E-3	-38.5665E-3
3.42421E-3	135.947E-12	662.631E-3	-26.1390E-3	131.858E-12	639.862E-3	-53.9580E-3
3.41921E-3	135.975E-12	670.843E-3	-18.9228E-3	132.237E-12	666.973E-3	-38.9656E-3
3.41421E-3	136.370E-12	674.654E-3	-5.24334E-3	132.206E-12	690.644E-3	-12.7702E-3
3.40920E-3	136.135E-12	679.317E-3	27.0084E-3	131.086E-12	674.671E-3	8.10053E-3
3.40420E-3	135.691E-12	688.916E-3	45.3424E-3	131.857E-12	657.780E-3	13.9131E-3
3.39920E-3	134.654E-12	676.459E-3	15.3062E-3	132.982E-12	667.553E-3	-2.39768E-3
3.39420E-3	133.843E-12	652.088E-3	-25.8440E-3	133.530E-12	682.507E-3	-20.3962E-3
3.38919E-3	132.574E-12	645.735E-3	-38.0369E-3	132.987E-12	687.541E-3	-32.6601E-3
3.38419E-3	131.353E-12	647.977E-3	-38.6799E-3	132.741E-12	692.705E-3	-45.1579E-3
3.37919E-3	130.002E-12	650.620E-3	-31.0470E-3	133.688E-12	695.321E-3	-47.8788E-3
3.37419E-3	128.795E-12	655.540E-3	-28.2473E-3	134.001E-12	671.693E-3	-33.9927E-3
3.36918E-3	127.637E-12	653.966E-3	-46.2234E-3	133.640E-12	650.738E-3	-25.4363E-3
3.36418E-3	126.735E-12	640.385E-3	-41.5517E-3	133.052E-12	650.527E-3	-37.7093E-3
3.35918E-3	126.596E-12	617.937E-3	-21.2421E-3	133.238E-12	642.747E-3	-42.8158E-3
3.35418E-3	127.064E-12	618.497E-3	-11.0504E-3	133.396E-12	636.761E-3	-31.4091E-3
3.34917E-3	127.901E-12	644.452E-3	-11.8991E-3	133.177E-12	644.133E-3	-29.6622E-3
3.34417E-3	127.961E-12	658.745E-3	-23.5125E-3	132.248E-12	651.456E-3	-26.0153E-3
3.33917E-3	128.746E-12	661.804E-3	-26.6233E-3	131.861E-12	658.350E-3	-16.9308E-3
3.33417E-3	129.716E-12	655.383E-3	-14.6832E-3	131.611E-12	656.466E-3	-25.7219E-3
3.32916E-3	130.319E-12	638.832E-3	-4.01251E-3	132.140E-12	651.944E-3	-31.2762E-3
3.32416E-3	130.829E-12	634.301E-3	-12.8535E-3	130.616E-12	670.496E-3	-27.9542E-3
3.31916E-3	130.642E-12	658.140E-3	-22.6424E-3	129.235E-12	680.809E-3	-41.5490E-3
3.31416E-3	131.260E-12	671.112E-3	-24.7455E-3	128.711E-12	655.808E-3	-39.8943E-3
3.30915E-3	131.266E-12	658.786E-3	-28.1546E-3	129.411E-12	647.656E-3	-6.70364E-3
3.30415E-3	130.263E-12	663.215E-3	-21.8964E-3	128.047E-12	669.359E-3	-3.80496E-3
3.29915E-3	129.775E-12	681.979E-3	-17.5444E-3	126.300E-12	668.536E-3	-34.7804E-3
3.29415E-3	129.609E-12	696.394E-3	-19.6271E-3	126.251E-12	644.686E-3	-32.9755E-3
3.28914E-3	127.449E-12	694.226E-3	-17.9112E-3	126.284E-12	643.642E-3	-18.8818E-3
3.28414E-3	125.981E-12	666.225E-3	-17.2024E-3	126.089E-12	644.174E-3	-26.7465E-3
3.27914E-3	125.172E-12	652.249E-3	-19.5204E-3	124.647E-12	635.657E-3	-21.7186E-3
3.27414E-3	124.591E-12	660.810E-3	-30.6750E-3	124.889E-12	638.456E-3	-11.5594E-3
3.26913E-3	123.538E-12	662.980E-3	-39.2073E-3	125.022E-12	648.324E-3	-11.3832E-3
3.26413E-3	122.916E-12	664.435E-3	-38.4779E-3	125.612E-12	683.316E-3	-7.29839E-3
3.25913E-3	122.883E-12	656.185E-3	-39.9110E-3	124.781E-12	704.362E-3	-10.7202E-3
3.25413E-3	123.412E-12	631.240E-3	-43.1271E-3	125.104E-12	686.377E-3	-12.2099E-3
3.24912E-3	123.629E-12	610.304E-3	-49.6777E-3	126.415E-12	685.117E-3	-2.10643E-3
3.24412E-3	123.510E-12	605.310E-3	-51.2955E-3	126.963E-12	692.220E-3	-4.46960E-3
3.23912E-3	123.941E-12	611.850E-3	-49.5403E-3	127.070E-12	679.294E-3	-11.3340E-3
3.23412E-3	124.564E-12	624.672E-3	-40.7181E-3	125.888E-12	683.289E-3	-8.95516E-3
3.22911E-3	125.761E-12	636.967E-3	-9.25686E-3	126.426E-12	691.625E-3	-15.8387E-3
3.22411E-3	125.429E-12	646.146E-3	16.6599E-3	126.306E-12	669.627E-3	-39.3675E-3
3.21911E-3	125.657E-12	651.220E-3	14.1208E-3	125.861E-12	648.405E-3	-64.0916E-3
3.21411E-3	125.593E-12	653.809E-3	10.2599E-3	125.105E-12	647.602E-3	-64.8562E-3
3.20910E-3	125.833E-12	652.705E-3	-3.83668E-3	124.356E-12	651.568E-3	-42.2570E-3
3.20410E-3	125.868E-12	657.646E-3	-22.7736E-3	123.961E-12	657.343E-3	-22.1845E-3
3.19910E-3	125.161E-12	672.779E-3	-24.3778E-3	123.044E-12	656.904E-3	-14.5802E-3
3.19410E-3	124.674E-12	678.505E-3	-29.6703E-3	121.778E-12	648.320E-3	-13.2671E-3
3.18909E-3	124.771E-12	680.066E-3	-38.8879E-3	120.848E-12	657.404E-3	-5.77290E-3
3.18409E-3	124.408E-12	684.971E-3	-29.4690E-3	121.349E-12	683.888E-3	-7.79477E-3
3.17909E-3	123.923E-12	687.221E-3	-17.8594E-3	121.442E-12	684.377E-3	-26.9124E-3
3.17409E-3	123.563E-12	679.022E-3	-20.9786E-3	121.317E-12	654.055E-3	-21.4849E-3
3.16908E-3	122.758E-12	669.177E-3	-16.5926E-3	121.232E-12	646.120E-3	-2.10925E-3
3.16408E-3	122.740E-12	663.681E-3	-13.7530E-3	121.199E-12	670.160E-3	-18.4455E-3
3.15908E-3	122.698E-12	659.924E-3	-18.6415E-3	122.078E-12	684.815E-3	-26.4098E-3
3.15408E-3	121.883E-12	660.130E-3	-16.3835E-3	123.266E-12	686.168E-3	661.918E-6
3.14907E-3	121.425E-12	656.202E-3	-20.7886E-3	123.739E-12	692.839E-3	7.29261E-3
3.14407E-3	121.504E-12	661.437E-3	-19.2521E-3	123.043E-12	707.429E-3	4.42548E-3
3.13907E-3	121.418E-12	676.103E-3	-6.78594E-3	123.508E-12	722.004E-3	13.1800E-3
3.13407E-3	120.995E-12	683.551E-3	-14.3409E-3	124.259E-12	708.867E-3	-7.27931E-3
3.12906E-3	120.437E-12	680.042E-3	-31.4859E-3	123.934E-12	690.319E-3	-32.5010E-3
3.12406E-3	119.872E-12	674.889E-3	-37.4343E-3	122.649E-12	688.375E-3	-19.4025E-3
3.11906E-3	120.466E-12	661.777E-3	-28.1309E-3	121.937E-12	673.337E-3	3.24515E-3
3.11406E-3	120.172E-12	645.626E-3	-18.0947E-3	122.430E-12	663.206E-3	11.3277E-3
3.10905E-3	119.633E-12	663.025E-3	-34.9564E-3	120.622E-12	663.446E-3	2.00781E-3
3.10405E-3	118.871E-12	678.291E-3	-51.6496E-3	118.666E-12	663.134E-3	-13.5446E-3
3.09905E-3	119.452E-12	671.209E-3	-33.4479E-3	117.926E-12	666.662E-3	-3.83857E-3
3.09405E-3	119.450E-12	670.835E-3	-8.46259E-3	118.237E-12	662.369E-3	5.80312E-3
3.08904E-3	119.019E-12	670.864E-3	-11.1070E-3	118.181E-12	655.234E-3	-301.348E-6
3.08404E-3	118.366E-12	665.045E-3	-27.6669E-3	116.755E-12	644.834E-3	16.7084E-3
3.07904E-3	118.407E-12	658.054E-3	-28.4341E-3	116.726E-12	629.627E-3	27.3175E-3
3.07404E-3	117.908E-12	664.995E-3	-14.9548E-3	117.329E-12	634.705E-3	-9.81407E-3
3.06903E-3	117.591E-12	682.355E-3	-468.924E-6	117.623E-12	658.920E-3	-34.3037E-3
3.06403E-3	116.203E-12	689.820E-3	-2.55759E-3	116.837E-12	686.231E-3	-20.1273E-3
3.05903E-3	115.758E-12	689.587E-3	-17.6084E-3	116.936E-12	686.147E-3	-20.8933E-3
3.05403E-3	114.678E-12	676.771E-3	-30.2486E-3	117.958E-12	662.185E-3	-24.9436E-3
3.04902E-3	113.792E-12	656.517E-3	-34.1649E-3	118.120E-12	661.469E-3	-8.36243E-3
3.04402E-3	112.871E-12	649.145E-3	-27.3291E-3	117.660E-12	676.924E-3	-1.75854E-3
3.03902E-3	112.140E-12	643.332E-3	-24.1241E-3	117.100E-12	675.970E-3	-9.73807E-3
3.03402E-3	111.740E-12	639.888E-3	-31.5909E-3	117.095E-12	664.629E-3	-9.61695E-3
3.02901E-3	111.571E-12	647.523E-3	-35.9422E-3	116.639E-12	670.932E-3	-8.22674E-3
3.02401E-3	111.850E-12	650.402E-3	-25.1027E-3	115.626E-12	679.432E-3	-19.0816E-3
3.01901E-3	111.688E-12	647.629E-3	-6.77102E-3	114.671E-12	676.751E-3	-19.4518E-3
3.01401E-3	112.030E-12	658.501E-3	-1.96059E-3	114.151E-12	677.609E-3	-8.99676E-3
3.00900E-3	112.747E-12	666.453E-3	-14.0753E-3	114.195E-12	667.206E-3	-10.4158E-3
3.00400E-3	113.613E-12	659.653E-3	-18.0199E-3	113.251E-12	659.541E-3	-10.4773E-3
2.99900E-3	114.232E-12	658.950E-3	-4.83380E-3	112.827E-12	667.356E-3	-8.44359E-3
2.99400E-3	114.937E-12	664.221E-3	-10.7593E-3	112.608E-12	654.764E-3	-11.2922E-3
2.98899E-3	115.677E-12	659.958E-3	-31.2386E-3	112.792E-12	646.681E-3	-11.5548E-3
2.98399E-3	116.065E-12	652.878E-3	-29.5407E-3	112.281E-12	660.997E-3	-24.0459E-3
2.97899E-3	116.305E-12	664.526E-3	-25.8501E-3	112.632E-12	657.064E-3	-32.2089E-3
2.97399E-3	115.766E-12	688.149E-3	-24.0944E-3	112.300E-12	651.373E-3	-16.9472E-3
2.96898E-3	115.485E-12	700.504E-3	-13.5134E-3	112.169E-12	666.642E-3	-7.50732E-3
2.96398E-3	114.546E-12	695.352E-3	-11.3010E-3	112.724E-12	661.895E-3	-14.2628E-3
2.95898E-3	113.465E-12	690.585E-3	-14.1438E-3	113.147E-12	639.938E-3	-18.8144E-3
2.95398E-3	112.541E-12	676.468E-3	-15.3080E-3	113.626E-12	650.028E-3	-17.3839E-3
2.94897E-3	112.095E-12	652.858E-3	-17.4623E-3	113.078E-12	679.344E-3	-11.5082E-3
2.94397E-3	111.353E-12	653.650E-3	-9.50485E-3	113.132E-12	694.804E-3	-2.33107E-3
2.93897E-3	111.060E-12	673.908E-3	5.26750E-3	113.074E-12	694.074E-3	-6.93496E-3
2.93397E-3	110.322E-12	692.221E-3	8.84509E-3	113.104E-12	676.375E-3	-15.5075E-3
2.92896E-3	109.856E-12	685.852E-3	-1.89051E-3	112.271E-12	666.132E-3	-22.3890E-3
2.92396E-3	110.068E-12	669.983E-3	-16.4707E-3	111.799E-12	676.704E-3	-32.1345E-3
2.91896E-3	110.246E-12	672.720E-3	-17.8854E-3	111.319E-12	674.335E-3	-34.2633E-3
2.91396E-3	110.508E-12	665.181E-3	-13.1156E-3	110.979E-12	667.912E-3	-22.8092E-3
2.90895E-3	110.810E-12	649.531E-3	-9.36693E-3	110.555E-12	667.822E-3	-17.1961E-3
2.90395E-3	111.807E-12	666.069E-3	-21.0504E-3	110.036E-12	660.561E-3	-39.4798E-3
2.89895E-3	112.155E-12	696.914E-3	-44.1034E-3	109.809E-12	667.597E-3	-58.2200E-3
2.89395E-3	111.939E-12	709.305E-3	-35.1795E-3	109.624E-12	682.636E-3	-48.0420E-3
2.88894E-3	111.712E-12	698.204E-3	-15.5027E-3	108.779E-12	671.884E-3	-27.8354E-3
2.88394E-3	111.682E-12	682.728E-3	-18.2274E-3	108.057E-12	658.504E-3	-11.7136E-3
2.87894E-3	111.463E-12	685.696E-3	-23.2070E-3	107.637E-12	672.166E-3	10.6936E-3
2.87394E-3	110.695E-12	685.086E-3	-17.7708E-3	107.775E-12	678.522E-3	14.4150E-3
2.86893E-3	109.846E-12	674.565E-3	-6.32186E-3	107.181E-12	656.041E-3	4.55144E-3
2.86393E-3	108.835E-12	670.362E-3	-3.26782E-3	107.220E-12	648.975E-3	7.75722E-3
2.85893E-3	108.394E-12	667.427E-3	-12.7963E-3	107.337E-12	655.413E-3	-1.31107E-3
2.85393E-3	107.283E-12	658.906E-3	-15.7882E-3	106.790E-12	649.258E-3	-17.5513E-3
2.84892E-3	106.299E-12	654.514E-3	-15.1887E-3	106.498E-12	649.921E-3	-29.5849E-3
2.84392E-3	105.677E-12	663.461E-3	-15.7389E-3	107.188E-12	657.716E-3	-38.6116E-3
2.83892E-3	105.183E-12	675.669E-3	-21.4782E-3	107.487E-12	670.252E-3	-22.5391E-3
2.83392E-3	105.423E-12	672.164E-3	-36.9927E-3	107.029E-12	687.258E-3	8.21277E-3
2.82891E-3	104.812E-12	669.821E-3	-37.0498E-3	106.736E-12	686.533E-3	-259.826E-6
2.82391E-3	104.788E-12	684.238E-3	-27.1239E-3	106.981E-12	669.690E-3	-32.1837E-3
2.81891E-3	105.018E-12	684.718E-3	-13.3404E-3	107.774E-12	675.099E-3	-35.5142E-3
2.81391E-3	105.667E-12	674.193E-3	-9.82787E-3	107.470E-12	695.993E-3	-8.92851E-3
2.80890E-3	105.675E-12	664.625E-3	-25.8827E-3	107.039E-12	703.447E-3	3.85414E-3
2.80390E-3	105.718E-12	670.330E-3	-35.7903E-3	107.146E-12	702.608E-3	-9.48526E-3
2.79890E-3	105.598E-12	693.521E-3	-41.8260E-3	106.852E-12	701.228E-3	-13.8364E-3
2.79390E-3	105.615E-12	698.732E-3	-35.4000E-3	106.418E-12	681.013E-3	-3.91091E-3
2.78889E-3	105.307E-12	681.351E-3	-13.0990E-3	105.803E-12	656.280E-3	14.0127E-3
2.78389E-3	104.556E-12	663.384E-3	740.705E-6	105.444E-12	657.672E-3	12.3614E-3
2.77889E-3	104.185E-12	661.063E-3	-7.26660E-3	104.861E-12	664.910E-3	-21.3664E-3
2.77389E-3	103.757E-12	676.752E-3	-28.8642E-3	104.158E-12	670.613E-3	-37.7766E-3
2.76888E-3	103.430E-12	687.387E-3	-28.5214E-3	103.518E-12	675.404E-3	-38.8377E-3
2.76388E-3	102.612E-12	692.089E-3	-13.5732E-3	103.976E-12	676.600E-3	-46.4442E-3
2.75888E-3	102.130E-12	692.480E-3	-27.4481E-3	103.427E-12	683.328E-3	-30.3956E-3
2.75388E-3	101.839E-12	673.841E-3	-53.8691E-3	102.640E-12	680.553E-3	-9.63572E-3
2.74887E-3	101.427E-12	647.791E-3	-54.0432E-3	102.185E-12	660.041E-3	-18.7492E-3
2.74387E-3	101.461E-12	647.974E-3	-38.2815E-3	102.662E-12	662.475E-3	-28.2999E-3
2.73887E-3	101.546E-12	671.780E-3	-33.4436E-3	102.899E-12	692.858E-3	-19.4541E-3
2.73387E-3	101.768E-12	679.993E-3	-45.2995E-3	102.820E-12	701.075E-3	-12.1043E-3
2.72886E-3	101.495E-12	683.935E-3	-54.2707E-3	102.720E-12	679.154E-3	-10.0300E-3
2.72386E-3	101.959E-12	683.673E-3	-52.7298E-3	103.458E-12	673.483E-3	8.50925E-3
2.71886E-3	102.355E-12	679.385E-3	-45.7826E-3	103.485E-12	700.151E-3	29.3308E-3
2.71386E-3	102.985E-12	700.223E-3	-25.4106E-3	103.397E-12	715.773E-3	25.4667E-3
2.70885E-3	102.110E-12	723.169E-3	-4.79786E-3	103.190E-12	709.649E-3	14.2799E-3
2.70385E-3	102.236E-12	724.201E-3	9.21796E-3	103.452E-12	690.200E-3	1.33139E-3
2.69885E-3	102.447E-12	712.590E-3	15.6086E-3	103.174E-12	662.473E-3	-8.24953E-3
2.69385E-3	102.794E-12	703.285E-3	18.9599E-3	102.160E-12	662.816E-3	-17.0083E-3
2.68884E-3	101.862E-12	697.699E-3	21.7050E-3	100.954E-12	683.844E-3	-40.2234E-3
2.68384E-3	101.647E-12	677.284E-3	-5.05901E-3	100.659E-12	690.036E-3	-38.7259E-3
2.67884E-3	101.288E-12	662.260E-3	-25.9016E-3	99.7739E-12	686.155E-3	-13.9060E-3
2.67384E-3	100.997E-12	674.185E-3	-12.7654E-3	98.6043E-12	684.080E-3	-6.79847E-3
2.66883E-3	100.550E-12	685.050E-3	-8.89241E-3	97.7464E-12	673.542E-3	-9.39589E-3
2.66383E-3	100.319E-12	687.843E-3	-17.2645E-3	97.1085E-12	667.552E-3	5.31870E-3
2.65883E-3	100.200E-12	698.130E-3	-19.2538E-3	96.7861E-12	678.530E-3	28.7158E-3
2.65383E-3	99.4933E-12	708.670E-3	-16.0660E-3	96.5214E-12	687.952E-3	18.8461E-3
2.64882E-3	99.1007E-12	702.721E-3	-10.9677E-3	96.6806E-12	688.300E-3	-2.69226E-3
2.64382E-3	98.6951E-12	691.312E-3	-15.0308E-3	96.8933E-12	681.413E-3	-7.62558E-3
2.63882E-3	98.0071E-12	687.609E-3	-26.0879E-3	97.1364E-12	683.668E-3	-19.3159E-3
2.63382E-3	97.3471E-12	687.742E-3	-23.8796E-3	97.1855E-12	693.773E-3	-31.9072E-3
2.62881E-3	97.3390E-12	685.898E-3	-9.71629E-3	97.9782E-12	690.496E-3	-39.0096E-3
2.62381E-3	97.5163E-12	690.635E-3	-11.0783E-3	98.5268E-12	680.798E-3	-47.0215E-3
2.61881E-3	97.2317E-12	693.386E-3	-28.1611E-3	98.6297E-12	676.245E-3	-49.2496E-3
2.61381E-3	96.7416E-12	683.988E-3	-32.2269E-3	97.9484E-12	681.255E-3	-42.8257E-3
2.60880E-3	96.4848E-12	688.037E-3	-28.2508E-3	97.9201E-12	696.976E-3	-30.9487E-3
2.60380E-3	96.3266E-12	684.997E-3	-19.0175E-3	97.6906E-12	704.190E-3	-23.7021E-3
2.59880E-3	96.2800E-12	662.202E-3	-5.90240E-3	97.6445E-12	689.451E-3	-21.6886E-3
2.59380E-3	95.9038E-12	657.080E-3	-8.55458E-3	96.5229E-12	666.474E-3	-11.2037E-3
2.58879E-3	95.7811E-12	673.687E-3	-22.3149E-3	95.7552E-12	663.102E-3	-1.34826E-3
2.58379E-3	95.6939E-12	683.449E-3	-30.9932E-3	95.3999E-12	674.728E-3	-10.0957E-3
2.57879E-3	95.5998E-12	682.131E-3	-21.3225E-3	94.9744E-12	676.054E-3	-19.7379E-3
2.57379E-3	95.7764E-12	684.261E-3	-2.69714E-3	94.1627E-12	678.517E-3	-21.1911E-3
2.56878E-3	96.0054E-12	685.541E-3	-1.72471E-3	93.6248E-12	686.969E-3	-21.7772E-3
2.56378E-3	95.6646E-12	686.780E-3	-15.2824E-3	93.4086E-12	681.186E-3	-26.4084E-3
2.55878E-3	95.1877E-12	693.683E-3	-22.3198E-3	93.4932E-12	681.501E-3	-26.2039E-3
2.55378E-3	95.0820E-12	703.935E-3	-25.6091E-3	93.7799E-12	700.273E-3	-14.4450E-3
2.54877E-3	94.6226E-12	710.848E-3	-35.5335E-3	93.8607E-12	707.750E-3	-12.5439E-3
2.54377E-3	94.2892E-12	706.951E-3	-29.3650E-3	93.4598E-12	696.165E-3	-14.6142E-3
2.53877E-3	93.4651E-12	696.612E-3	-9.83218E-3	93.6155E-12	685.129E-3	-6.63826E-3
2.53377E-3	92.5710E-12	699.116E-3	-6.12383E-3	94.7508E-12	684.010E-3	-3.14650E-3
2.52876E-3	92.1020E-12	706.110E-3	-10.2592E-3	94.7330E-12	691.228E-3	3.07110E-3
2.52376E-3	91.9759E-12	698.873E-3	-6.08929E-3	94.5493E-12	697.028E-3	16.1531E-3
2.51876E-3	90.9892E-12	691.131E-3	-1.22660E-3	94.8259E-12	694.456E-3	16.0287E-3
2.51376E-3	90.3528E-12	688.036E-3	-3.68140E-3	95.0550E-12	695.203E-3	3.56446E-3
2.50875E-3	90.2464E-12	688.057E-3	72.6845E-6	94.4199E-12	696.745E-3	-8.38343E-3
2.50375E-3	90.7797E-12	680.810E-3	-2.62742E-3	93.4500E-12	692.215E-3	-6.76402E-3
2.49875E-3	90.2481E-12	662.802E-3	-29.7745E-3	93.0431E-12	682.456E-3	4.95571E-3
2.49375E-3	90.1828E-12	658.028E-3	-48.1934E-3	93.0145E-12	680.946E-3	2.06497E-3
2.48874E-3	90.1982E-12	672.786E-3	-38.6746E-3	92.8240E-12	700.312E-3	-5.79515E-3
2.48374E-3	90.5146E-12	686.793E-3	-20.5281E-3	91.4796E-12	720.228E-3	-181.623E-6
2.47874E-3	90.4628E-12	679.512E-3	-7.80681E-3	90.5896E-12	717.858E-3	-10.3410E-3
2.47374E-3	90.6290E-12	671.790E-3	-9.62973E-3	90.2969E-12	706.580E-3	-28.7663E-3
2.46873E-3	90.7546E-12	685.610E-3	-19.8863E-3	90.3122E-12	707.342E-3	-28.1811E-3
2.46373E-3	90.6778E-12	695.855E-3	-38.3260E-3	89.3965E-12	717.899E-3	-18.4429E-3
2.45873E-3	90.2840E-12	700.342E-3	-46.5605E-3	88.5340E-12	715.510E-3	-10.0219E-3
2.45373E-3	89.9579E-12	706.987E-3	-31.0458E-3	88.3933E-12	711.666E-3	-9.70446E-3
2.44872E-3	89.8413E-12	706.842E-3	-11.8182E-3	88.1283E-12	718.810E-3	-20.1368E-3
2.44372E-3	89.0583E-12	711.300E-3	-5.88022E-3	88.0779E-12	712.065E-3	-20.5486E-3
2.43872E-3	88.2750E-12	728.168E-3	-17.8750E-3	87.6315E-12	699.736E-3	-12.7807E-3
2.43372E-3	87.6485E-12	738.374E-3	-25.5574E-3	87.6172E-12	697.276E-3	-23.3590E-3
2.42871E-3	87.5045E-12	728.967E-3	-20.8433E-3	88.2563E-12	702.807E-3	-27.1733E-3
2.42371E-3	86.9734E-12	715.248E-3	-11.4942E-3	88.3469E-12	710.759E-3	-14.1371E-3
2.41871E-3	86.1712E-12	709.782E-3	-10.0220E-3	87.8614E-12	713.489E-3	-2.03904E-3
2.41371E-3	86.0407E-12	697.568E-3	-20.4535E-3	87.3006E-12	704.502E-3	4.53444E-3
2.40870E-3	86.0086E-12	685.111E-3	-29.7858E-3	87.7626E-12	695.815E-3	-28.3027E-6
2.40370E-3	86.1886E-12	681.944E-3	-25.6135E-3	87.5732E-12	712.340E-3	-2.16608E-3
2.39870E-3	86.1629E-12	679.880E-3	-15.5334E-3	87.4050E-12	720.027E-3	710.937E-6
2.39370E-3	86.4790E-12	689.266E-3	-17.2314E-3	86.8263E-12	699.774E-3	-6.44989E-3
2.38869E-3	86.8133E-12	699.243E-3	-27.3225E-3	86.6238E-12	696.330E-3	-14.0544E-3
2.38369E-3	87.3199E-12	709.124E-3	-26.0347E-3	86.3534E-12	715.454E-3	-5.23830E-3
2.37869E-3	87.4619E-12	727.284E-3	-13.7641E-3	86.6916E-12	720.238E-3	8.23297E-3
2.37369E-3	87.5816E-12	724.845E-3	-12.9424E-3	85.9788E-12	713.811E-3	764.256E-6
2.36868E-3	87.8168E-12	714.116E-3	-27.9568E-3	85.7204E-12	710.726E-3	-15.3808E-3
2.36368E-3	87.5484E-12	722.495E-3	-40.6143E-3	85.4842E-12	708.520E-3	-18.1181E-3
2.35868E-3	87.3813E-12	725.714E-3	-36.1106E-3	85.6773E-12	710.512E-3	-12.3263E-3
2.35368E-3	86.9816E-12	723.615E-3	-12.6022E-3	84.7483E-12	714.139E-3	-14.9925E-3
2.34867E-3	85.9651E-12	718.854E-3	7.53398E-3	84.3649E-12	713.375E-3	-19.0716E-3
2.34367E-3	84.9848E-12	698.081E-3	-708.531E-6	84.3382E-12	712.823E-3	-9.76461E-3
2.33867E-3	84.4792E-12	687.026E-3	-13.9198E-3	84.5187E-12	716.345E-3	-9.22403E-3
2.33367E-3	84.4213E-12	688.978E-3	-11.4248E-3	83.8643E-12	712.734E-3	-22.5017E-3
2.32866E-3	82.7255E-12	681.963E-3	-14.9393E-3	83.6922E-12	708.614E-3	-26.4329E-3
2.32366E-3	82.1189E-12	672.937E-3	-34.8416E-3	84.1155E-12	723.125E-3	-23.3234E-3
2.31866E-3	81.6319E-12	686.572E-3	-41.1998E-3	84.0511E-12	739.321E-3	-17.3279E-3
2.31366E-3	81.8022E-12	711.979E-3	-29.1569E-3	83.8128E-12	727.337E-3	-8.19871E-3
2.30865E-3	81.1777E-12	710.098E-3	-29.5833E-3	83.9455E-12	719.485E-3	-20.0579E-3
2.30365E-3	80.9254E-12	701.286E-3	-35.2672E-3	83.6696E-12	736.578E-3	-44.3617E-3
2.29865E-3	81.1858E-12	706.535E-3	-38.2822E-3	83.6898E-12	746.224E-3	-44.6093E-3
2.29365E-3	81.8972E-12	708.194E-3	-34.8956E-3	83.4959E-12	749.703E-3	-35.6457E-3
2.28864E-3	81.8936E-12	709.062E-3	-16.9051E-3	82.9423E-12	749.509E-3	-38.3814E-3
2.28364E-3	81.9556E-12	709.855E-3	-14.3189E-3	82.8023E-12	733.397E-3	-41.8185E-3
2.27864E-3	82.1804E-12	707.357E-3	-30.9063E-3	82.9947E-12	716.516E-3	-46.3979E-3
2.27364E-3	82.5095E-12	710.055E-3	-35.6643E-3	82.2710E-12	712.744E-3	-45.8721E-3
2.26863E-3	82.3210E-12	712.692E-3	-32.7682E-3	81.2553E-12	711.015E-3	-29.1156E-3
2.26363E-3	82.2003E-12	713.348E-3	-33.0643E-3	80.6315E-12	708.283E-3	-15.4037E-3
2.25863E-3	81.6425E-12	716.100E-3	-24.3507E-3	80.5116E-12	710.684E-3	-12.6844E-3
2.25363E-3	81.3206E-12	720.615E-3	-17.2919E-3	80.1152E-12	717.036E-3	-11.8986E-3
2.24862E-3	80.6038E-12	733.514E-3	-22.6057E-3	79.4191E-12	720.088E-3	-11.6859E-3
2.24362E-3	80.3970E-12	733.079E-3	-21.9876E-3	78.8788E-12	712.755E-3	-10.0575E-3
2.23862E-3	79.2130E-12	714.042E-3	-21.8083E-3	78.5172E-12	716.104E-3	-12.2974E-3
2.23362E-3	78.5437E-12	708.656E-3	-27.4759E-3	78.2906E-12	734.539E-3	-16.0278E-3
2.22861E-3	77.9885E-12	715.886E-3	-16.4133E-3	78.5122E-12	746.054E-3	-18.5855E-3
2.22361E-3	77.7969E-12	714.251E-3	-5.37614E-3	78.2675E-12	746.537E-3	-17.5848E-3
2.21861E-3	77.4636E-12	711.554E-3	-18.4734E-3	78.2311E-12	742.370E-3	-13.5372E-3
2.21361E-3	76.5421E-12	716.875E-3	-31.2410E-3	78.6144E-12	729.969E-3	-20.6085E-3
2.20860E-3	76.2875E-12	721.520E-3	-26.6370E-3	79.1834E-12	728.112E-3	-20.2845E-3
2.20360E-3	76.3213E-12	716.536E-3	-24.0503E-3	79.1095E-12	748.287E-3	-10.7183E-3
2.19860E-3	76.6095E-12	704.755E-3	-23.4083E-3	78.6139E-12	755.370E-3	-11.0856E-3
2.19360E-3	75.9130E-12	703.151E-3	-7.61149E-3	78.7392E-12	743.023E-3	-15.9866E-3
2.18859E-3	75.8742E-12	715.186E-3	7.28668E-3	79.0218E-12	742.382E-3	-22.9803E-3
2.18359E-3	75.7749E-12	720.760E-3	7.44046E-3	79.0164E-12	758.359E-3	-30.5802E-3
2.17859E-3	76.0585E-12	723.619E-3	1.55967E-3	78.0866E-12	758.900E-3	-26.1920E-3
2.17359E-3	75.7253E-12	736.832E-3	-10.1235E-3	77.3839E-12	742.283E-3	-13.4846E-3
2.16858E-3	75.2464E-12	746.268E-3	-22.1589E-3	77.0508E-12	734.283E-3	-16.3815E-3
2.16358E-3	75.2346E-12	743.253E-3	-20.4798E-3	76.5793E-12	732.974E-3	-26.5198E-3
2.15858E-3	75.7409E-12	735.948E-3	-8.35111E-3	75.4934E-12	723.067E-3	-26.7719E-3
2.15358E-3	76.0342E-12	726.361E-3	-9.20466E-3	74.6633E-12	714.076E-3	-19.9235E-3
2.14857E-3	75.3944E-12	718.836E-3	-21.2783E-3	74.3448E-12	720.542E-3	-16.1142E-3
2.14357E-3	75.1852E-12	722.543E-3	-17.9901E-3	74.0765E-12	726.421E-3	-24.9220E-3
2.13857E-3	75.5961E-12	736.017E-3	-17.5638E-3	73.0671E-12	723.784E-3	-26.0609E-3
2.13357E-3	75.4359E-12	744.776E-3	-30.6453E-3	72.8745E-12	730.368E-3	-18.0480E-3
2.12856E-3	75.2692E-12	748.480E-3	-35.3652E-3	73.1317E-12	745.598E-3	-21.7039E-3
2.12356E-3	74.6176E-12	744.401E-3	-24.8001E-3	73.1267E-12	757.083E-3	-16.0670E-3
2.11856E-3	74.7350E-12	734.128E-3	-3.85519E-3	72.9962E-12	767.268E-3	-7.50591E-3
2.11356E-3	73.9293E-12	733.414E-3	-145.752E-6	72.9414E-12	771.987E-3	-16.3759E-3
2.10855E-3	73.7159E-12	744.070E-3	-12.6437E-3	73.2757E-12	769.003E-3	-8.83386E-3
2.10355E-3	73.1860E-12	754.964E-3	-18.0607E-3	73.6436E-12	765.250E-3	2.80184E-3
2.09855E-3	72.7057E-12	751.228E-3	-19.2227E-3	73.9270E-12	766.248E-3	-8.10338E-3
2.09355E-3	71.6973E-12	756.756E-3	-13.4635E-3	73.3209E-12	772.485E-3	-15.1669E-3
2.08854E-3	71.7756E-12	782.869E-3	2.03509E-3	73.3044E-12	782.475E-3	-23.3000E-3
2.08354E-3	71.5435E-12	791.833E-3	7.50844E-3	73.0959E-12	780.568E-3	-40.9297E-3
2.07854E-3	71.2925E-12	770.723E-3	-3.80194E-3	73.0915E-12	758.486E-3	-39.5674E-3
2.07354E-3	70.6675E-12	736.770E-3	-17.1506E-3	72.4983E-12	745.937E-3	-22.0279E-3
2.06853E-3	70.9867E-12	708.475E-3	-21.5241E-3	71.5350E-12	757.413E-3	-6.65282E-3
2.06353E-3	71.5187E-12	706.549E-3	-20.4472E-3	70.8968E-12	769.023E-3	-2.15969E-3
2.05853E-3	71.3275E-12	725.769E-3	-17.0030E-3	70.4409E-12	764.586E-3	-20.4256E-3
2.05353E-3	70.6764E-12	746.781E-3	-5.07186E-3	70.0218E-12	750.834E-3	-31.2703E-3
2.04852E-3	71.0785E-12	753.402E-3	-2.18606E-3	69.2163E-12	740.876E-3	-19.9293E-3
2.04352E-3	71.6785E-12	756.767E-3	-14.7021E-3	68.5911E-12	749.982E-3	-16.0029E-3
2.03852E-3	71.5332E-12	768.296E-3	-27.5514E-3	67.9512E-12	769.934E-3	-15.9006E-3
2.03352E-3	70.4904E-12	773.351E-3	-31.7564E-3	68.1517E-12	777.762E-3	2.46610E-3
2.02851E-3	70.1749E-12	776.327E-3	-30.1129E-3	67.9401E-12	778.653E-3	12.2740E-3
2.02351E-3	70.2980E-12	777.643E-3	-38.7037E-3	67.6597E-12	771.626E-3	-4.99724E-3
2.01851E-3	69.6974E-12	776.575E-3	-39.8115E-3	67.3817E-12	764.846E-3	-19.6879E-3
2.01351E-3	68.8405E-12	780.644E-3	-24.2619E-3	67.8675E-12	775.368E-3	-25.9288E-3
2.00850E-3	67.8667E-12	780.146E-3	-17.7544E-3	67.8923E-12	774.694E-3	-27.3372E-3
2.00350E-3	67.1241E-12	768.752E-3	-20.2902E-3	67.5292E-12	763.050E-3	-18.4033E-3
1.99850E-3	66.5478E-12	748.642E-3	-27.5028E-3	67.3311E-12	767.950E-3	-8.80716E-3
1.99350E-3	66.5008E-12	727.181E-3	-31.1164E-3	67.2599E-12	778.685E-3	-2.98828E-3
1.98849E-3	65.5589E-12	727.273E-3	-23.5615E-3	67.4716E-12	790.154E-3	-4.46282E-3
1.98349E-3	64.9349E-12	745.660E-3	-20.3624E-3	67.1398E-12	791.926E-3	-13.2400E-3
1.97849E-3	65.0071E-12	749.510E-3	-26.8630E-3	66.7523E-12	779.741E-3	-17.2564E-3
1.97349E-3	65.8859E-12	748.203E-3	-29.7892E-3	66.8202E-12	770.598E-3	-19.9226E-3
1.96848E-3	65.5439E-12	757.328E-3	-29.9753E-3	66.5694E-12	763.768E-3	-22.2001E-3
1.96348E-3	64.7908E-12	752.952E-3	-34.0676E-3	66.0226E-12	770.153E-3	-23.9912E-3
1.95848E-3	64.8071E-12	739.266E-3	-31.0667E-3	65.8207E-12	787.237E-3	-25.6191E-3
1.95348E-3	65.7891E-12	750.953E-3	-19.9413E-3	65.5143E-12	782.872E-3	-13.0068E-3
1.94847E-3	66.8825E-12	772.701E-3	-16.1326E-3	65.0536E-12	775.981E-3	-1.00007E-3
1.94347E-3	65.9685E-12	775.366E-3	-19.6351E-3	64.2692E-12	787.782E-3	-8.88432E-3
1.93847E-3	64.9345E-12	776.077E-3	-14.8708E-3	64.2071E-12	791.144E-3	-19.1082E-3
1.93347E-3	64.9584E-12	780.480E-3	707.964E-6	64.3153E-12	784.292E-3	-22.2045E-3
1.92846E-3	65.4094E-12	784.422E-3	-929.321E-6	64.1099E-12	786.674E-3	-18.8436E-3
1.92346E-3	64.8982E-12	795.658E-3	-24.4263E-3	63.4452E-12	798.979E-3	-18.2596E-3
1.91846E-3	63.0486E-12	802.661E-3	-30.6367E-3	63.4251E-12	808.288E-3	-22.6391E-3
1.91346E-3	62.5311E-12	800.153E-3	-16.3492E-3	63.5382E-12	805.699E-3	-22.5766E-3
1.90845E-3	62.5580E-12	800.150E-3	-12.1627E-3	63.5159E-12	799.901E-3	-20.8833E-3
1.90345E-3	62.7715E-12	802.509E-3	-11.7457E-3	62.7671E-12	799.076E-3	-19.4719E-3
1.89845E-3	61.7701E-12	797.024E-3	-4.00249E-3	62.8211E-12	802.374E-3	-17.7888E-3
1.89345E-3	60.3981E-12	785.626E-3	-10.8798E-3	62.7277E-12	805.486E-3	-28.6118E-3
1.88844E-3	60.3639E-12	777.427E-3	-17.6668E-3	62.4861E-12	809.311E-3	-43.2173E-3
1.88344E-3	60.8751E-12	779.199E-3	-10.2206E-3	61.9760E-12	811.650E-3	-36.5897E-3
1.87844E-3	60.5733E-12	784.055E-3	-17.6855E-3	61.5123E-12	813.496E-3	-25.1693E-3
1.87344E-3	59.7335E-12	784.716E-3	-33.7814E-3	61.4698E-12	813.872E-3	-28.2363E-3
1.86843E-3	59.8594E-12	781.998E-3	-34.9035E-3	60.7936E-12	810.196E-3	-29.0133E-3
1.86343E-3	60.0180E-12	783.116E-3	-33.7000E-3	60.5911E-12	810.692E-3	-26.2263E-3
1.85843E-3	60.5262E-12	810.421E-3	-36.7754E-3	60.1217E-12	826.199E-3	-21.3535E-3
1.85343E-3	60.2025E-12	843.968E-3	-36.8433E-3	59.7490E-12	840.916E-3	-9.50964E-3
1.84842E-3	59.8870E-12	847.247E-3	-31.7326E-3	59.0173E-12	836.938E-3	-1.00551E-3
1.84342E-3	59.9868E-12	834.693E-3	-23.8797E-3	58.7273E-12	836.334E-3	3.93938E-3
1.83842E-3	60.4240E-12	830.445E-3	-18.5626E-3	58.6604E-12	837.937E-3	1.45817E-3
1.83342E-3	60.1981E-12	845.224E-3	-19.1155E-3	58.2310E-12	823.578E-3	-12.5223E-3
1.82841E-3	59.7043E-12	857.688E-3	-15.2363E-3	57.6651E-12	814.951E-3	-28.6931E-3
1.82341E-3	59.3518E-12	852.134E-3	-10.0306E-3	57.5219E-12	826.465E-3	-29.8181E-3
1.81841E-3	59.2693E-12	851.962E-3	-28.1903E-3	57.1206E-12	837.660E-3	-17.1506E-3
1.81341E-3	58.8502E-12	859.212E-3	-36.4589E-3	56.7005E-12	841.966E-3	-18.8357E-3
1.80840E-3	57.8007E-12	857.481E-3	-21.7698E-3	56.1834E-12	847.532E-3	-27.1692E-3
1.80340E-3	57.3553E-12	847.334E-3	-25.7838E-3	56.2148E-12	854.555E-3	-23.9597E-3
1.79840E-3	57.4363E-12	855.097E-3	-31.2012E-3	56.1532E-12	855.620E-3	-16.1184E-3
1.79340E-3	57.0851E-12	877.846E-3	-21.1272E-3	56.1352E-12	857.753E-3	293.980E-6
1.78839E-3	56.4507E-12	880.437E-3	-24.7462E-3	55.9219E-12	870.273E-3	20.0705E-3
1.78339E-3	56.0042E-12	864.983E-3	-25.5581E-3	55.8839E-12	886.448E-3	16.2365E-3
1.77839E-3	55.9359E-12	855.483E-3	-11.0191E-3	56.0072E-12	895.754E-3	2.19120E-3
1.77339E-3	55.7780E-12	853.959E-3	-17.8626E-3	55.6653E-12	891.599E-3	3.02643E-3
1.76838E-3	55.6213E-12	847.780E-3	-35.4781E-3	55.4206E-12	892.056E-3	-492.955E-6
1.76338E-3	54.7593E-12	846.441E-3	-34.2630E-3	55.3291E-12	894.005E-3	-14.5516E-3
1.75838E-3	54.7363E-12	854.181E-3	-26.8899E-3	55.3882E-12	884.849E-3	-25.6514E-3
1.75338E-3	54.5643E-12	862.253E-3	-29.3537E-3	54.6932E-12	889.452E-3	-26.4954E-3
1.74837E-3	54.0375E-12	876.100E-3	-37.1416E-3	54.2718E-12	908.200E-3	-24.3693E-3
1.74337E-3	53.3827E-12	879.104E-3	-44.5069E-3	53.8936E-12	911.078E-3	-21.6263E-3
1.73837E-3	53.4179E-12	873.923E-3	-40.6037E-3	53.7068E-12	902.071E-3	-4.51828E-3
1.73337E-3	53.4862E-12	877.399E-3	-37.2015E-3	53.0496E-12	902.244E-3	3.06345E-3
1.72836E-3	52.6837E-12	890.836E-3	-33.3639E-3	52.1823E-12	921.971E-3	-8.16268E-3
1.72336E-3	52.2917E-12	907.202E-3	-21.8285E-3	51.5908E-12	935.750E-3	-10.1309E-3
1.71836E-3	52.3314E-12	906.610E-3	-16.5660E-3	51.1927E-12	915.588E-3	-10.5389E-3
1.71336E-3	52.1258E-12	907.513E-3	-15.9608E-3	50.8988E-12	895.069E-3	-24.9081E-3
1.70835E-3	51.3680E-12	918.410E-3	-20.4500E-3	50.5040E-12	903.177E-3	-32.2852E-3
1.70335E-3	51.2919E-12	932.051E-3	-16.9544E-3	50.4144E-12	928.956E-3	-25.8999E-3
1.69835E-3	50.8163E-12	947.672E-3	-5.90864E-3	50.2565E-12	952.244E-3	-15.4025E-3
1.69335E-3	50.3854E-12	935.679E-3	-3.83837E-3	50.3381E-12	959.236E-3	-1.11770E-3
1.68834E-3	49.9508E-12	902.279E-3	-385.402E-6	50.5000E-12	962.949E-3	-8.83993E-3
1.68334E-3	49.4616E-12	891.406E-3	-744.158E-6	50.6891E-12	965.588E-3	-26.7557E-3
1.67834E-3	49.3165E-12	907.325E-3	-17.2692E-3	50.3537E-12	970.837E-3	-18.8577E-3
1.67334E-3	48.6622E-12	935.378E-3	-28.1092E-3	50.2021E-12	980.168E-3	-8.16622E-3
1.66833E-3	48.1197E-12	951.254E-3	-25.3247E-3	50.2538E-12	969.870E-3	-9.92905E-3
1.66333E-3	47.6725E-12	940.364E-3	-22.6808E-3	50.0707E-12	969.649E-3	-8.82629E-3
1.65833E-3	47.7528E-12	928.612E-3	-14.1180E-3	49.1429E-12	988.307E-3	-7.09517E-3
1.65333E-3	47.4816E-12	924.198E-3	-5.39221E-3	48.5402E-12	989.662E-3	-10.8712E-3
1.64832E-3	46.7335E-12	927.473E-3	-10.5695E-3	48.2416E-12	984.444E-3	-12.2547E-3
1.64332E-3	46.6866E-12	936.193E-3	-13.4227E-3	48.0242E-12	980.901E-3	-15.3394E-3
1.63832E-3	46.7032E-12	938.290E-3	-4.69463E-3	47.1160E-12	980.187E-3	-23.9370E-3
1.63332E-3	46.5075E-12	939.097E-3	-5.57615E-3	46.4095E-12	989.777E-3	-28.7017E-3
1.62831E-3	46.3712E-12	941.650E-3	-12.3673E-3	45.7262E-12	996.039E-3	-31.6517E-3
1.62331E-3	46.1136E-12	957.709E-3	-7.40385E-3	45.4469E-12	994.528E-3	-26.0618E-3
1.61831E-3	45.7725E-12	985.881E-3	-6.97133E-3	44.6800E-12	994.144E-3	-7.62814E-3
1.61331E-3	45.4838E-12	997.235E-3	-18.3576E-3	44.1527E-12	992.703E-3	758.362E-6
1.60830E-3	45.2588E-12	996.427E-3	-22.2196E-3	44.0011E-12	998.283E-3	-3.80382E-3
1.60330E-3	44.7576E-12	1.00857E+0	-19.6946E-3	44.0001E-12	1.00665E+0	-2.85914E-3
1.59830E-3	44.4098E-12	1.01993E+0	-14.3025E-3	43.5823E-12	1.01189E+0	-3.98138E-3
1.59330E-3	44.0593E-12	1.01153E+0	-13.2829E-3	43.0284E-12	1.02009E+0	-6.54809E-3
1.58829E-3	43.7928E-12	1.00179E+0	-30.6378E-3	43.2972E-12	1.01447E+0	-6.55270E-3
1.58329E-3	43.2615E-12	1.01032E+0	-40.5340E-3	43.5414E-12	1.01072E+0	-11.7052E-3
1.57829E-3	42.8133E-12	1.01717E+0	-28.8604E-3	42.9293E-12	1.02468E+0	-13.0416E-3
1.57329E-3	42.4024E-12	1.01518E+0	-12.8593E-3	42.5714E-12	1.03432E+0	-4.18070E-3
1.56828E-3	41.8108E-12	1.02898E+0	2.21277E-3	42.4854E-12	1.04262E+0	-4.35425E-3
1.56328E-3	41.6674E-12	1.04257E+0	6.81778E-3	42.2504E-12	1.04970E+0	-21.3016E-3
1.55828E-3	41.0966E-12	1.03373E+0	-7.47580E-3	41.7135E-12	1.04669E+0	-28.0370E-3
1.55328E-3	40.7490E-12	1.02880E+0	-16.5901E-3	41.2529E-12	1.04443E+0	-20.8921E-3
1.54827E-3	40.5383E-12	1.03418E+0	-13.0159E-3	40.7808E-12	1.04265E+0	-23.7555E-3
1.54327E-3	40.5611E-12	1.03186E+0	-14.9989E-3	40.5905E-12	1.03382E+0	-29.6770E-3
1.53827E-3	40.0825E-12	1.03862E+0	-14.7089E-3	39.9484E-12	1.03074E+0	-21.8498E-3
1.53327E-3	39.8611E-12	1.05157E+0	-11.6066E-3	39.4672E-12	1.04047E+0	-20.3745E-3
1.52826E-3	40.0418E-12	1.04121E+0	-15.7899E-3	38.9694E-12	1.03966E+0	-23.3316E-3
1.52326E-3	39.5982E-12	1.03484E+0	-19.2276E-3	38.9389E-12	1.04119E+0	-20.2477E-3
1.51826E-3	39.5635E-12	1.06693E+0	-20.6607E-3	38.4224E-12	1.06003E+0	-21.6033E-3
1.51326E-3	39.1945E-12	1.10688E+0	-26.9943E-3	37.9399E-12	1.06069E+0	-13.3613E-3
1.50825E-3	39.1186E-12	1.11359E+0	-25.9465E-3	37.7650E-12	1.04682E+0	1.93589E-3
1.50325E-3	38.6613E-12	1.09973E+0	-15.0476E-3	37.6965E-12	1.05082E+0	-4.02979E-3
1.49825E-3	38.0657E-12	1.09154E+0	-10.1064E-3	37.5527E-12	1.06373E+0	-21.5507E-3
1.49325E-3	37.7350E-12	1.09440E+0	-12.7100E-3	36.9757E-12	1.07234E+0	-22.4404E-3
1.48824E-3	37.2129E-12	1.10001E+0	-17.7724E-3	36.7590E-12	1.08506E+0	-12.6166E-3
1.48324E-3	36.5915E-12	1.08799E+0	-21.9145E-3	36.4698E-12	1.08260E+0	-10.3836E-3
1.47824E-3	35.9527E-12	1.07354E+0	-27.6605E-3	36.3710E-12	1.06437E+0	-12.2904E-3
1.47324E-3	35.5528E-12	1.07771E+0	-37.4415E-3	35.9968E-12	1.06391E+0	-12.7471E-3
1.46823E-3	35.2799E-12	1.08245E+0	-42.5312E-3	35.6822E-12	1.07384E+0	-8.73066E-3
1.46323E-3	34.7209E-12	1.08325E+0	-35.0435E-3	35.4100E-12	1.07809E+0	-2.46170E-3
1.45823E-3	33.9772E-12	1.07011E+0	-21.6990E-3	35.1521E-12	1.07429E+0	-8.20638E-3
1.45323E-3	33.6403E-12	1.04724E+0	-13.6426E-3	34.8074E-12	1.06039E+0	-23.5486E-3
1.44822E-3	33.7871E-12	1.04500E+0	-14.8870E-3	34.0984E-12	1.05709E+0	-32.3537E-3
1.44322E-3	33.6072E-12	1.05770E+0	-20.7699E-3	33.6012E-12	1.06681E+0	-34.1379E-3
1.43822E-3	32.9215E-12	1.06425E+0	-27.2940E-3	33.1439E-12	1.06211E+0	-21.8256E-3
1.43322E-3	32.6134E-12	1.05905E+0	-20.7217E-3	33.3028E-12	1.04572E+0	-7.11873E-3
1.42821E-3	32.8379E-12	1.04836E+0	424.422E-6	32.9263E-12	1.03790E+0	-16.6568E-3
1.42321E-3	32.5115E-12	1.04876E+0	15.2399E-3	31.8963E-12	1.02827E+0	-23.3021E-3
1.41821E-3	31.9623E-12	1.06999E+0	10.7165E-3	31.5286E-12	1.00916E+0	-16.6546E-3
1.41321E-3	31.6242E-12	1.08063E+0	-4.37679E-3	31.3190E-12	1.00011E+0	-15.9294E-3
1.40820E-3	31.6861E-12	1.06772E+0	-2.70745E-3	30.8060E-12	998.054E-3	-15.5448E-3
1.40320E-3	31.0860E-12	1.05512E+0	-1.24164E-3	30.0772E-12	993.210E-3	-11.6635E-3
1.39820E-3	30.4027E-12	1.05471E+0	-8.23618E-3	29.8430E-12	987.719E-3	-12.0864E-3
1.39320E-3	29.9594E-12	1.05598E+0	999.050E-6	29.4773E-12	978.483E-3	-16.0544E-3
1.38819E-3	29.5624E-12	1.04708E+0	8.40213E-3	29.2238E-12	975.293E-3	-16.5564E-3
1.38319E-3	29.2683E-12	1.03052E+0	1.09137E-3	28.8612E-12	984.117E-3	-18.8688E-3
1.37819E-3	28.6050E-12	1.00979E+0	-19.6109E-3	28.5631E-12	987.619E-3	-28.0830E-3
1.37319E-3	28.2555E-12	988.387E-3	-30.8639E-3	28.5314E-12	979.011E-3	-28.5227E-3
1.36818E-3	27.9714E-12	984.852E-3	-13.5230E-3	28.3386E-12	973.065E-3	-20.1523E-3
1.36318E-3	27.7452E-12	997.412E-3	2.79665E-3	27.9774E-12	967.925E-3	-16.2979E-3
1.35818E-3	27.3443E-12	996.606E-3	-874.067E-6	27.7997E-12	962.970E-3	-10.4694E-3
1.35318E-3	27.0774E-12	976.110E-3	-8.01608E-3	27.7920E-12	966.732E-3	-11.7143E-3
1.34817E-3	26.8921E-12	946.124E-3	-4.36061E-3	27.5294E-12	963.728E-3	-20.7336E-3
1.34317E-3	26.3837E-12	930.894E-3	-3.80961E-3	27.1115E-12	950.633E-3	-18.0103E-3
1.33817E-3	26.3424E-12	940.907E-3	-5.69635E-3	26.8178E-12	941.106E-3	-3.00352E-3
1.33317E-3	26.3654E-12	945.883E-3	-7.94524E-3	26.5704E-12	922.895E-3	5.13654E-3
1.32816E-3	26.0815E-12	935.876E-3	-22.4264E-3	26.2645E-12	891.750E-3	5.69322E-3
1.32316E-3	25.7105E-12	923.853E-3	-26.7299E-3	25.7285E-12	869.476E-3	6.11631E-3
1.31816E-3	25.5294E-12	909.584E-3	-22.6147E-3	25.5091E-12	852.515E-3	-7.62580E-3
1.31316E-3	25.4856E-12	912.197E-3	-24.1836E-3	24.8916E-12	831.049E-3	-25.2127E-3
1.30815E-3	25.0706E-12	929.093E-3	-11.8764E-3	24.4363E-12	819.939E-3	-25.7838E-3
1.30315E-3	24.3837E-12	914.915E-3	4.48378E-3	24.2359E-12	813.942E-3	-16.4393E-3
1.29815E-3	24.1916E-12	880.844E-3	4.79422E-3	23.9068E-12	799.742E-3	-10.9846E-3
1.29315E-3	23.9085E-12	856.077E-3	-5.09006E-3	23.6084E-12	783.143E-3	-12.5735E-3
1.28814E-3	23.4393E-12	838.867E-3	-7.08575E-3	23.2490E-12	766.506E-3	-19.2706E-3
1.28314E-3	22.9512E-12	823.716E-3	-8.49255E-3	22.9042E-12	753.751E-3	-16.3989E-3
1.27814E-3	22.6052E-12	815.175E-3	-27.1251E-3	22.7204E-12	751.660E-3	-10.1246E-3
1.27314E-3	22.4163E-12	807.563E-3	-36.5841E-3	22.5994E-12	742.873E-3	-20.4055E-3
1.26813E-3	22.0906E-12	784.359E-3	-27.1486E-3	22.4902E-12	719.220E-3	-29.0659E-3
1.26313E-3	21.6662E-12	765.033E-3	-18.3726E-3	22.1473E-12	705.401E-3	-26.2519E-3
1.25813E-3	21.2843E-12	766.128E-3	-10.9687E-3	22.1773E-12	706.359E-3	-22.1256E-3
1.25313E-3	21.4450E-12	760.680E-3	-7.69525E-3	21.9814E-12	704.131E-3	-18.0854E-3
1.24812E-3	21.3526E-12	734.541E-3	-12.9868E-3	21.8180E-12	693.809E-3	-12.8472E-3
1.24312E-3	21.0790E-12	706.530E-3	-16.0121E-3	21.6878E-12	674.458E-3	-12.3997E-3
1.23812E-3	20.8206E-12	689.741E-3	-10.5151E-3	21.4852E-12	647.291E-3	-18.7086E-3
1.23312E-3	20.8221E-12	688.251E-3	-5.82912E-3	21.3352E-12	631.467E-3	-15.6323E-3
1.22811E-3	20.8913E-12	695.837E-3	-10.9884E-3	20.8340E-12	621.878E-3	-14.7732E-3
1.22311E-3	20.7545E-12	693.488E-3	-20.0485E-3	20.9355E-12	597.691E-3	-23.4630E-3
1.21811E-3	20.4153E-12	676.537E-3	-11.0159E-3	20.8551E-12	577.240E-3	-18.7653E-3
1.21311E-3	20.1781E-12	658.673E-3	1.22875E-3	20.3199E-12	562.607E-3	-13.9292E-3
1.20810E-3	20.1653E-12	643.333E-3	-9.83211E-3	20.1578E-12	532.720E-3	-13.3771E-3
1.20310E-3	20.1243E-12	626.275E-3	-29.7192E-3	20.0444E-12	511.630E-3	-5.46075E-3
1.19810E-3	19.7148E-12	611.385E-3	-42.5937E-3	19.6589E-12	510.805E-3	-12.4401E-3
1.19310E-3	19.3981E-12	594.725E-3	-39.9960E-3	19.3409E-12	495.738E-3	-20.0728E-3
1.18809E-3	19.0263E-12	574.781E-3	-24.4746E-3	19.4791E-12	479.075E-3	-10.2227E-3
1.18309E-3	18.8405E-12	566.170E-3	-11.4627E-3	19.2137E-12	484.214E-3	-5.53813E-3
1.17809E-3	18.8121E-12	559.068E-3	-3.36028E-3	19.0077E-12	479.035E-3	-3.95717E-3
1.17309E-3	18.3381E-12	536.477E-3	-4.68952E-3	18.7873E-12	461.389E-3	-1.35677E-3
1.16808E-3	17.7385E-12	512.076E-3	-12.8917E-3	18.5306E-12	451.931E-3	-12.9008E-3
1.16308E-3	17.9343E-12	484.980E-3	-16.7112E-3	18.2894E-12	434.421E-3	-30.8905E-3
1.15808E-3	17.8820E-12	465.833E-3	-16.0110E-3	18.1191E-12	419.975E-3	-26.3584E-3
1.15308E-3	17.4942E-12	467.730E-3	-13.8987E-3	18.2622E-12	420.383E-3	-10.9105E-3
1.14807E-3	17.1878E-12	457.283E-3	-20.9932E-3	18.1790E-12	402.940E-3	-16.9001E-3
1.14307E-3	17.2491E-12	429.983E-3	-33.4243E-3	18.0384E-12	375.585E-3	-28.4298E-3
1.13807E-3	17.2271E-12	413.200E-3	-29.6663E-3	17.9388E-12	366.520E-3	-29.7991E-3
1.13307E-3	16.9456E-12	406.450E-3	-19.3471E-3	17.9316E-12	355.273E-3	-22.2885E-3
1.12806E-3	16.9595E-12	402.011E-3	-23.9259E-3	17.5898E-12	332.884E-3	-1.30418E-3
1.12306E-3	17.0115E-12	394.715E-3	-26.6845E-3	17.5659E-12	319.013E-3	9.53794E-3
1.11806E-3	16.8751E-12	374.054E-3	-19.2629E-3	17.3629E-12	310.049E-3	-4.28734E-3
1.11306E-3	16.6948E-12	343.101E-3	-21.9214E-3	17.1839E-12	296.553E-3	-17.9898E-3
1.10805E-3	16.8940E-12	326.800E-3	-23.4539E-3	16.9351E-12	285.236E-3	-22.2387E-3
1.10305E-3	16.6971E-12	331.478E-3	-6.93399E-3	16.8171E-12	276.759E-3	-20.5774E-3
1.09805E-3	16.7725E-12	324.541E-3	-6.46925E-3	16.5820E-12	270.777E-3	-10.1671E-3
1.09305E-3	16.7486E-12	305.568E-3	-28.4927E-3	16.2546E-12	270.035E-3	-2.15473E-3
1.08804E-3	16.6999E-12	290.451E-3	-29.0134E-3	16.5523E-12	261.329E-3	-6.31558E-3
1.08304E-3	16.3880E-12	280.198E-3	-14.4104E-3	16.3017E-12	232.266E-3	-6.30356E-3
1.07804E-3	16.4818E-12	283.039E-3	-9.79837E-3	16.0424E-12	224.047E-3	234.270E-6
1.07304E-3	16.1855E-12	274.558E-3	-10.8353E-3	15.9524E-12	233.844E-3	-6.06216E-3
1.06803E-3	16.3262E-12	241.610E-3	-18.1029E-3	16.1321E-12	215.424E-3	-21.2310E-3
1.06303E-3	16.3992E-12	228.875E-3	-27.3541E-3	16.0126E-12	203.192E-3	-31.3495E-3
1.05803E-3	15.9098E-12	242.127E-3	-18.4387E-3	15.8921E-12	215.347E-3	-37.7286E-3
1.05303E-3	15.4894E-12	241.082E-3	-766.627E-6	15.8939E-12	206.487E-3	-34.3686E-3
1.04802E-3	15.6221E-12	227.827E-3	-539.577E-6	15.9445E-12	183.997E-3	-20.9894E-3
1.04302E-3	15.6057E-12	210.745E-3	-6.85899E-3	16.1837E-12	179.817E-3	-20.2058E-3
1.03802E-3	15.1795E-12	191.340E-3	-701.652E-6	15.8474E-12	172.522E-3	-33.7866E-3
1.03302E-3	14.9726E-12	187.089E-3	9.15265E-3	15.7684E-12	154.069E-3	-37.6695E-3
1.02801E-3	15.0507E-12	190.453E-3	3.52169E-3	15.7103E-12	137.744E-3	-30.5318E-3
1.02301E-3	15.1471E-12	183.698E-3	-7.19052E-3	15.6039E-12	119.997E-3	-26.6628E-3
1.01801E-3	15.0511E-12	168.525E-3	-11.4222E-3	15.4092E-12	122.011E-3	-18.0112E-3
1.01301E-3	14.7819E-12	154.394E-3	-19.7581E-3	15.3082E-12	135.805E-3	-13.8587E-3
1.00800E-3	15.0147E-12	144.811E-3	-30.6513E-3	15.0795E-12	127.510E-3	-21.0509E-3
1.00300E-3	15.2822E-12	139.196E-3	-33.1309E-3	14.9359E-12	116.024E-3	-22.6669E-3
997.999E-6	15.2534E-12	142.246E-3	-23.6329E-3	14.7468E-12	118.471E-3	-28.0600E-3
992.997E-6	14.9181E-12	143.768E-3	-21.7761E-3	14.8448E-12	116.452E-3	-27.4600E-3
987.994E-6	15.0780E-12	128.901E-3	-28.5196E-3	14.7728E-12	110.574E-3	-7.22920E-3
982.991E-6	15.2146E-12	111.182E-3	-24.9147E-3	14.6568E-12	113.971E-3	441.659E-6
977.989E-6	15.3494E-12	104.013E-3	-28.6399E-3	14.4266E-12	103.195E-3	-7.32996E-3
972.986E-6	15.0031E-12	113.205E-3	-37.7734E-3	14.5580E-12	76.4839E-3	-6.39695E-3
967.984E-6	14.7537E-12	125.482E-3	-31.3975E-3	14.8294E-12	71.4068E-3	-1.06843E-3
962.981E-6	14.8416E-12	116.170E-3	-20.6530E-3	14.8943E-12	88.1319E-3	-1.63849E-3
957.979E-6	15.0426E-12	99.4737E-3	-13.3843E-3	14.6363E-12	97.2328E-3	-8.50437E-3
952.976E-6	14.9448E-12	98.5531E-3	-6.14612E-3	14.4524E-12	91.4673E-3	-20.8152E-3
947.974E-6	14.4198E-12	105.940E-3	-4.14716E-3	14.5147E-12	77.0091E-3	-31.1357E-3
942.971E-6	14.3876E-12	102.072E-3	-16.6698E-3	14.6626E-12	63.4518E-3	-20.5039E-3
937.969E-6	14.2585E-12	89.2411E-3	-27.1005E-3	14.6375E-12	57.6751E-3	2.79505E-3
932.966E-6	14.3722E-12	81.1682E-3	-19.9725E-3	14.5186E-12	56.6750E-3	9.46888E-3
927.964E-6	14.2027E-12	80.1481E-3	-13.7030E-3	14.4983E-12	63.8135E-3	8.16668E-3
922.961E-6	14.0215E-12	84.3382E-3	-16.8294E-3	14.6433E-12	72.2294E-3	7.85720E-3
917.959E-6	14.3008E-12	91.1108E-3	-34.9766E-3	14.5459E-12	65.4734E-3	-4.21008E-3
912.956E-6	14.7283E-12	90.3108E-3	-55.1124E-3	14.6551E-12	47.7932E-3	-11.9962E-3
907.954E-6	14.8320E-12	84.5967E-3	-36.6265E-3	14.6239E-12	57.2689E-3	-10.9585E-3
902.951E-6	14.2420E-12	82.0877E-3	-6.09228E-3	14.5040E-12	80.7632E-3	-20.7531E-3
897.949E-6	14.2497E-12	73.4612E-3	-1.64272E-3	14.5398E-12	75.8858E-3	-26.8131E-3
892.946E-6	14.8639E-12	71.0578E-3	-2.23199E-3	14.6084E-12	69.2058E-3	-15.1957E-3
887.944E-6	15.2926E-12	71.9291E-3	-3.37867E-3	14.4564E-12	74.5998E-3	-8.82975E-3
882.941E-6	14.5888E-12	55.9567E-3	-15.3154E-3	14.2097E-12	76.4173E-3	-13.2096E-3
877.939E-6	14.2742E-12	44.2403E-3	-14.2415E-3	14.3302E-12	73.0730E-3	-9.79618E-3
872.936E-6	14.6318E-12	52.1205E-3	370.152E-6	14.3104E-12	61.8444E-3	-13.2935E-3
867.934E-6	14.9800E-12	60.5289E-3	-6.17678E-3	14.1425E-12	51.7440E-3	-17.7765E-3
862.931E-6	14.5578E-12	59.9917E-3	-22.9126E-3	14.1384E-12	50.3770E-3	-7.06691E-3
857.929E-6	13.8374E-12	55.3482E-3	-20.1332E-3	14.3122E-12	57.0877E-3	-12.4757E-3
852.926E-6	13.9331E-12	55.9434E-3	549.979E-6	14.4424E-12	72.1618E-3	-26.2720E-3
847.924E-6	14.1914E-12	68.5707E-3	13.2793E-3	14.2089E-12	84.3318E-3	-22.5685E-3
842.921E-6	14.1579E-12	80.0591E-3	8.13669E-3	13.9351E-12	81.0482E-3	-11.9902E-3
837.919E-6	13.6978E-12	70.0321E-3	1.72900E-3	13.9673E-12	66.8333E-3	-7.06463E-3
832.916E-6	13.5341E-12	48.6015E-3	-4.63962E-3	14.0448E-12	59.4507E-3	-8.35691E-3
827.914E-6	13.6292E-12	45.0681E-3	-3.99807E-3	13.8931E-12	56.5828E-3	-12.4398E-3
822.911E-6	13.7147E-12	56.7849E-3	4.98927E-3	13.7715E-12	44.7116E-3	-18.6314E-3
817.909E-6	13.8353E-12	73.2215E-3	1.79252E-3	13.8219E-12	39.2720E-3	-22.8738E-3
812.906E-6	13.6166E-12	87.7281E-3	-14.5627E-3	13.8914E-12	47.9238E-3	-27.4992E-3
807.904E-6	13.6777E-12	85.7287E-3	-24.7310E-3	13.9866E-12	54.7103E-3	-27.9707E-3
802.901E-6	13.7850E-12	76.7818E-3	-16.5287E-3	13.8134E-12	60.8392E-3	-21.9238E-3
797.899E-6	13.8872E-12	73.1846E-3	-7.30388E-3	13.9409E-12	67.6781E-3	-21.2904E-3
792.896E-6	14.0209E-12	73.6394E-3	-15.8631E-3	13.8012E-12	64.6974E-3	-17.7562E-3
787.894E-6	13.9219E-12	76.6297E-3	-21.5473E-3	13.8047E-12	60.0285E-3	-3.79954E-3
782.891E-6	13.8189E-12	70.6337E-3	-12.7867E-3	13.8927E-12	62.6945E-3	3.13484E-3
777.889E-6	13.8099E-12	56.8957E-3	-10.4595E-3	13.9928E-12	61.5048E-3	-4.92331E-3
772.886E-6	13.7902E-12	55.2035E-3	-24.4006E-3	14.0492E-12	63.9845E-3	-11.1496E-3
767.884E-6	13.6180E-12	69.1875E-3	-32.8019E-3	13.8057E-12	84.7196E-3	-14.6176E-3
762.881E-6	13.6590E-12	77.4312E-3	-25.8877E-3	13.9323E-12	98.9018E-3	-23.0756E-3
757.879E-6	13.6605E-12	69.1560E-3	-27.9102E-3	13.8936E-12	102.071E-3	-28.8498E-3
752.876E-6	13.5635E-12	62.5229E-3	-28.9512E-3	13.7126E-12	107.732E-3	-21.4920E-3
747.874E-6	13.2962E-12	70.1097E-3	-18.7434E-3	13.4867E-12	99.6381E-3	-7.30577E-3
742.871E-6	13.4078E-12	78.7717E-3	-22.7616E-3	13.7486E-12	85.3300E-3	-1.61322E-3
737.869E-6	13.4570E-12	73.1870E-3	-37.2018E-3	13.6433E-12	85.6332E-3	-6.67655E-3
732.866E-6	13.3488E-12	66.3461E-3	-38.9409E-3	13.5073E-12	89.3743E-3	-19.0398E-3
727.864E-6	13.2879E-12	69.0270E-3	-26.2978E-3	13.4487E-12	93.9245E-3	-24.0856E-3
722.861E-6	13.4071E-12	74.6715E-3	-7.41112E-3	13.5471E-12	102.569E-3	-23.1684E-3
717.859E-6	13.2279E-12	86.0187E-3	3.46007E-3	13.7623E-12	104.197E-3	-25.0210E-3
712.856E-6	13.2400E-12	104.086E-3	-3.14703E-3	13.6704E-12	105.242E-3	-16.7528E-3
707.854E-6	13.1639E-12	116.725E-3	-17.7205E-3	13.3909E-12	114.440E-3	-13.1241E-3
702.851E-6	13.0904E-12	107.032E-3	-24.2533E-3	13.5097E-12	118.406E-3	-18.3621E-3
697.849E-6	13.1893E-12	84.8115E-3	-22.4715E-3	13.7344E-12	118.664E-3	-14.6058E-3
692.846E-6	13.1919E-12	85.8798E-3	-21.3095E-3	13.4481E-12	125.047E-3	-14.6699E-3
687.844E-6	12.9068E-12	107.100E-3	-24.8758E-3	13.1669E-12	128.845E-3	-26.6555E-3
682.841E-6	13.1994E-12	122.524E-3	-29.6958E-3	13.1005E-12	131.733E-3	-28.8523E-3
677.839E-6	13.3432E-12	133.622E-3	-30.7219E-3	13.1162E-12	136.931E-3	-22.4018E-3
672.836E-6	13.0235E-12	129.469E-3	-24.8656E-3	13.1055E-12	135.623E-3	-19.5466E-3
667.834E-6	12.7552E-12	111.829E-3	-10.9514E-3	13.0045E-12	138.485E-3	-20.8958E-3
662.831E-6	13.0155E-12	117.958E-3	61.1576E-6	12.8722E-12	149.106E-3	-27.1429E-3
657.829E-6	13.1448E-12	141.994E-3	7.64460E-3	12.7908E-12	149.394E-3	-27.8633E-3
652.826E-6	12.9492E-12	155.534E-3	10.9168E-3	12.8630E-12	150.184E-3	-20.1652E-3
647.824E-6	12.8644E-12	157.833E-3	4.02623E-3	12.8491E-12	167.506E-3	-18.4096E-3
642.821E-6	13.0770E-12	153.722E-3	-7.63294E-3	12.8661E-12	172.131E-3	-19.8960E-3
637.819E-6	12.9643E-12	151.154E-3	-15.0467E-3	12.8309E-12	162.959E-3	-9.97195E-3
632.816E-6	12.8123E-12	154.943E-3	-17.7542E-3	12.7997E-12	168.322E-3	849.287E-6
627.814E-6	12.8466E-12	161.851E-3	-24.7350E-3	13.0925E-12	183.572E-3	-4.56880E-3
622.811E-6	12.9842E-12	169.230E-3	-31.5536E-3	13.1728E-12	189.202E-3	-19.0663E-3
617.809E-6	12.8250E-12	172.643E-3	-26.7022E-3	12.9080E-12	189.716E-3	-26.3648E-3
612.806E-6	12.5759E-12	176.874E-3	-14.8963E-3	12.7135E-12	194.965E-3	-28.0116E-3
607.804E-6	12.4211E-12	189.248E-3	-15.4088E-3	12.9584E-12	199.126E-3	-13.6765E-3
602.801E-6	12.7243E-12	190.978E-3	-22.4415E-3	12.8592E-12	217.131E-3	5.60030E-3
597.799E-6	12.6263E-12	179.409E-3	-13.1966E-3	12.7803E-12	246.476E-3	-155.727E-6
592.796E-6	12.1411E-12	187.035E-3	4.91288E-3	12.5467E-12	250.615E-3	-13.5897E-3
587.794E-6	11.9464E-12	212.010E-3	4.96105E-3	12.4843E-12	242.104E-3	-14.1504E-3
582.791E-6	12.1365E-12	220.761E-3	-13.7795E-3	12.2973E-12	247.144E-3	-15.8452E-3
577.789E-6	11.9429E-12	211.094E-3	-31.7678E-3	12.2458E-12	244.152E-3	-18.5990E-3
572.786E-6	11.6815E-12	213.602E-3	-33.3603E-3	12.1950E-12	240.498E-3	-19.4861E-3
567.784E-6	11.7260E-12	222.461E-3	-13.5215E-3	11.9843E-12	254.202E-3	-20.0983E-3
562.781E-6	11.9922E-12	220.835E-3	125.105E-6	11.8533E-12	262.879E-3	-10.9505E-3
557.779E-6	11.8052E-12	235.985E-3	-1.43045E-3	11.6615E-12	265.162E-3	-2.28720E-3
552.776E-6	11.4878E-12	266.425E-3	-6.10681E-3	11.4389E-12	274.819E-3	-10.8530E-3
547.774E-6	11.4930E-12	272.995E-3	-15.4208E-3	11.5265E-12	284.354E-3	-29.1116E-3
542.771E-6	11.4272E-12	261.097E-3	-24.8847E-3	11.4018E-12	286.794E-3	-32.8589E-3
537.769E-6	11.2755E-12	256.270E-3	-18.0110E-3	11.1470E-12	289.168E-3	-17.7302E-3
532.766E-6	10.9672E-12	260.894E-3	2.96370E-3	11.1440E-12	298.558E-3	-8.15132E-3
527.764E-6	10.9299E-12	277.201E-3	4.47507E-3	11.1987E-12	307.806E-3	-6.64244E-3
522.761E-6	10.8023E-12	295.324E-3	-4.35846E-3	11.1210E-12	315.310E-3	-6.97556E-3
517.759E-6	10.6596E-12	299.499E-3	-5.71744E-3	11.1547E-12	326.302E-3	-12.3751E-3
512.756E-6	10.4609E-12	295.920E-3	-14.2220E-3	11.1181E-12	335.200E-3	-16.5961E-3
507.754E-6	10.3876E-12	302.845E-3	-22.2863E-3	10.9713E-12	332.491E-3	-26.1016E-3
502.751E-6	10.4275E-12	310.649E-3	-25.6968E-3	10.7934E-12	321.588E-3	-32.4437E-3
497.749E-6	10.2694E-12	301.431E-3	-30.0622E-3	10.6163E-12	315.249E-3	-20.2892E-3
492.746E-6	10.2335E-12	292.446E-3	-24.0589E-3	10.5716E-12	320.157E-3	-11.7189E-3
487.744E-6	10.1775E-12	301.065E-3	-8.88611E-3	10.5185E-12	329.941E-3	-19.8617E-3
482.741E-6	10.1114E-12	322.317E-3	-1.04463E-3	10.3115E-12	336.917E-3	-20.6583E-3
477.739E-6	10.0752E-12	337.140E-3	-8.12139E-3	9.96604E-12	344.599E-3	-19.2679E-3
472.736E-6	10.0815E-12	338.548E-3	-22.9572E-3	9.82049E-12	347.381E-3	-21.9453E-3
467.734E-6	10.0931E-12	340.007E-3	-33.0836E-3	9.81318E-12	346.240E-3	-5.14281E-3
462.731E-6	9.85481E-12	346.557E-3	-29.8531E-3	9.66436E-12	348.241E-3	6.71209E-3
457.729E-6	9.64371E-12	351.942E-3	-15.4753E-3	9.48374E-12	346.280E-3	3.09994E-3
452.726E-6	9.67062E-12	352.448E-3	-9.09583E-3	9.32561E-12	351.778E-3	10.6808E-3
447.724E-6	9.60814E-12	351.647E-3	-10.0276E-3	9.23624E-12	365.438E-3	2.27359E-3
442.721E-6	9.34126E-12	348.361E-3	-5.91718E-3	9.13613E-12	365.215E-3	-23.5058E-3
437.719E-6	9.08049E-12	354.156E-3	-1.30550E-3	9.01879E-12	358.469E-3	-22.1520E-3
432.716E-6	9.05843E-12	367.501E-3	374.320E-6	8.98057E-12	370.822E-3	-12.1978E-3
427.714E-6	8.80106E-12	367.428E-3	-11.2417E-3	8.80855E-12	379.419E-3	-12.6389E-3
422.711E-6	8.39274E-12	358.931E-3	-36.4335E-3	8.67925E-12	366.603E-3	-13.2481E-3
417.709E-6	8.18857E-12	345.023E-3	-42.5862E-3	8.71090E-12	365.704E-3	-22.1591E-3
412.706E-6	8.31570E-12	345.431E-3	-23.1576E-3	8.58288E-12	382.243E-3	-31.5076E-3
407.704E-6	8.20338E-12	368.372E-3	-15.1906E-3	8.37625E-12	389.643E-3	-27.8759E-3
402.701E-6	7.93867E-12	385.108E-3	-22.4831E-3	8.04955E-12	388.234E-3	-19.6756E-3
397.699E-6	7.77060E-12	390.131E-3	-21.0009E-3	7.96802E-12	392.556E-3	-23.1147E-3
392.696E-6	7.79189E-12	385.893E-3	-18.4566E-3	7.96509E-12	391.333E-3	-25.5689E-3
387.694E-6	7.76049E-12	380.106E-3	-22.4913E-3	7.74616E-12	391.867E-3	-11.1243E-3
382.691E-6	7.61900E-12	381.333E-3	-17.2445E-3	7.45871E-12	406.821E-3	-5.10156E-3
377.689E-6	7.47784E-12	385.547E-3	-16.5611E-3	7.43264E-12	397.242E-3	-5.00195E-3
372.686E-6	7.43418E-12	395.230E-3	-23.6564E-3	7.49682E-12	371.960E-3	-1.28075E-3
367.684E-6	7.49742E-12	398.935E-3	-16.1635E-3	7.25560E-12	374.723E-3	-17.0684E-3
362.681E-6	7.33443E-12	384.274E-3	-10.6504E-3	6.96575E-12	381.313E-3	-31.3286E-3
357.679E-6	7.20813E-12	384.774E-3	-14.5882E-3	6.94786E-12	378.274E-3	-17.5894E-3
352.676E-6	7.03076E-12	414.242E-3	-19.3650E-3	6.95137E-12	384.353E-3	-4.44261E-3
347.674E-6	6.90231E-12	428.273E-3	-27.0094E-3	6.70131E-12	396.330E-3	-6.92256E-3
342.671E-6	6.63561E-12	413.592E-3	-31.3269E-3	6.43583E-12	400.996E-3	-16.1332E-3
337.669E-6	6.51674E-12	391.618E-3	-20.9959E-3	6.47022E-12	405.032E-3	-34.3395E-3
332.666E-6	6.38400E-12	376.753E-3	-3.45535E-3	6.48023E-12	412.211E-3	-48.2716E-3
327.664E-6	6.17092E-12	380.367E-3	3.38652E-3	6.25913E-12	411.892E-3	-41.5621E-3
322.661E-6	5.89066E-12	394.789E-3	-2.34280E-3	6.00467E-12	400.484E-3	-29.2863E-3
317.659E-6	5.87390E-12	408.021E-3	-17.7717E-3	6.09703E-12	388.266E-3	-18.9302E-3
312.656E-6	5.84073E-12	408.805E-3	-23.1623E-3	6.03944E-12	393.682E-3	-487.680E-6
307.654E-6	5.52161E-12	395.284E-3	-11.1329E-3	5.84973E-12	396.376E-3	-1.15659E-3
302.651E-6	5.41853E-12	389.459E-3	-6.25035E-3	5.55742E-12	380.467E-3	-24.6347E-3
297.649E-6	5.45793E-12	397.567E-3	-7.41783E-3	5.53984E-12	376.265E-3	-27.6379E-3
292.646E-6	5.46406E-12	402.806E-3	-4.73267E-3	5.55561E-12	387.766E-3	-23.7488E-3
287.644E-6	5.23301E-12	395.568E-3	-9.59049E-3	5.37609E-12	387.294E-3	-32.0838E-3
282.641E-6	5.05558E-12	386.219E-3	-14.6458E-3	5.13543E-12	377.212E-3	-27.4495E-3
277.639E-6	5.15796E-12	388.482E-3	-11.2006E-3	5.04371E-12	376.198E-3	-11.7415E-3
272.636E-6	5.05906E-12	392.834E-3	-8.60278E-3	4.99690E-12	366.320E-3	-536.281E-6
267.634E-6	4.77310E-12	393.701E-3	-11.7269E-3	4.84535E-12	346.305E-3	1.04771E-3
262.631E-6	4.53678E-12	388.827E-3	-13.4979E-3	4.70293E-12	349.495E-3	-17.7975E-3
257.629E-6	4.58167E-12	373.890E-3	-10.3979E-3	4.62528E-12	360.089E-3	-36.8827E-3
252.626E-6	4.45276E-12	363.873E-3	-14.5629E-3	4.42606E-12	358.702E-3	-26.0723E-3
247.624E-6	4.23438E-12	362.932E-3	-13.0295E-3	4.24419E-12	349.806E-3	-6.91429E-3
242.621E-6	4.09639E-12	353.995E-3	-2.02328E-3	4.24532E-12	330.269E-3	-7.14005E-3
237.619E-6	4.10869E-12	340.106E-3	-6.75838E-3	4.16218E-12	321.762E-3	-15.6311E-3
232.616E-6	3.94128E-12	336.271E-3	-15.6790E-3	3.86656E-12	326.019E-3	-14.8083E-3
227.614E-6	3.66096E-12	337.876E-3	-6.46023E-3	3.64104E-12	317.230E-3	-4.81842E-3
222.611E-6	3.54956E-12	334.524E-3	211.731E-6	3.63260E-12	303.264E-3	1.73215E-3
217.609E-6	3.53292E-12	334.854E-3	-15.1657E-3	3.67976E-12	296.965E-3	-3.56455E-3
212.606E-6	3.35720E-12	334.422E-3	-26.6048E-3	3.42649E-12	290.152E-3	-16.1941E-3
207.604E-6	3.22711E-12	325.335E-3	-15.6916E-3	3.16046E-12	280.790E-3	-21.0540E-3
202.601E-6	3.18250E-12	318.880E-3	-110.631E-6	3.21616E-12	286.722E-3	-17.9382E-3
197.599E-6	3.15801E-12	310.082E-3	-164.412E-6	3.29374E-12	301.660E-3	-19.5055E-3
192.596E-6	3.01184E-12	301.862E-3	-18.7345E-3	3.09105E-12	302.081E-3	-19.1255E-3
187.594E-6	2.79824E-12	307.601E-3	-34.3337E-3	2.86232E-12	294.706E-3	-13.1189E-3
182.591E-6	2.85872E-12	313.156E-3	-26.7266E-3	2.80918E-12	284.475E-3	-9.72371E-3
177.589E-6	2.83487E-12	308.619E-3	-13.2084E-3	2.95307E-12	268.196E-3	-12.5946E-3
172.586E-6	2.64447E-12	311.966E-3	-11.9950E-3	2.73322E-12	261.342E-3	-19.6182E-3
167.584E-6	2.43202E-12	321.484E-3	-11.6923E-3	2.57753E-12	265.057E-3	-24.7207E-3
162.581E-6	2.43976E-12	314.059E-3	-7.21839E-3	2.56045E-12	260.000E-3	-29.8255E-3
157.579E-6	2.46875E-12	289.254E-3	-5.52405E-3	2.42868E-12	257.329E-3	-29.1636E-3
152.576E-6	2.30472E-12	269.430E-3	-908.186E-6	2.24771E-12	256.502E-3	-28.8219E-3
147.574E-6	2.09674E-12	268.458E-3	4.86257E-3	2.06320E-12	241.266E-3	-25.9975E-3
142.571E-6	2.13206E-12	273.795E-3	1.24282E-3	2.05844E-12	239.228E-3	-15.5094E-3
137.569E-6	2.21148E-12	271.460E-3	-2.44586E-3	1.94739E-12	253.212E-3	-21.1538E-3
132.566E-6	1.89558E-12	261.169E-3	3.77135E-3	1.77243E-12	243.146E-3	-23.0834E-3
127.564E-6	1.75588E-12	251.482E-3	8.90936E-3	1.68812E-12	222.933E-3	-10.2102E-3
122.561E-6	1.77869E-12	256.041E-3	7.51944E-3	1.66702E-12	217.943E-3	-14.5519E-3
117.559E-6	1.73544E-12	260.111E-3	5.17482E-3	1.57047E-12	213.417E-3	-21.4555E-3
112.556E-6	1.54787E-12	248.412E-3	-1.76532E-3	1.42113E-12	216.704E-3	-17.3454E-3
107.554E-6	1.45221E-12	229.708E-3	-8.84361E-3	1.41920E-12	231.412E-3	-26.5820E-3
102.551E-6	1.46558E-12	216.650E-3	-2.70237E-3	1.47786E-12	234.141E-3	-33.4582E-3
97.5488E-6	1.33083E-12	218.271E-3	-1.12306E-3	1.35825E-12	221.552E-3	-19.7926E-3
92.5463E-6	1.16371E-12	219.095E-3	-15.4043E-3	1.09193E-12	212.381E-3	-9.25730E-3
87.5438E-6	1.15671E-12	213.483E-3	-18.9748E-3	1.15960E-12	208.561E-3	-13.7929E-3
82.5413E-6	1.16088E-12	211.104E-3	-11.3768E-3	1.24378E-12	208.278E-3	-15.7569E-3
77.5388E-6	988.113E-15	211.045E-3	-1.33824E-3	1.07001E-12	208.538E-3	-20.8287E-3
72.5363E-6	856.121E-15	204.540E-3	5.25305E-3	843.199E-15	205.848E-3	-30.9150E-3
67.5338E-6	830.713E-15	202.756E-3	-6.13232E-3	853.261E-15	207.147E-3	-24.8632E-3
62.5313E-6	906.004E-15	217.505E-3	-19.8757E-3	881.869E-15	209.895E-3	-23.5213E-3
57.5288E-6	701.606E-15	211.556E-3	-22.8707E-3	740.145E-15	202.051E-3	-27.6030E-3
52.5263E-6	569.543E-15	190.165E-3	-22.7513E-3	527.377E-15	189.953E-3	-15.1329E-3
47.5238E-6	666.162E-15	199.666E-3	-16.3459E-3	538.040E-15	197.195E-3	-6.60372E-3
42.5213E-6	649.264E-15	221.694E-3	-7.36877E-3	616.697E-15	203.541E-3	-6.03391E-3
37.5188E-6	457.204E-15	227.313E-3	-14.8510E-3	432.868E-15	195.482E-3	-3.71259E-3
32.5163E-6	316.169E-15	217.331E-3	-32.2210E-3	292.156E-15	202.005E-3	-8.02077E-3
27.5138E-6	315.358E-15	202.051E-3	-32.4504E-3	307.633E-15	214.978E-3	-15.3253E-3
22.5113E-6	349.328E-15	200.654E-3	-18.4106E-3	258.674E-15	215.505E-3	-9.35981E-3
17.5088E-6	144.172E-15	220.222E-3	-11.3412E-3	126.960E-15	207.197E-3	-3.00114E-3
12.5063E-6	-13.3339E-15	227.960E-3	-12.4007E-3	61.0592E-15	206.633E-3	-10.7914E-3
7.50375E-6	58.9230E-15	209.893E-3	-19.8703E-3	84.6973E-15	216.751E-3	-18.0866E-3
2.50125E-6	30.9340E-15	201.779E-3	-22.7087E-3	-37.8177E-15	225.854E-3	-17.0426E-3
-2.50125E-6	-165.869E-15	215.945E-3	-14.6936E-3	-170.369E-15	228.845E-3	-7.66042E-3
-7.50375E-6	-252.661E-15	234.309E-3	-13.6138E-3	-254.083E-15	230.247E-3	-2.58062E-3
-12.5063E-6	-211.785E-15	242.985E-3	-16.1509E-3	-181.835E-15	240.465E-3	-15.2927E-3
-17.5088E-6	-271.024E-15	232.062E-3	-12.9197E-3	-344.624E-15	248.422E-3	-32.5014E-3
-22.5113E-6	-447.765E-15	216.191E-3	-11.0051E-3	-567.376E-15	241.524E-3	-40.0350E-3
-27.5138E-6	-560.314E-15	215.903E-3	-11.3120E-3	-542.884E-15	240.550E-3	-30.4122E-3
-32.5163E-6	-484.325E-15	220.945E-3	-5.95952E-3	-499.296E-15	249.026E-3	-15.7493E-3
-37.5188E-6	-618.524E-15	222.110E-3	-7.44495E-3	-633.721E-15	247.733E-3	-11.9556E-3
-42.5213E-6	-795.613E-15	225.648E-3	-16.1722E-3	-867.913E-15	252.082E-3	-13.3818E-3
-47.5238E-6	-886.520E-15	223.648E-3	-20.1403E-3	-901.692E-15	256.267E-3	-20.2550E-3
-52.5263E-6	-885.840E-15	221.072E-3	-19.8159E-3	-805.832E-15	254.010E-3	-26.6066E-3
-57.5288E-6	-997.360E-15	229.837E-3	-14.8844E-3	-976.120E-15	266.850E-3	-29.5335E-3
-62.5313E-6	-1.21540E-12	242.595E-3	-13.5914E-3	-1.21096E-12	278.779E-3	-34.8090E-3
-67.5338E-6	-1.32113E-12	259.423E-3	-21.1163E-3	-1.23068E-12	282.384E-3	-30.8087E-3
-72.5363E-6	-1.25504E-12	272.019E-3	-27.3740E-3	-1.19898E-12	301.507E-3	-23.1988E-3
-77.5388E-6	-1.48325E-12	282.491E-3	-24.4060E-3	-1.39553E-12	322.113E-3	-22.5210E-3
-82.5413E-6	-1.64865E-12	295.052E-3	-22.4043E-3	-1.59789E-12	324.714E-3	-13.1495E-3
-87.5438E-6	-1.61674E-12	310.596E-3	-23.6248E-3	-1.59877E-12	332.910E-3	-831.587E-6
-92.5463E-6	-1.63125E-12	327.812E-3	-28.5511E-3	-1.67769E-12	348.079E-3	-8.15263E-3
-97.5488E-6	-1.85598E-12	323.614E-3	-41.4432E-3	-1.85539E-12	360.182E-3	-19.8976E-3
-102.551E-6	-2.02133E-12	318.780E-3	-44.3483E-3	-2.02485E-12	373.617E-3	-15.6869E-3
-107.554E-6	-2.00051E-12	334.171E-3	-30.1205E-3	-2.05738E-12	383.878E-3	-13.9826E-3
-112.556E-6	-2.04378E-12	345.371E-3	-21.4726E-3	-2.21730E-12	390.507E-3	-22.0087E-3
-117.559E-6	-2.36553E-12	354.276E-3	-21.8017E-3	-2.44038E-12	399.300E-3	-18.0374E-3
-122.561E-6	-2.52350E-12	365.418E-3	-19.0952E-3	-2.48397E-12	412.946E-3	-12.0440E-3
-127.564E-6	-2.52051E-12	361.758E-3	-18.8910E-3	-2.53030E-12	423.647E-3	-18.0793E-3
-132.566E-6	-2.63472E-12	357.800E-3	-27.7011E-3	-2.79384E-12	438.045E-3	-17.8628E-3
-137.569E-6	-2.93205E-12	370.034E-3	-30.8337E-3	-3.01201E-12	462.807E-3	-9.28586E-3
-142.571E-6	-3.22940E-12	395.045E-3	-19.3616E-3	-3.02296E-12	470.386E-3	-11.1632E-3
-147.574E-6	-3.18193E-12	419.631E-3	-7.51835E-3	-3.03630E-12	471.267E-3	-25.0795E-3
-152.576E-6	-3.26536E-12	428.680E-3	-2.13744E-3	-3.35168E-12	487.162E-3	-36.6452E-3
-157.579E-6	-3.56910E-12	437.073E-3	2.82460E-3	-3.61577E-12	500.470E-3	-34.1008E-3
-162.581E-6	-3.81835E-12	459.530E-3	4.65040E-3	-3.61699E-12	511.973E-3	-24.2497E-3
-167.584E-6	-3.95556E-12	487.558E-3	-3.35488E-3	-3.65080E-12	520.814E-3	-22.5862E-3
-172.586E-6	-4.00338E-12	505.577E-3	-21.7746E-3	-3.90693E-12	516.680E-3	-20.4771E-3
-177.589E-6	-4.28204E-12	508.348E-3	-36.8906E-3	-4.32242E-12	517.396E-3	-10.4584E-3
-182.591E-6	-4.40340E-12	506.859E-3	-28.7696E-3	-4.29453E-12	535.156E-3	-14.3574E-3
-187.594E-6	-4.55592E-12	513.681E-3	-9.61980E-3	-4.24588E-12	554.671E-3	-23.6672E-3
-192.596E-6	-4.55955E-12	527.369E-3	-162.197E-6	-4.53080E-12	559.213E-3	-15.1416E-3
-197.599E-6	-4.79197E-12	535.809E-3	1.40182E-3	-4.82278E-12	568.546E-3	-14.3925E-3
-202.601E-6	-4.87809E-12	535.638E-3	-2.32698E-3	-4.93532E-12	595.720E-3	-30.5444E-3
-207.604E-6	-5.02887E-12	545.834E-3	73.7740E-6	-4.95470E-12	609.520E-3	-29.6020E-3
-212.606E-6	-5.43849E-12	572.134E-3	3.00080E-3	-5.23313E-12	606.108E-3	-9.77163E-3
-217.609E-6	-5.67831E-12	590.772E-3	-5.44420E-3	-5.56203E-12	603.288E-3	-2.55311E-3
-222.611E-6	-5.72362E-12	596.757E-3	-18.2431E-3	-5.66596E-12	611.661E-3	-3.86725E-3
-227.614E-6	-5.86407E-12	603.271E-3	-25.4288E-3	-5.80158E-12	635.164E-3	-11.7734E-3
-232.616E-6	-6.31229E-12	606.328E-3	-18.3424E-3	-6.24239E-12	659.173E-3	-26.4231E-3
-237.619E-6	-6.67657E-12	609.484E-3	-11.9442E-3	-6.44343E-12	674.278E-3	-25.4906E-3
-242.621E-6	-6.69939E-12	633.637E-3	-13.6015E-3	-6.66003E-12	686.464E-3	-16.3438E-3
-247.624E-6	-6.81109E-12	664.087E-3	-16.9436E-3	-6.86753E-12	696.554E-3	-17.1282E-3
-252.626E-6	-7.27575E-12	667.169E-3	-19.1662E-3	-7.24155E-12	707.608E-3	-15.1775E-3
-257.629E-6	-7.68758E-12	666.172E-3	-16.8731E-3	-7.54389E-12	723.502E-3	-8.62573E-3
-262.631E-6	-7.61570E-12	689.105E-3	-13.8271E-3	-7.61014E-12	732.005E-3	-11.6380E-3
-267.634E-6	-7.66639E-12	714.425E-3	-10.1645E-3	-7.96516E-12	732.668E-3	-15.7373E-3
-272.636E-6	-8.12711E-12	720.200E-3	-9.74467E-3	-8.40096E-12	741.544E-3	-17.8840E-3
-277.639E-6	-8.51934E-12	720.124E-3	-16.5091E-3	-8.45303E-12	750.233E-3	-15.3729E-3
-282.641E-6	-8.50943E-12	728.931E-3	-21.8169E-3	-8.38095E-12	752.015E-3	-14.7758E-3
-287.644E-6	-8.64083E-12	744.613E-3	-26.2379E-3	-8.71148E-12	760.687E-3	-20.0024E-3
-292.646E-6	-9.04852E-12	755.523E-3	-20.6335E-3	-9.15616E-12	760.246E-3	-20.3064E-3
-297.649E-6	-9.27464E-12	745.632E-3	-11.3238E-3	-9.17305E-12	753.358E-3	-14.0028E-3
-302.651E-6	-9.32359E-12	738.450E-3	-19.0274E-3	-9.15951E-12	769.223E-3	-10.2272E-3
-307.654E-6	-9.46486E-12	752.653E-3	-19.4184E-3	-9.43844E-12	792.134E-3	-14.2156E-3
-312.656E-6	-9.88942E-12	763.823E-3	-12.3925E-3	-10.0046E-12	794.320E-3	-3.96001E-3
-317.659E-6	-10.3704E-12	767.078E-3	-13.9987E-3	-10.1460E-12	790.229E-3	4.55739E-3
-322.661E-6	-10.4243E-12	778.082E-3	-10.4909E-3	-10.2343E-12	803.378E-3	-14.7484E-3
-327.664E-6	-10.6202E-12	792.930E-3	-9.84788E-3	-10.6412E-12	807.086E-3	-32.5924E-3
-332.666E-6	-10.9032E-12	798.772E-3	-15.3719E-3	-11.1466E-12	798.894E-3	-25.5204E-3
-337.669E-6	-11.3043E-12	793.122E-3	-10.9157E-3	-11.6143E-12	810.171E-3	-18.3983E-3
-342.671E-6	-11.3209E-12	791.571E-3	-645.979E-6	-11.7256E-12	823.326E-3	-18.3612E-3
-347.674E-6	-11.5981E-12	803.624E-3	-48.8196E-6	-11.8406E-12	826.435E-3	-11.1901E-3
-352.676E-6	-11.9646E-12	808.837E-3	-6.14989E-3	-12.2933E-12	817.351E-3	-18.4902E-3
-357.679E-6	-12.1032E-12	787.912E-3	-5.98249E-3	-12.7622E-12	791.402E-3	-29.9460E-3
-362.681E-6	-12.4250E-12	773.252E-3	526.524E-6	-13.1054E-12	781.198E-3	-23.6240E-3
-367.684E-6	-12.9716E-12	787.385E-3	-6.04791E-3	-12.9586E-12	789.501E-3	-23.8850E-3
-372.686E-6	-13.5717E-12	800.091E-3	-19.3772E-3	-13.0753E-12	792.881E-3	-33.9161E-3
-377.689E-6	-13.6208E-12	811.288E-3	-22.0483E-3	-13.3129E-12	784.427E-3	-33.3818E-3
-382.691E-6	-14.0740E-12	826.197E-3	-20.8806E-3	-13.8809E-12	768.233E-3	-31.1546E-3
-387.694E-6	-14.7941E-12	828.586E-3	-11.1163E-3	-14.0061E-12	769.903E-3	-28.4503E-3
-392.696E-6	-15.0577E-12	839.553E-3	-4.15560E-3	-13.7899E-12	785.024E-3	-22.4302E-3
-397.699E-6	-15.2212E-12	865.549E-3	-5.48937E-3	-14.0391E-12	783.478E-3	-31.4726E-3
-402.701E-6	-15.3589E-12	867.407E-3	-3.59261E-3	-14.6234E-12	772.465E-3	-32.9012E-3
-407.704E-6	-15.6383E-12	848.251E-3	-6.02595E-3	-15.2677E-12	788.050E-3	-12.7710E-3
-412.706E-6	-15.8505E-12	836.302E-3	-15.6854E-3	-15.0826E-12	814.696E-3	-4.62905E-3
-417.709E-6	-16.0707E-12	829.308E-3	-22.3351E-3	-15.2174E-12	802.326E-3	-3.92406E-3
-422.711E-6	-16.0930E-12	824.246E-3	-15.2977E-3	-15.8573E-12	761.775E-3	1.05194E-3
-427.714E-6	-16.2510E-12	816.451E-3	-13.7143E-3	-16.6991E-12	743.234E-3	-4.37987E-3
-432.716E-6	-16.4011E-12	800.569E-3	-21.9524E-3	-16.6531E-12	748.857E-3	-9.87985E-3
-437.719E-6	-16.6091E-12	784.281E-3	-17.4924E-3	-16.3629E-12	761.498E-3	-8.96632E-3
-442.721E-6	-16.7542E-12	778.167E-3	-11.0400E-3	-16.7455E-12	773.341E-3	-16.2777E-3
-447.724E-6	-16.9603E-12	784.582E-3	-16.5756E-3	-17.4556E-12	762.022E-3	-22.5363E-3
-452.726E-6	-17.2832E-12	780.921E-3	-26.1275E-3	-17.8347E-12	730.533E-3	-22.7033E-3
-457.729E-6	-17.2450E-12	756.633E-3	-23.7195E-3	-17.3637E-12	713.648E-3	-32.6658E-3
-462.731E-6	-17.7481E-12	736.015E-3	-7.89160E-3	-17.4721E-12	712.093E-3	-32.6939E-3
-467.734E-6	-17.9671E-12	716.227E-3	1.20101E-3	-17.7736E-12	696.086E-3	-16.5509E-3
-472.736E-6	-18.4457E-12	700.471E-3	-9.15618E-3	-18.1247E-12	672.650E-3	-12.1541E-3
-477.739E-6	-18.6551E-12	702.785E-3	-25.0891E-3	-18.2089E-12	661.493E-3	-13.0970E-3
-482.741E-6	-19.2140E-12	702.606E-3	-31.1902E-3	-17.9170E-12	661.684E-3	-6.63389E-3
-487.744E-6	-19.6584E-12	695.969E-3	-31.9526E-3	-18.2579E-12	655.261E-3	-1.12210E-3
-492.746E-6	-19.7101E-12	696.618E-3	-25.0459E-3	-18.8113E-12	631.992E-3	-5.43955E-3
-497.749E-6	-19.8826E-12	697.260E-3	-12.2266E-3	-19.4284E-12	613.175E-3	-9.82657E-3
-502.751E-6	-20.3779E-12	698.237E-3	-11.8774E-3	-19.2876E-12	620.802E-3	-13.1898E-3
-507.754E-6	-20.6731E-12	699.776E-3	-17.5596E-3	-19.5735E-12	628.261E-3	-23.0427E-3
-512.756E-6	-20.6053E-12	692.624E-3	-12.3422E-3	-19.9748E-12	619.142E-3	-20.5080E-3
-517.759E-6	-20.1620E-12	677.032E-3	-1.75879E-3	-20.9812E-12	615.182E-3	-9.44718E-3
-522.761E-6	-20.4802E-12	654.156E-3	5.60712E-3	-21.2094E-12	610.281E-3	-11.2161E-3
-527.764E-6	-21.1342E-12	633.716E-3	-807.670E-6	-21.1310E-12	597.610E-3	-13.4174E-3
-532.766E-6	-20.8883E-12	621.235E-3	-15.3951E-3	-21.1149E-12	591.654E-3	-13.1454E-3
-537.769E-6	-20.7755E-12	608.774E-3	-11.4386E-3	-21.5399E-12	582.323E-3	-22.2754E-3
-542.771E-6	-21.1531E-12	590.443E-3	7.79075E-3	-22.1084E-12	557.603E-3	-27.8198E-3
-547.774E-6	-21.3834E-12	580.143E-3	12.9250E-3	-21.5590E-12	538.234E-3	-22.0753E-3
-552.776E-6	-21.7357E-12	582.900E-3	-7.05191E-3	-21.5826E-12	524.337E-3	-24.4453E-3
-557.779E-6	-21.7777E-12	577.662E-3	-29.8808E-3	-21.8208E-12	502.021E-3	-32.7669E-3
-562.781E-6	-22.2708E-12	567.519E-3	-30.0602E-3	-22.5275E-12	484.339E-3	-28.1731E-3
-567.784E-6	-22.3934E-12	557.517E-3	-11.6252E-3	-22.3520E-12	474.971E-3	-23.0201E-3
-572.786E-6	-22.8151E-12	537.748E-3	-7.83649E-3	-22.0720E-12	467.226E-3	-24.8660E-3
-577.789E-6	-23.1338E-12	521.534E-3	-22.2616E-3	-22.4394E-12	459.336E-3	-25.2323E-3
-582.791E-6	-23.8671E-12	512.803E-3	-29.0811E-3	-22.9143E-12	450.089E-3	-26.6789E-3
-587.794E-6	-23.6383E-12	500.627E-3	-25.8246E-3	-22.9812E-12	438.779E-3	-27.0146E-3
-592.796E-6	-23.3712E-12	485.210E-3	-20.0089E-3	-22.5975E-12	437.737E-3	-26.3535E-3
-597.799E-6	-23.6095E-12	466.016E-3	-14.5925E-3	-23.4789E-12	430.840E-3	-36.2245E-3
-602.801E-6	-24.0391E-12	440.220E-3	-7.13326E-3	-24.1169E-12	398.226E-3	-40.4580E-3
-607.804E-6	-24.1079E-12	427.243E-3	-5.93233E-3	-24.2300E-12	379.472E-3	-18.1275E-3
-612.806E-6	-23.4686E-12	435.782E-3	-14.2810E-3	-23.6270E-12	385.442E-3	-3.72836E-3
-617.809E-6	-23.4741E-12	423.093E-3	-21.6278E-3	-23.9545E-12	373.141E-3	-12.3267E-3
-622.811E-6	-23.9174E-12	390.456E-3	-24.2059E-3	-24.6039E-12	347.855E-3	-20.8490E-3
-627.814E-6	-24.1871E-12	384.026E-3	-19.8988E-3	-24.8551E-12	340.731E-3	-26.3205E-3
-632.816E-6	-23.5473E-12	392.851E-3	-18.0241E-3	-24.3723E-12	341.961E-3	-27.1993E-3
-637.819E-6	-23.9812E-12	387.745E-3	-31.1578E-3	-24.3742E-12	340.608E-3	-27.2043E-3
-642.821E-6	-24.3519E-12	370.031E-3	-41.6839E-3	-25.0327E-12	337.619E-3	-27.7806E-3
-647.824E-6	-24.5484E-12	348.986E-3	-37.2950E-3	-25.3057E-12	327.521E-3	-27.5248E-3
-652.826E-6	-24.5146E-12	328.032E-3	-34.4043E-3	-24.9484E-12	313.199E-3	-25.5584E-3
-657.829E-6	-25.0035E-12	312.153E-3	-30.0488E-3	-24.9415E-12	305.342E-3	-12.7197E-3
-662.831E-6	-25.4110E-12	308.870E-3	-22.5422E-3	-25.3184E-12	291.684E-3	-31.2497E-6
-667.834E-6	-25.6513E-12	307.902E-3	-17.0800E-3	-26.3821E-12	269.369E-3	1.34248E-3
-672.836E-6	-26.0441E-12	307.009E-3	-15.6358E-3	-26.0068E-12	261.731E-3	-6.55578E-3
-677.839E-6	-26.1024E-12	309.368E-3	-18.4652E-3	-25.8535E-12	256.539E-3	-23.1941E-3
-682.841E-6	-26.2070E-12	301.309E-3	-12.8992E-3	-25.8819E-12	240.407E-3	-28.7362E-3
-687.844E-6	-26.7927E-12	290.403E-3	-7.00698E-3	-26.4383E-12	228.860E-3	-26.8232E-3
-692.846E-6	-26.4471E-12	282.465E-3	-10.1339E-3	-26.0750E-12	215.744E-3	-33.2425E-3
-697.849E-6	-26.5100E-12	264.986E-3	-14.8171E-3	-26.3691E-12	209.020E-3	-27.5378E-3
-702.851E-6	-26.2447E-12	250.078E-3	-21.4284E-3	-26.3436E-12	213.932E-3	-12.7997E-3
-707.854E-6	-26.2965E-12	251.286E-3	-26.1908E-3	-26.0800E-12	204.019E-3	-14.0364E-3
-712.856E-6	-25.9943E-12	238.826E-3	-31.5746E-3	-26.6463E-12	189.152E-3	-19.9042E-3
-717.859E-6	-26.5705E-12	210.308E-3	-36.9097E-3	-26.7364E-12	193.129E-3	-17.7219E-3
-722.861E-6	-26.3660E-12	203.066E-3	-31.9940E-3	-26.6709E-12	201.828E-3	-19.9450E-3
-727.864E-6	-25.9431E-12	202.541E-3	-33.6904E-3	-26.1213E-12	191.116E-3	-23.3855E-3
-732.866E-6	-26.1434E-12	192.708E-3	-35.4378E-3	-26.3443E-12	168.855E-3	-27.5319E-3
-737.869E-6	-26.8410E-12	190.545E-3	-15.7663E-3	-26.2942E-12	159.705E-3	-33.6231E-3
-742.871E-6	-26.8428E-12	194.639E-3	-2.05766E-3	-26.5894E-12	158.548E-3	-31.6294E-3
-747.874E-6	-26.0627E-12	187.726E-3	583.923E-6	-27.0422E-12	154.975E-3	-21.4914E-3
-752.876E-6	-26.6770E-12	170.600E-3	9.85092E-3	-26.4793E-12	148.952E-3	-20.0994E-3
-757.879E-6	-26.9700E-12	158.687E-3	8.43952E-3	-26.6744E-12	137.952E-3	-23.2126E-3
-762.881E-6	-27.0873E-12	155.002E-3	-7.37872E-3	-26.8915E-12	125.188E-3	-14.8913E-3
-767.884E-6	-26.5482E-12	151.322E-3	-9.28009E-3	-27.0050E-12	113.831E-3	-16.3294E-3
-772.886E-6	-26.7243E-12	141.099E-3	1.48330E-3	-26.9287E-12	108.666E-3	-26.9084E-3
-777.889E-6	-26.4944E-12	132.956E-3	4.55362E-3	-26.6792E-12	118.754E-3	-32.0517E-3
-782.891E-6	-26.5828E-12	137.828E-3	5.34985E-3	-26.7200E-12	127.412E-3	-27.2120E-3
-787.894E-6	-27.2052E-12	140.045E-3	3.28183E-3	-26.6191E-12	121.277E-3	-9.54421E-3
-792.896E-6	-27.2307E-12	127.135E-3	-7.40221E-3	-26.9136E-12	119.075E-3	-945.679E-6
-797.899E-6	-26.9191E-12	117.784E-3	-15.9686E-3	-26.8143E-12	122.900E-3	-11.5845E-3
-802.901E-6	-26.8261E-12	118.159E-3	-20.8272E-3	-26.2840E-12	113.343E-3	-19.4556E-3
-807.904E-6	-27.4827E-12	114.134E-3	-30.4762E-3	-26.1743E-12	100.204E-3	-16.9594E-3
-812.906E-6	-27.5000E-12	107.200E-3	-36.2772E-3	-27.0300E-12	100.348E-3	-17.4800E-3
-817.909E-6	-27.1475E-12	103.533E-3	-32.1034E-3	-27.2148E-12	105.639E-3	-22.9639E-3
-822.911E-6	-27.0521E-12	96.2360E-3	-29.9503E-3	-26.5121E-12	109.471E-3	-25.6309E-3
-827.914E-6	-27.3615E-12	88.3684E-3	-25.2701E-3	-26.3205E-12	111.827E-3	-27.0924E-3
-832.916E-6	-27.6889E-12	98.5704E-3	-16.5369E-3	-26.9341E-12	110.434E-3	-27.7341E-3
-837.919E-6	-27.0278E-12	121.786E-3	-17.7481E-3	-27.8147E-12	101.092E-3	-20.1160E-3
-842.921E-6	-26.7927E-12	132.836E-3	-22.2796E-3	-27.6579E-12	95.6783E-3	-13.3886E-3
-847.924E-6	-26.8256E-12	123.543E-3	-14.2177E-3	-27.9189E-12	101.458E-3	-14.7566E-3
-852.926E-6	-27.3776E-12	98.3098E-3	-6.70025E-3	-28.0012E-12	108.488E-3	-15.4036E-3
-857.929E-6	-27.0448E-12	82.2322E-3	-8.17505E-3	-28.9132E-12	111.293E-3	-19.6453E-3
-862.931E-6	-26.7418E-12	87.6098E-3	-8.21075E-3	-28.2202E-12	109.769E-3	-26.0070E-3
-867.934E-6	-26.6953E-12	98.2662E-3	-14.5702E-3	-28.3139E-12	109.998E-3	-25.3675E-3
-872.936E-6	-27.0408E-12	95.8419E-3	-14.8374E-3	-28.3990E-12	111.636E-3	-28.3666E-3
-877.939E-6	-26.9954E-12	84.3383E-3	213.510E-6	-28.2595E-12	99.9483E-3	-29.2641E-3
-882.941E-6	-26.9385E-12	83.3162E-3	4.07463E-3	-28.1224E-12	83.0071E-3	-15.6294E-3
-887.944E-6	-27.3224E-12	90.5982E-3	-12.9207E-3	-27.9921E-12	78.1196E-3	-7.54537E-3
-892.946E-6	-27.3635E-12	90.0438E-3	-28.7733E-3	-27.8188E-12	78.7245E-3	-5.76461E-3
-897.949E-6	-27.6904E-12	83.2942E-3	-26.1553E-3	-27.2622E-12	73.3954E-3	-6.25685E-3
-902.951E-6	-27.4887E-12	77.1058E-3	-20.6370E-3	-27.3453E-12	75.0019E-3	-14.7065E-3
-907.954E-6	-27.1879E-12	76.4001E-3	-21.0174E-3	-27.0696E-12	84.6582E-3	-14.7036E-3
-912.956E-6	-27.3488E-12	78.1129E-3	-14.6883E-3	-27.1210E-12	90.6149E-3	-14.1690E-3
-917.959E-6	-27.8190E-12	70.5023E-3	-1.98112E-3	-26.9822E-12	93.3229E-3	-17.8099E-3
-922.961E-6	-27.9632E-12	66.6551E-3	3.66570E-3	-26.5314E-12	88.2441E-3	-13.7801E-3
-927.964E-6	-28.0072E-12	75.8387E-3	-5.94809E-3	-27.2779E-12	84.8638E-3	-12.0931E-3
-932.966E-6	-27.8909E-12	83.2262E-3	-19.3325E-3	-27.1800E-12	93.9951E-3	-15.6123E-3
-937.969E-6	-27.6292E-12	88.2942E-3	-19.8029E-3	-27.2882E-12	96.9442E-3	-20.6929E-3
-942.971E-6	-27.6218E-12	85.5073E-3	-12.7245E-3	-27.2485E-12	92.9894E-3	-27.5672E-3
-947.974E-6	-28.2897E-12	86.2350E-3	-14.7850E-3	-27.8824E-12	109.355E-3	-33.2065E-3
-952.976E-6	-28.5914E-12	96.0625E-3	-11.1631E-3	-28.2333E-12	128.234E-3	-32.6404E-3
-957.979E-6	-27.6863E-12	96.2025E-3	-1.08464E-3	-28.0863E-12	122.113E-3	-16.4028E-3
-962.981E-6	-27.0643E-12	112.269E-3	-7.59308E-3	-28.4718E-12	114.240E-3	-1.66909E-3
-967.984E-6	-27.4413E-12	140.145E-3	-17.4572E-3	-28.5622E-12	118.342E-3	-15.1213E-3
-972.986E-6	-28.0073E-12	135.217E-3	-17.1772E-3	-28.2154E-12	117.089E-3	-28.6371E-3
-977.989E-6	-28.2380E-12	119.463E-3	-16.2282E-3	-28.2082E-12	111.118E-3	-20.2376E-3
-982.991E-6	-28.0413E-12	110.969E-3	-12.2812E-3	-28.5980E-12	106.146E-3	-5.08200E-3
-987.994E-6	-28.0743E-12	103.196E-3	-2.63569E-3	-28.5969E-12	107.642E-3	4.79039E-3
-992.997E-6	-28.3011E-12	116.807E-3	-5.60976E-3	-28.1465E-12	127.422E-3	-2.43184E-3
-997.999E-6	-28.8787E-12	134.416E-3	-11.2715E-3	-28.4866E-12	149.463E-3	-7.88887E-3
-1.00300E-3	-29.0113E-12	129.146E-3	-6.71225E-3	-28.6087E-12	153.905E-3	-5.40111E-3
-1.00800E-3	-28.6952E-12	121.432E-3	-10.6334E-3	-28.3248E-12	153.541E-3	-19.8104E-3
-1.01301E-3	-28.7103E-12	125.586E-3	-22.5839E-3	-28.1895E-12	152.142E-3	-40.1228E-3
-1.01801E-3	-29.2312E-12	134.779E-3	-26.9065E-3	-28.1379E-12	151.302E-3	-34.5265E-3
-1.02301E-3	-29.5006E-12	138.369E-3	-27.2421E-3	-28.7956E-12	155.516E-3	-9.33564E-3
-1.02801E-3	-28.5978E-12	139.193E-3	-35.7476E-3	-29.3595E-12	161.512E-3	723.415E-6
-1.03302E-3	-28.3822E-12	143.930E-3	-42.0469E-3	-29.1486E-12	176.455E-3	-8.29847E-3
-1.03802E-3	-28.6842E-12	139.579E-3	-36.9488E-3	-28.5818E-12	191.762E-3	-19.3619E-3
-1.04302E-3	-29.3780E-12	140.245E-3	-29.1879E-3	-28.8177E-12	197.063E-3	-17.3803E-3
-1.04802E-3	-28.9060E-12	155.912E-3	-23.4763E-3	-29.0168E-12	194.836E-3	3.42172E-3
-1.05303E-3	-28.3129E-12	168.300E-3	-22.5347E-3	-28.9382E-12	197.622E-3	18.6625E-3
-1.05803E-3	-28.5056E-12	180.068E-3	-15.8978E-3	-28.7716E-12	212.941E-3	5.80914E-3
-1.06303E-3	-29.4256E-12	186.438E-3	-11.3057E-3	-28.7786E-12	224.571E-3	-7.74411E-3
-1.06803E-3	-29.5163E-12	188.904E-3	-28.2519E-3	-28.8795E-12	224.903E-3	-4.46361E-3
-1.07304E-3	-28.6788E-12	199.688E-3	-37.1459E-3	-29.2591E-12	233.037E-3	-9.61228E-3
-1.07804E-3	-28.4485E-12	203.469E-3	-20.7188E-3	-29.2839E-12	243.978E-3	-21.0738E-3
-1.08304E-3	-29.1661E-12	199.353E-3	-14.3199E-3	-29.0744E-12	251.051E-3	-28.1933E-3
-1.08804E-3	-29.6226E-12	207.664E-3	-17.3254E-3	-29.2940E-12	265.677E-3	-31.4851E-3
-1.09305E-3	-29.4571E-12	222.902E-3	-11.1733E-3	-29.8392E-12	276.342E-3	-23.2952E-3
-1.09805E-3	-29.3543E-12	233.243E-3	-13.8163E-3	-30.1117E-12	278.917E-3	-15.4426E-3
-1.10305E-3	-29.8452E-12	243.212E-3	-16.4244E-3	-29.6098E-12	282.813E-3	-21.2103E-3
-1.10805E-3	-30.3880E-12	247.849E-3	-236.633E-6	-29.8094E-12	288.757E-3	-23.0461E-3
-1.11306E-3	-31.3126E-12	253.141E-3	7.36820E-3	-30.2151E-12	288.760E-3	-11.1530E-3
-1.11806E-3	-30.6974E-12	268.390E-3	-3.44775E-3	-30.7036E-12	296.001E-3	-6.04922E-3
-1.12306E-3	-30.1082E-12	286.105E-3	-10.2832E-3	-30.5395E-12	323.350E-3	-13.8837E-3
-1.12806E-3	-30.3967E-12	299.940E-3	-20.2423E-3	-29.9610E-12	341.003E-3	-20.1779E-3
-1.13307E-3	-31.1994E-12	308.451E-3	-36.9623E-3	-29.9348E-12	333.545E-3	-21.1651E-3
-1.13807E-3	-31.3738E-12	317.854E-3	-41.8720E-3	-30.9238E-12	341.300E-3	-19.2029E-3
-1.14307E-3	-30.6199E-12	320.564E-3	-29.4254E-3	-31.0604E-12	374.442E-3	-10.5207E-3
-1.14807E-3	-30.2754E-12	327.100E-3	-15.3495E-3	-30.4688E-12	401.437E-3	4.93154E-3
-1.15308E-3	-30.7235E-12	342.846E-3	-14.9800E-3	-30.5731E-12	415.014E-3	13.6524E-3
-1.15808E-3	-31.4808E-12	343.785E-3	-21.4699E-3	-31.5981E-12	417.088E-3	5.42323E-3
-1.16308E-3	-30.9972E-12	345.310E-3	-18.9769E-3	-31.5552E-12	415.625E-3	-6.49480E-3
-1.16808E-3	-30.4865E-12	369.570E-3	-11.1027E-3	-31.1269E-12	426.853E-3	-9.89306E-3
-1.17309E-3	-30.6518E-12	394.092E-3	-15.1935E-3	-31.2443E-12	449.597E-3	-10.9643E-3
-1.17809E-3	-31.1879E-12	397.803E-3	-22.7503E-3	-31.8069E-12	476.529E-3	-15.2303E-3
-1.18309E-3	-31.5308E-12	399.740E-3	-18.8280E-3	-32.2027E-12	498.477E-3	-23.4318E-3
-1.18809E-3	-30.9681E-12	415.859E-3	-10.9258E-3	-32.5349E-12	513.191E-3	-27.5799E-3
-1.19310E-3	-31.2942E-12	439.410E-3	-6.52376E-3	-32.7329E-12	525.993E-3	-21.1645E-3
-1.19810E-3	-31.8588E-12	467.381E-3	-1.14878E-3	-32.7211E-12	535.097E-3	-11.0170E-3
-1.20310E-3	-32.8352E-12	491.044E-3	2.06275E-3	-32.8566E-12	548.349E-3	-12.0275E-3
-1.20810E-3	-32.4859E-12	494.598E-3	-4.16963E-3	-32.9128E-12	560.191E-3	-17.3366E-3
-1.21311E-3	-32.3493E-12	497.447E-3	-10.0125E-3	-32.9749E-12	559.103E-3	-9.67822E-3
-1.21811E-3	-32.3436E-12	514.812E-3	-3.85511E-3	-32.7418E-12	566.090E-3	-11.2165E-3
-1.22311E-3	-33.2248E-12	533.666E-3	6.27032E-3	-33.0314E-12	586.777E-3	-29.0884E-3
-1.22811E-3	-33.6650E-12	550.489E-3	4.44613E-3	-32.6396E-12	596.510E-3	-25.7114E-3
-1.23312E-3	-32.9987E-12	569.286E-3	-11.9527E-3	-32.4939E-12	599.733E-3	-7.99300E-3
-1.23812E-3	-33.2152E-12	591.510E-3	-22.3373E-3	-32.6228E-12	613.470E-3	-8.10982E-3
-1.24312E-3	-33.3983E-12	603.196E-3	-23.6411E-3	-32.8869E-12	638.892E-3	-8.66107E-3
-1.24812E-3	-33.9186E-12	598.621E-3	-29.0162E-3	-33.2476E-12	663.051E-3	2.58854E-3
-1.25313E-3	-34.2615E-12	601.082E-3	-37.5908E-3	-33.1483E-12	686.308E-3	2.92065E-3
-1.25813E-3	-34.4670E-12	622.144E-3	-38.5870E-3	-33.6810E-12	712.444E-3	-10.4001E-3
-1.26313E-3	-34.3337E-12	640.694E-3	-18.7814E-3	-33.6786E-12	726.620E-3	-21.3802E-3
-1.26813E-3	-34.4916E-12	649.787E-3	836.094E-6	-34.5663E-12	742.818E-3	-25.3786E-3
-1.27314E-3	-35.1980E-12	671.001E-3	-329.956E-6	-34.6447E-12	772.335E-3	-24.4635E-3
-1.27814E-3	-35.3392E-12	703.275E-3	-6.22151E-3	-35.1559E-12	793.223E-3	-14.0304E-3
-1.28314E-3	-35.0634E-12	721.051E-3	-8.78063E-3	-35.6431E-12	804.730E-3	3.69846E-3
-1.28814E-3	-35.4176E-12	722.269E-3	1.61859E-3	-35.9336E-12	806.614E-3	6.67297E-3
-1.29315E-3	-36.6486E-12	732.708E-3	9.81418E-3	-36.2399E-12	814.959E-3	-10.1348E-3
-1.29815E-3	-36.7768E-12	753.462E-3	-13.8118E-3	-36.5994E-12	838.421E-3	-27.7643E-3
-1.30315E-3	-36.2977E-12	775.326E-3	-29.0225E-3	-37.1261E-12	844.444E-3	-32.9283E-3
-1.30815E-3	-36.3414E-12	792.880E-3	-12.5607E-3	-37.0120E-12	847.696E-3	-22.7505E-3
-1.31316E-3	-36.9592E-12	788.262E-3	-3.56345E-3	-37.1310E-12	863.947E-3	-7.93640E-3
-1.31816E-3	-37.2657E-12	789.117E-3	-1.29170E-3	-37.0257E-12	879.276E-3	-6.41417E-3
-1.32316E-3	-36.8084E-12	810.338E-3	14.5143E-3	-37.0321E-12	899.734E-3	-19.7694E-3
-1.32816E-3	-36.8518E-12	827.890E-3	13.3948E-3	-37.1648E-12	906.090E-3	-34.0297E-3
-1.33317E-3	-37.2314E-12	843.741E-3	-13.7931E-3	-37.5437E-12	895.065E-3	-32.6763E-3
-1.33817E-3	-37.6475E-12	854.563E-3	-29.4329E-3	-37.4674E-12	899.441E-3	-16.0028E-3
-1.34317E-3	-38.0280E-12	861.282E-3	-25.9351E-3	-37.3626E-12	919.022E-3	-12.4020E-3
-1.34817E-3	-38.6284E-12	871.876E-3	-13.2597E-3	-37.9525E-12	935.365E-3	-21.6009E-3
-1.35318E-3	-39.1073E-12	882.793E-3	-3.25784E-3	-37.8759E-12	945.742E-3	-20.8233E-3
-1.35818E-3	-39.3967E-12	896.180E-3	-6.32960E-3	-38.4205E-12	958.384E-3	-14.4330E-3
-1.36318E-3	-40.1323E-12	912.354E-3	-13.1048E-3	-39.1016E-12	975.030E-3	-11.0234E-3
-1.36818E-3	-40.3204E-12	930.878E-3	-17.8446E-3	-39.3198E-12	996.077E-3	-15.9355E-3
-1.37319E-3	-40.9712E-12	956.101E-3	-20.4896E-3	-39.9434E-12	1.01620E+0	-14.3521E-3
-1.37819E-3	-41.0537E-12	985.391E-3	-25.2189E-3	-40.7152E-12	1.02796E+0	-15.0814E-3
-1.38319E-3	-41.6980E-12	1.00486E+0	-25.5097E-3	-41.3455E-12	1.03749E+0	-24.9232E-3
-1.38819E-3	-41.8415E-12	1.00461E+0	-20.7394E-3	-41.6485E-12	1.04969E+0	-12.2652E-3
-1.39320E-3	-42.2847E-12	1.00193E+0	-23.5112E-3	-42.1335E-12	1.05147E+0	482.458E-6
-1.39820E-3	-42.0355E-12	1.01030E+0	-20.1265E-3	-42.0768E-12	1.04807E+0	-11.0380E-3
-1.40320E-3	-42.6947E-12	1.02472E+0	-10.1313E-3	-42.6933E-12	1.05254E+0	-17.0064E-3
-1.40820E-3	-43.6187E-12	1.04454E+0	-8.92334E-3	-43.4398E-12	1.06788E+0	-23.7847E-3
-1.41321E-3	-43.5247E-12	1.05872E+0	-11.1445E-3	-43.6730E-12	1.08380E+0	-40.4080E-3
-1.41821E-3	-43.7228E-12	1.05181E+0	-17.3987E-3	-43.5235E-12	1.08984E+0	-32.9997E-3
-1.42321E-3	-43.8994E-12	1.04116E+0	-18.2258E-3	-44.1413E-12	1.09470E+0	-12.9090E-3
-1.42821E-3	-44.3350E-12	1.04753E+0	-6.01978E-3	-44.6100E-12	1.09182E+0	-19.1444E-3
-1.43322E-3	-45.2372E-12	1.05936E+0	-1.25848E-3	-44.9891E-12	1.08894E+0	-28.7874E-3
-1.43822E-3	-45.4952E-12	1.06832E+0	-19.2092E-3	-45.0236E-12	1.08504E+0	-20.5974E-3
-1.44322E-3	-45.6251E-12	1.07769E+0	-34.4407E-3	-45.1981E-12	1.07416E+0	-22.2743E-3
-1.44822E-3	-45.4889E-12	1.08771E+0	-28.3042E-3	-45.4689E-12	1.07653E+0	-35.3618E-3
-1.45323E-3	-46.5990E-12	1.08773E+0	-24.7745E-3	-46.2126E-12	1.07961E+0	-44.6227E-3
-1.45823E-3	-47.1208E-12	1.08406E+0	-19.3269E-3	-46.6870E-12	1.08405E+0	-41.9668E-3
-1.46323E-3	-46.9748E-12	1.08700E+0	-6.70257E-3	-46.8047E-12	1.09367E+0	-27.8876E-3
-1.46823E-3	-46.7082E-12	1.09431E+0	-6.23834E-3	-47.1008E-12	1.10458E+0	-16.3806E-3
-1.47324E-3	-47.1622E-12	1.10294E+0	-8.11170E-3	-47.9497E-12	1.11908E+0	-12.9365E-3
-1.47824E-3	-47.8749E-12	1.10883E+0	-6.26628E-3	-47.8777E-12	1.11801E+0	-13.6626E-3
-1.48324E-3	-48.0291E-12	1.11007E+0	-4.35777E-3	-48.0944E-12	1.10539E+0	-7.46088E-3
-1.48824E-3	-48.1268E-12	1.10381E+0	-2.87075E-3	-48.1441E-12	1.10050E+0	-11.5688E-3
-1.49325E-3	-47.9541E-12	1.09619E+0	-4.73508E-3	-49.2502E-12	1.10720E+0	-24.8754E-3
-1.49825E-3	-48.3457E-12	1.09481E+0	-10.5730E-3	-49.6687E-12	1.11825E+0	-20.9609E-3
-1.50325E-3	-49.1809E-12	1.09925E+0	-15.1407E-3	-49.8492E-12	1.11584E+0	-16.9547E-3
-1.50825E-3	-49.2798E-12	1.10721E+0	-19.9773E-3	-49.4482E-12	1.09603E+0	-24.8437E-3
-1.51326E-3	-49.6550E-12	1.11402E+0	-32.4541E-3	-50.1510E-12	1.07979E+0	-29.4615E-3
-1.51826E-3	-50.0880E-12	1.11015E+0	-29.9809E-3	-52.0562E-12	1.09483E+0	-25.3380E-3
-1.52326E-3	-51.3048E-12	1.09763E+0	-11.1243E-3	-52.7355E-12	1.12132E+0	-23.4932E-3
-1.52826E-3	-51.8976E-12	1.09404E+0	-11.4762E-3	-51.8102E-12	1.12609E+0	-24.0232E-3
-1.53327E-3	-51.7787E-12	1.11306E+0	-23.7192E-3	-52.0977E-12	1.12201E+0	-18.2100E-3
-1.53827E-3	-52.8970E-12	1.12909E+0	-25.1725E-3	-53.3832E-12	1.11391E+0	-14.0768E-3
-1.54327E-3	-53.5237E-12	1.11875E+0	-27.0760E-3	-53.9652E-12	1.09442E+0	-20.0341E-3
-1.54827E-3	-54.2618E-12	1.10643E+0	-28.2376E-3	-53.6660E-12	1.08478E+0	-20.4239E-3
-1.55328E-3	-53.6423E-12	1.10984E+0	-26.2472E-3	-53.7504E-12	1.10141E+0	-11.9775E-3
-1.55828E-3	-54.3679E-12	1.11508E+0	-21.0323E-3	-53.9148E-12	1.10890E+0	-11.6965E-3
-1.56328E-3	-54.8375E-12	1.11570E+0	-12.0854E-3	-55.0116E-12	1.08914E+0	-17.7873E-3
-1.56828E-3	-54.6790E-12	1.11373E+0	-15.9891E-3	-55.2287E-12	1.06488E+0	-22.7191E-3
-1.57329E-3	-54.7508E-12	1.10378E+0	-24.1176E-3	-54.7445E-12	1.05948E+0	-26.6357E-3
-1.57829E-3	-55.2827E-12	1.09525E+0	-29.0332E-3	-54.9706E-12	1.06612E+0	-33.7380E-3
-1.58329E-3	-55.8279E-12	1.08728E+0	-27.6571E-3	-56.1529E-12	1.06154E+0	-41.7415E-3
-1.58829E-3	-55.7534E-12	1.07651E+0	-25.7494E-3	-56.6694E-12	1.05984E+0	-31.2230E-3
-1.59330E-3	-56.1198E-12	1.08239E+0	-33.9938E-3	-56.5969E-12	1.05905E+0	-15.5945E-3
-1.59830E-3	-56.2877E-12	1.08700E+0	-18.8729E-3	-56.6915E-12	1.05473E+0	-5.28372E-3
-1.60330E-3	-56.9483E-12	1.06997E+0	-1.61810E-3	-57.3110E-12	1.05627E+0	-1.13278E-3
-1.60830E-3	-58.0575E-12	1.06714E+0	-9.30368E-3	-58.0136E-12	1.05835E+0	-10.9865E-3
-1.61331E-3	-58.4906E-12	1.08348E+0	-5.65551E-3	-58.7022E-12	1.06724E+0	-20.6781E-3
-1.61831E-3	-58.4047E-12	1.08728E+0	1.04050E-3	-58.8716E-12	1.06815E+0	-26.1881E-3
-1.62331E-3	-58.7697E-12	1.08372E+0	-16.7869E-3	-58.9215E-12	1.05052E+0	-28.1942E-3
-1.62831E-3	-60.1558E-12	1.07394E+0	-29.0259E-3	-59.3365E-12	1.03345E+0	-24.2913E-3
-1.63332E-3	-59.8997E-12	1.05633E+0	-15.3474E-3	-60.1717E-12	1.02174E+0	-13.0067E-3
-1.63832E-3	-59.8442E-12	1.05400E+0	-8.88446E-3	-60.1864E-12	1.01424E+0	-1.98433E-3
-1.64332E-3	-60.0240E-12	1.06304E+0	-7.75440E-3	-59.8657E-12	1.00750E+0	4.10204E-3
-1.64832E-3	-60.7714E-12	1.06361E+0	5.58799E-3	-59.6827E-12	1.00152E+0	5.35201E-3
-1.65333E-3	-60.7788E-12	1.05469E+0	5.55832E-3	-60.5753E-12	989.947E-3	-6.46806E-3
-1.65833E-3	-60.8796E-12	1.04750E+0	-6.03160E-3	-60.6372E-12	970.836E-3	-16.5546E-3
-1.66333E-3	-60.1992E-12	1.04027E+0	-6.62467E-3	-60.4563E-12	964.204E-3	-7.48995E-3
-1.66833E-3	-60.3052E-12	1.01895E+0	-14.6498E-3	-60.6870E-12	972.231E-3	6.81011E-3
-1.67334E-3	-60.7454E-12	1.00369E+0	-18.9294E-3	-61.7159E-12	974.719E-3	4.12762E-3
-1.67834E-3	-61.3753E-12	1.00676E+0	-157.846E-6	-61.8380E-12	967.142E-3	-4.48564E-3
-1.68334E-3	-61.0597E-12	1.00265E+0	6.18307E-3	-62.0690E-12	976.311E-3	-10.1219E-3
-1.68834E-3	-61.3367E-12	985.623E-3	-6.68547E-3	-62.6144E-12	994.514E-3	-22.6665E-3
-1.69335E-3	-61.9600E-12	963.717E-3	-11.6438E-3	-63.5367E-12	997.678E-3	-30.4158E-3
-1.69835E-3	-62.7470E-12	951.677E-3	-2.71809E-3	-64.2113E-12	996.031E-3	-31.2629E-3
-1.70335E-3	-63.0366E-12	964.567E-3	5.06957E-3	-64.1946E-12	986.683E-3	-38.2377E-3
-1.70835E-3	-63.5974E-12	970.996E-3	-3.07608E-3	-64.6990E-12	969.334E-3	-31.4992E-3
-1.71336E-3	-64.5097E-12	950.409E-3	-29.3019E-3	-65.8004E-12	964.531E-3	-12.3712E-3
-1.71836E-3	-65.4014E-12	946.575E-3	-35.4747E-3	-66.3346E-12	973.346E-3	-9.96482E-3
-1.72336E-3	-65.7095E-12	953.097E-3	-14.5337E-3	-66.3090E-12	968.687E-3	-8.09080E-3
-1.72836E-3	-65.9325E-12	946.470E-3	-11.7253E-3	-65.7555E-12	949.694E-3	-923.950E-6
-1.73337E-3	-66.2595E-12	955.995E-3	-25.3795E-3	-66.0872E-12	940.935E-3	-4.93902E-3
-1.73837E-3	-66.2097E-12	962.471E-3	-30.2984E-3	-66.3749E-12	935.665E-3	-6.38899E-3
-1.74337E-3	-66.8363E-12	953.411E-3	-34.1414E-3	-66.8187E-12	926.578E-3	2.20513E-3
-1.74837E-3	-67.2478E-12	953.049E-3	-32.4492E-3	-66.5564E-12	924.344E-3	6.21679E-3
-1.75338E-3	-66.7098E-12	943.145E-3	-17.8079E-3	-66.6318E-12	918.462E-3	10.8317E-3
-1.75838E-3	-66.0872E-12	926.870E-3	-1.27580E-3	-66.7595E-12	898.747E-3	10.3346E-3
-1.76338E-3	-66.7840E-12	928.922E-3	6.21717E-3	-66.9772E-12	887.369E-3	-651.681E-6
-1.76838E-3	-67.5371E-12	923.783E-3	-2.25062E-3	-67.1274E-12	901.158E-3	-11.2167E-3
-1.77339E-3	-67.3027E-12	892.917E-3	-13.8963E-3	-67.5067E-12	910.820E-3	-22.0193E-3
-1.77839E-3	-67.3285E-12	874.353E-3	-22.2420E-3	-68.1548E-12	900.326E-3	-29.0176E-3
-1.78339E-3	-67.3850E-12	885.608E-3	-26.7437E-3	-68.3550E-12	891.767E-3	-26.0324E-3
-1.78839E-3	-68.7822E-12	891.521E-3	-28.6571E-3	-69.0711E-12	885.001E-3	-19.1658E-3
-1.79340E-3	-69.1811E-12	886.051E-3	-29.5815E-3	-69.5695E-12	881.669E-3	-6.66595E-3
-1.79840E-3	-68.8620E-12	890.017E-3	-19.4089E-3	-69.7238E-12	888.505E-3	2.25499E-3
-1.80340E-3	-69.3812E-12	901.405E-3	-8.04667E-3	-69.8668E-12	889.620E-3	-7.12581E-3
-1.80840E-3	-70.4162E-12	911.717E-3	-11.5331E-3	-70.4468E-12	889.103E-3	-17.9768E-3
-1.81341E-3	-71.2873E-12	912.226E-3	-16.1503E-3	-71.1464E-12	893.883E-3	-18.3805E-3
-1.81841E-3	-71.0016E-12	898.201E-3	-7.75638E-3	-71.5421E-12	894.118E-3	-12.7099E-3
-1.82341E-3	-71.2998E-12	887.239E-3	5.94264E-3	-71.9802E-12	890.640E-3	-8.23597E-3
-1.82841E-3	-72.0169E-12	891.028E-3	10.0838E-3	-71.7443E-12	884.285E-3	-14.0307E-3
-1.83342E-3	-73.2948E-12	884.517E-3	-1.10408E-3	-72.0948E-12	877.210E-3	-14.5127E-3
-1.83842E-3	-73.4040E-12	874.828E-3	-13.6457E-3	-72.3390E-12	874.482E-3	-10.2726E-3
-1.84342E-3	-72.8643E-12	889.238E-3	-10.5822E-3	-72.0587E-12	866.021E-3	-22.8241E-3
-1.84842E-3	-73.4975E-12	897.421E-3	-2.99248E-3	-71.7721E-12	849.973E-3	-26.3518E-3
-1.85343E-3	-74.7262E-12	893.066E-3	-4.62202E-3	-71.8421E-12	852.859E-3	-11.4760E-3
-1.85843E-3	-75.0220E-12	899.458E-3	-5.87928E-3	-72.7796E-12	870.084E-3	466.483E-6
-1.86343E-3	-74.4947E-12	894.822E-3	-15.5887E-3	-74.1605E-12	872.930E-3	13.6707E-3
-1.86843E-3	-74.6165E-12	881.941E-3	-36.6884E-3	-73.8334E-12	867.591E-3	17.2275E-3
-1.87344E-3	-75.3398E-12	878.070E-3	-38.5029E-3	-73.5898E-12	858.715E-3	3.75827E-3
-1.87844E-3	-75.6690E-12	872.934E-3	-21.1900E-3	-74.6409E-12	846.664E-3	-1.79367E-3
-1.88344E-3	-75.7534E-12	860.506E-3	-10.9984E-3	-75.8706E-12	839.915E-3	-5.33700E-3
-1.88844E-3	-75.3184E-12	845.786E-3	-13.4409E-3	-76.2849E-12	831.729E-3	-18.0874E-3
-1.89345E-3	-75.7350E-12	833.703E-3	-16.7128E-3	-75.2777E-12	828.593E-3	-27.9434E-3
-1.89845E-3	-75.6682E-12	822.829E-3	-20.0398E-3	-75.3256E-12	832.915E-3	-37.6521E-3
-1.90345E-3	-75.7098E-12	826.357E-3	-32.4533E-3	-76.9967E-12	833.788E-3	-42.1951E-3
-1.90845E-3	-75.2487E-12	828.201E-3	-30.1628E-3	-77.4054E-12	834.167E-3	-35.1050E-3
-1.91346E-3	-75.4157E-12	819.632E-3	823.608E-6	-76.9707E-12	829.549E-3	-22.4882E-3
-1.91846E-3	-75.3590E-12	833.261E-3	8.91469E-3	-76.6722E-12	814.037E-3	-8.58888E-3
-1.92346E-3	-75.7091E-12	844.640E-3	-14.1077E-3	-77.2002E-12	807.696E-3	-4.77751E-3
-1.92846E-3	-75.7421E-12	824.966E-3	-25.0684E-3	-78.1210E-12	812.716E-3	-4.54535E-3
-1.93347E-3	-75.3571E-12	805.774E-3	-19.4589E-3	-77.2373E-12	805.789E-3	-699.646E-6
-1.93847E-3	-76.4984E-12	797.618E-3	-13.4309E-3	-76.2946E-12	797.003E-3	15.7943E-3
-1.94347E-3	-77.1524E-12	797.068E-3	-17.4117E-3	-76.7827E-12	796.265E-3	23.3111E-3
-1.94847E-3	-78.0197E-12	804.943E-3	-18.6366E-3	-78.0476E-12	792.080E-3	-5.45558E-3
-1.95348E-3	-78.0588E-12	805.849E-3	-3.20401E-3	-77.9763E-12	782.493E-3	-28.6331E-3
-1.95848E-3	-78.6239E-12	801.826E-3	3.11234E-3	-77.6882E-12	795.956E-3	-22.2028E-3
-1.96348E-3	-79.8931E-12	795.535E-3	-14.9660E-3	-78.4581E-12	823.596E-3	-11.0851E-3
-1.96848E-3	-80.7675E-12	787.127E-3	-32.8720E-3	-79.4017E-12	816.757E-3	-14.0031E-3
-1.97349E-3	-81.2935E-12	788.563E-3	-24.5613E-3	-80.1514E-12	802.921E-3	-23.0538E-3
-1.97849E-3	-81.1350E-12	802.913E-3	-10.4347E-3	-80.4414E-12	809.628E-3	-22.5040E-3
-1.98349E-3	-81.3270E-12	807.519E-3	-11.5916E-3	-80.2650E-12	811.250E-3	-22.0832E-3
-1.98849E-3	-82.2422E-12	813.507E-3	-12.0561E-3	-81.2830E-12	810.863E-3	-38.3181E-3
-1.99350E-3	-82.6918E-12	837.297E-3	-9.99146E-3	-81.7721E-12	812.557E-3	-50.1237E-3
-1.99850E-3	-81.5417E-12	831.296E-3	-12.4140E-3	-82.2079E-12	808.298E-3	-42.4300E-3
-2.00350E-3	-81.1343E-12	789.323E-3	-20.8522E-3	-82.1451E-12	792.121E-3	-24.6979E-3
-2.00850E-3	-81.6229E-12	763.646E-3	-26.5475E-3	-83.1480E-12	783.248E-3	-8.67725E-3
-2.01351E-3	-82.0420E-12	775.063E-3	-22.8982E-3	-83.2195E-12	802.790E-3	-4.44737E-3
-2.01851E-3	-81.6573E-12	790.905E-3	-23.8695E-3	-83.5909E-12	817.744E-3	-16.6787E-3
-2.02351E-3	-81.7615E-12	786.432E-3	-24.6522E-3	-83.9673E-12	808.965E-3	-33.2403E-3
-2.02851E-3	-82.2035E-12	768.423E-3	-15.0133E-3	-84.2155E-12	789.609E-3	-33.2327E-3
-2.03352E-3	-82.9422E-12	762.224E-3	-6.44980E-3	-83.6315E-12	769.506E-3	-19.9295E-3
-2.03852E-3	-83.4919E-12	786.324E-3	-12.1955E-3	-83.7002E-12	759.603E-3	-18.1405E-3
-2.04352E-3	-84.0771E-12	802.318E-3	-29.6822E-3	-84.4672E-12	764.226E-3	-31.0073E-3
-2.04852E-3	-83.9969E-12	792.589E-3	-31.4014E-3	-84.5061E-12	773.836E-3	-39.7299E-3
-2.05353E-3	-84.5538E-12	785.209E-3	-16.2944E-3	-84.4540E-12	778.184E-3	-38.5206E-3
-2.05853E-3	-85.9253E-12	789.845E-3	-14.0546E-3	-84.1592E-12	770.771E-3	-27.9078E-3
-2.06353E-3	-86.4082E-12	789.756E-3	-25.9557E-3	-84.1753E-12	759.685E-3	-12.0712E-3
-2.06853E-3	-85.9415E-12	778.360E-3	-27.3061E-3	-84.3818E-12	765.380E-3	-8.63830E-3
-2.07354E-3	-85.5031E-12	776.814E-3	-23.5389E-3	-84.2832E-12	784.707E-3	-13.0449E-3
-2.07854E-3	-85.7456E-12	782.745E-3	-21.8198E-3	-84.4275E-12	788.517E-3	-12.6387E-3
-2.08354E-3	-86.2126E-12	786.731E-3	-17.1529E-3	-84.5040E-12	789.033E-3	-20.4093E-3
-2.08854E-3	-85.2803E-12	798.423E-3	-19.0986E-3	-84.6140E-12	794.609E-3	-28.0274E-3
-2.09355E-3	-85.1709E-12	801.089E-3	-17.4978E-3	-84.6236E-12	784.880E-3	-20.7920E-3
-2.09855E-3	-85.5079E-12	787.934E-3	-19.7439E-3	-85.3682E-12	776.917E-3	-18.8363E-3
-2.10355E-3	-85.7428E-12	778.809E-3	-36.6740E-3	-86.1766E-12	771.527E-3	-20.5907E-3
-2.10855E-3	-85.2154E-12	775.387E-3	-41.1980E-3	-86.4914E-12	762.931E-3	4.99841E-3
-2.11356E-3	-85.7395E-12	777.448E-3	-24.1326E-3	-86.6447E-12	764.755E-3	26.8261E-3
-2.11856E-3	-86.2046E-12	771.657E-3	-1.90372E-3	-87.8071E-12	778.795E-3	11.1957E-3
-2.12356E-3	-87.2607E-12	751.751E-3	-1.30579E-3	-88.7615E-12	798.758E-3	-8.40211E-3
-2.12856E-3	-86.9851E-12	751.946E-3	-19.7984E-3	-88.6392E-12	797.369E-3	-11.7932E-3
-2.13357E-3	-87.8293E-12	759.027E-3	-25.8105E-3	-88.4398E-12	786.202E-3	-16.4901E-3
-2.13857E-3	-88.4150E-12	749.793E-3	-8.44138E-3	-88.7001E-12	785.240E-3	-23.0551E-3
-2.14357E-3	-89.0398E-12	760.378E-3	7.37335E-3	-89.1822E-12	781.547E-3	-21.1208E-3
-2.14857E-3	-88.4770E-12	779.710E-3	2.35159E-3	-88.7697E-12	770.560E-3	-10.9414E-3
-2.15358E-3	-89.0908E-12	773.239E-3	-1.91916E-3	-88.6301E-12	752.694E-3	-2.28089E-3
-2.15858E-3	-90.2357E-12	765.451E-3	-2.03543E-3	-88.9441E-12	739.697E-3	-4.27523E-3
-2.16358E-3	-90.8090E-12	761.698E-3	-20.3707E-3	-89.0554E-12	735.912E-3	-13.1932E-3
-2.16858E-3	-90.3339E-12	754.570E-3	-37.3408E-3	-89.0925E-12	734.055E-3	-15.5643E-3
-2.17359E-3	-90.0124E-12	749.201E-3	-29.5626E-3	-88.5371E-12	726.041E-3	4.47617E-3
-2.17859E-3	-90.0990E-12	739.828E-3	-15.8850E-3	-88.8489E-12	717.970E-3	20.1695E-3
-2.18359E-3	-90.5839E-12	733.432E-3	-15.2803E-3	-88.9957E-12	729.238E-3	4.39634E-3
-2.18859E-3	-89.9770E-12	743.839E-3	-20.8232E-3	-89.1065E-12	752.239E-3	-8.07026E-3
-2.19360E-3	-89.6468E-12	758.115E-3	-27.0182E-3	-89.2405E-12	759.429E-3	-1.14526E-3
-2.19860E-3	-90.0289E-12	755.231E-3	-32.6060E-3	-89.8093E-12	753.817E-3	1.84195E-3
-2.20360E-3	-90.9123E-12	741.345E-3	-31.1566E-3	-89.7778E-12	748.118E-3	-9.91990E-3
-2.20860E-3	-90.3651E-12	727.636E-3	-35.3528E-3	-91.0369E-12	752.232E-3	-36.4863E-3
-2.21361E-3	-90.9065E-12	716.727E-3	-40.2678E-3	-91.9479E-12	766.301E-3	-41.9704E-3
-2.21861E-3	-91.3277E-12	711.936E-3	-32.5618E-3	-92.8717E-12	767.697E-3	-8.70768E-3
-2.22361E-3	-92.1783E-12	720.448E-3	-14.7574E-3	-92.7325E-12	760.253E-3	12.0677E-3
-2.22861E-3	-91.8161E-12	729.467E-3	379.683E-6	-93.5210E-12	766.445E-3	-9.02568E-3
-2.23362E-3	-92.2084E-12	734.407E-3	2.13095E-3	-94.7122E-12	773.125E-3	-19.1986E-3
-2.23862E-3	-92.2479E-12	739.486E-3	895.002E-6	-95.1382E-12	766.130E-3	-5.04892E-3
-2.24362E-3	-93.0373E-12	733.347E-3	-3.64990E-3	-94.5233E-12	750.503E-3	-8.77218E-3
-2.24862E-3	-93.0650E-12	728.478E-3	-12.9612E-3	-93.6146E-12	727.479E-3	-22.6379E-3
-2.25363E-3	-93.0146E-12	732.238E-3	-12.5344E-3	-94.7530E-12	703.833E-3	-20.1569E-3
-2.25863E-3	-93.6392E-12	740.482E-3	-12.9876E-3	-94.6351E-12	697.180E-3	-3.16933E-3
-2.26363E-3	-94.2582E-12	745.497E-3	-20.7821E-3	-93.9036E-12	712.399E-3	-6.30063E-3
-2.26863E-3	-95.1955E-12	738.961E-3	-34.3392E-3	-93.0313E-12	726.395E-3	-34.4231E-3
-2.27364E-3	-94.9819E-12	745.385E-3	-55.4582E-3	-94.1952E-12	726.246E-3	-48.9716E-3
-2.27864E-3	-95.6718E-12	750.403E-3	-58.6753E-3	-94.0429E-12	725.986E-3	-39.9041E-3
-2.28364E-3	-95.6583E-12	725.431E-3	-38.1677E-3	-94.0372E-12	728.790E-3	-31.9255E-3
-2.28864E-3	-96.1932E-12	712.814E-3	-11.7982E-3	-94.4381E-12	736.825E-3	-27.2934E-3
-2.29365E-3	-96.9847E-12	723.368E-3	4.55099E-3	-95.0990E-12	750.320E-3	-18.3523E-3
-2.29865E-3	-97.2056E-12	721.521E-3	-11.5252E-3	-95.3106E-12	754.971E-3	-5.17762E-3
-2.30365E-3	-97.2649E-12	729.568E-3	-36.5365E-3	-96.3342E-12	742.495E-3	-2.76744E-3
-2.30865E-3	-97.4525E-12	743.786E-3	-36.6002E-3	-96.6458E-12	735.365E-3	-13.8142E-3
-2.31366E-3	-97.9833E-12	738.330E-3	-27.9493E-3	-97.8709E-12	760.811E-3	-26.6032E-3
-2.31866E-3	-96.9336E-12	742.040E-3	-16.9974E-3	-98.9592E-12	772.463E-3	-40.5556E-3
-2.32366E-3	-96.5116E-12	747.534E-3	-795.148E-6	-99.1358E-12	744.332E-3	-33.1078E-3
-2.32866E-3	-96.2081E-12	738.631E-3	-4.35422E-3	-99.1148E-12	717.579E-3	-7.75683E-3
-2.33367E-3	-97.0470E-12	723.694E-3	-21.3353E-3	-99.7640E-12	708.407E-3	-2.98076E-3
-2.33867E-3	-97.1852E-12	704.058E-3	-23.0809E-3	-99.6702E-12	714.179E-3	-7.44544E-3
-2.34367E-3	-96.4065E-12	692.838E-3	-19.1416E-3	-99.1641E-12	720.658E-3	501.840E-6
-2.34867E-3	-96.6148E-12	692.130E-3	-13.6979E-3	-99.0761E-12	721.588E-3	3.20497E-3
-2.35368E-3	-97.1741E-12	699.187E-3	-15.3568E-3	-99.3050E-12	725.881E-3	-8.87457E-3
-2.35868E-3	-97.6861E-12	704.985E-3	-32.8487E-3	-98.7119E-12	732.070E-3	-30.3014E-3
-2.36368E-3	-97.6090E-12	699.065E-3	-41.3303E-3	-98.8242E-12	736.114E-3	-49.4274E-3
-2.36868E-3	-98.4138E-12	690.487E-3	-37.5831E-3	-98.6953E-12	727.091E-3	-47.9586E-3
-2.37369E-3	-99.4287E-12	695.905E-3	-33.8852E-3	-98.7237E-12	710.987E-3	-39.0461E-3
-2.37869E-3	-99.9488E-12	706.457E-3	-32.5120E-3	-98.2110E-12	700.140E-3	-38.6545E-3
-2.38369E-3	-100.548E-12	708.169E-3	-24.2004E-3	-98.2199E-12	689.868E-3	-31.3055E-3
-2.38869E-3	-101.270E-12	707.582E-3	-8.81708E-3	-98.1158E-12	689.936E-3	-22.0648E-3
-2.39370E-3	-101.936E-12	715.293E-3	-5.99361E-3	-98.4272E-12	698.083E-3	-23.3049E-3
-2.39870E-3	-102.232E-12	730.156E-3	-16.2022E-3	-98.4598E-12	705.922E-3	-26.9890E-3
-2.40370E-3	-102.722E-12	739.691E-3	-18.6168E-3	-98.9225E-12	717.685E-3	-26.9843E-3
-2.40870E-3	-102.477E-12	739.574E-3	-11.1465E-3	-99.9641E-12	728.111E-3	-31.1713E-3
-2.41371E-3	-102.606E-12	729.697E-3	-5.48680E-3	-101.030E-12	735.436E-3	-36.1697E-3
-2.41871E-3	-102.127E-12	723.969E-3	-10.7228E-3	-101.501E-12	746.001E-3	-30.9366E-3
-2.42371E-3	-102.097E-12	733.947E-3	-16.2547E-3	-101.511E-12	751.627E-3	-22.7168E-3
-2.42871E-3	-102.319E-12	734.792E-3	-14.3972E-3	-102.176E-12	732.558E-3	-17.1006E-3
-2.43372E-3	-101.924E-12	729.505E-3	-6.39839E-3	-102.741E-12	716.191E-3	-22.6921E-3
-2.43872E-3	-101.819E-12	739.736E-3	-787.414E-6	-103.321E-12	724.814E-3	-38.5780E-3
-2.44372E-3	-102.327E-12	739.183E-3	-9.41558E-3	-103.186E-12	739.871E-3	-40.7810E-3
-2.44872E-3	-103.377E-12	724.943E-3	-21.0707E-3	-103.690E-12	740.126E-3	-23.9333E-3
-2.45373E-3	-103.782E-12	716.192E-3	-26.0496E-3	-103.715E-12	725.808E-3	-6.84278E-3
-2.45873E-3	-104.181E-12	721.217E-3	-13.6637E-3	-104.597E-12	725.341E-3	-17.7284E-3
-2.46373E-3	-105.451E-12	739.127E-3	-3.87821E-3	-104.554E-12	734.039E-3	-38.8186E-3
-2.46873E-3	-106.142E-12	756.756E-3	-14.9068E-3	-104.703E-12	740.962E-3	-42.6820E-3
-2.47374E-3	-106.109E-12	757.493E-3	-12.4103E-3	-104.677E-12	744.858E-3	-39.0236E-3
-2.47874E-3	-105.934E-12	744.925E-3	10.2362E-3	-103.914E-12	734.029E-3	-21.0879E-3
-2.48374E-3	-107.281E-12	721.210E-3	11.3894E-3	-104.751E-12	727.988E-3	-4.52815E-3
-2.48874E-3	-106.675E-12	695.020E-3	-18.1208E-3	-104.872E-12	732.915E-3	-19.4058E-3
-2.49375E-3	-106.995E-12	701.921E-3	-35.0888E-3	-104.238E-12	732.147E-3	-41.9187E-3
-2.49875E-3	-107.653E-12	724.336E-3	-31.6506E-3	-104.390E-12	725.437E-3	-41.0409E-3
-2.50375E-3	-107.187E-12	726.263E-3	-29.9588E-3	-104.279E-12	704.324E-3	-27.2823E-3
-2.50875E-3	-106.574E-12	714.647E-3	-34.9340E-3	-104.983E-12	673.622E-3	-33.0369E-3
-2.51376E-3	-105.885E-12	708.866E-3	-42.4499E-3	-104.653E-12	663.262E-3	-46.0920E-3
-2.51876E-3	-106.025E-12	710.429E-3	-32.3754E-3	-104.704E-12	683.797E-3	-31.7451E-3
-2.52376E-3	-105.541E-12	704.361E-3	-10.6042E-3	-105.251E-12	699.679E-3	-9.13942E-3
-2.52876E-3	-105.968E-12	708.139E-3	-13.5206E-3	-106.547E-12	698.999E-3	-2.89760E-3
-2.53377E-3	-105.673E-12	730.131E-3	-27.4981E-3	-106.653E-12	706.048E-3	-6.35051E-3
-2.53877E-3	-106.131E-12	726.814E-3	-33.4658E-3	-106.716E-12	696.700E-3	-8.24770E-3
-2.54377E-3	-106.786E-12	706.252E-3	-43.3988E-3	-107.803E-12	681.160E-3	-1.50285E-3
-2.54877E-3	-107.507E-12	707.229E-3	-34.3459E-3	-108.607E-12	698.718E-3	9.12778E-3
-2.55378E-3	-107.928E-12	705.015E-3	-16.7674E-3	-109.384E-12	709.362E-3	12.5342E-3
-2.55878E-3	-107.459E-12	695.910E-3	-9.48987E-3	-109.363E-12	697.992E-3	3.55806E-3
-2.56378E-3	-108.637E-12	700.909E-3	-2.75112E-3	-110.548E-12	709.384E-3	-12.2945E-3
-2.56878E-3	-110.026E-12	705.686E-3	-4.99520E-3	-110.946E-12	727.195E-3	-13.5252E-3
-2.57379E-3	-110.471E-12	701.844E-3	-14.7431E-3	-110.157E-12	724.807E-3	8.94903E-3
-2.57879E-3	-110.644E-12	717.713E-3	-39.3638E-3	-110.263E-12	709.863E-3	19.3136E-3
-2.58379E-3	-111.424E-12	751.528E-3	-69.0513E-3	-110.514E-12	689.457E-3	-485.212E-6
-2.58879E-3	-111.764E-12	747.426E-3	-62.3038E-3	-110.745E-12	687.585E-3	-20.2270E-3
-2.59380E-3	-111.647E-12	722.432E-3	-31.9166E-3	-109.474E-12	699.555E-3	-19.6612E-3
-2.59880E-3	-112.133E-12	725.167E-3	-10.0018E-3	-109.571E-12	706.368E-3	-9.90441E-3
-2.60380E-3	-112.330E-12	725.591E-3	1.33652E-3	-109.927E-12	707.468E-3	-13.8211E-3
-2.60880E-3	-112.319E-12	725.215E-3	-3.34278E-3	-110.319E-12	694.412E-3	-19.4736E-3
-2.61381E-3	-111.531E-12	743.620E-3	-19.1621E-3	-109.853E-12	672.201E-3	-3.26372E-3
-2.61881E-3	-112.353E-12	745.064E-3	-22.3904E-3	-110.232E-12	673.640E-3	1.24973E-3
-2.62381E-3	-112.306E-12	738.934E-3	-11.8415E-3	-110.567E-12	694.506E-3	-17.4819E-3
-2.62881E-3	-112.083E-12	729.241E-3	-7.92460E-3	-111.964E-12	709.403E-3	-16.7324E-3
-2.63382E-3	-111.508E-12	704.688E-3	-16.2679E-3	-112.402E-12	725.723E-3	-3.91090E-3
-2.63882E-3	-111.868E-12	699.995E-3	-24.2358E-3	-113.009E-12	745.863E-3	-5.99137E-3
-2.64382E-3	-112.622E-12	703.557E-3	-24.9304E-3	-113.073E-12	751.903E-3	-9.90479E-3
-2.64882E-3	-112.602E-12	701.918E-3	-36.2581E-3	-114.162E-12	741.106E-3	-28.1755E-3
-2.65383E-3	-112.569E-12	712.830E-3	-43.5094E-3	-115.088E-12	730.784E-3	-52.4378E-3
-2.65883E-3	-113.099E-12	724.539E-3	-35.7573E-3	-114.509E-12	707.343E-3	-43.1892E-3
-2.66383E-3	-113.341E-12	722.671E-3	-31.1380E-3	-114.351E-12	681.821E-3	-13.5673E-3
-2.66883E-3	-113.947E-12	712.658E-3	-32.2651E-3	-114.965E-12	688.822E-3	-1.72910E-3
-2.67384E-3	-113.891E-12	701.140E-3	-35.0549E-3	-115.257E-12	708.684E-3	-14.5484E-3
-2.67884E-3	-114.217E-12	695.757E-3	-41.8197E-3	-115.115E-12	703.527E-3	-27.4931E-3
-2.68384E-3	-114.715E-12	703.211E-3	-51.7814E-3	-114.130E-12	681.015E-3	-36.7850E-3
-2.68884E-3	-115.193E-12	707.621E-3	-45.6502E-3	-114.070E-12	665.323E-3	-42.0848E-3
-2.69385E-3	-115.635E-12	715.343E-3	-22.2135E-3	-113.647E-12	659.980E-3	-36.8437E-3
-2.69885E-3	-115.494E-12	738.919E-3	-14.9996E-3	-114.593E-12	666.863E-3	-24.8738E-3
-2.70385E-3	-115.944E-12	738.046E-3	-19.0227E-3	-114.070E-12	686.002E-3	-21.7185E-3
-2.70885E-3	-116.375E-12	724.491E-3	-14.2794E-3	-113.984E-12	701.418E-3	-36.9275E-3
-2.71386E-3	-116.746E-12	737.152E-3	-15.0835E-3	-114.235E-12	684.114E-3	-49.6456E-3
-2.71886E-3	-116.830E-12	729.235E-3	-19.6328E-3	-115.553E-12	664.991E-3	-49.8612E-3
-2.72386E-3	-116.972E-12	694.314E-3	-19.8685E-3	-116.005E-12	683.713E-3	-51.3384E-3
-2.72886E-3	-117.248E-12	679.501E-3	-18.1407E-3	-116.436E-12	704.153E-3	-52.4745E-3
-2.73387E-3	-117.565E-12	687.729E-3	-22.6435E-3	-117.254E-12	709.938E-3	-32.4161E-3
-2.73887E-3	-118.105E-12	702.735E-3	-32.3294E-3	-118.528E-12	713.577E-3	-9.70298E-3
-2.74387E-3	-117.677E-12	712.947E-3	-39.9451E-3	-119.649E-12	710.223E-3	-9.70987E-3
-2.74887E-3	-117.243E-12	716.305E-3	-47.2628E-3	-119.377E-12	704.478E-3	-21.5454E-3
-2.75388E-3	-117.081E-12	702.364E-3	-52.8938E-3	-119.323E-12	692.655E-3	-8.68585E-3
-2.75888E-3	-117.752E-12	673.893E-3	-45.7851E-3	-120.307E-12	693.134E-3	30.2154E-3
-2.76388E-3	-118.375E-12	674.895E-3	-27.9845E-3	-120.031E-12	708.058E-3	40.3175E-3
-2.76888E-3	-117.909E-12	701.287E-3	-21.0831E-3	-119.496E-12	701.922E-3	24.5002E-3
-2.77389E-3	-117.588E-12	696.894E-3	-26.4795E-3	-119.622E-12	693.972E-3	3.40042E-3
-2.77889E-3	-118.280E-12	677.075E-3	-15.4251E-3	-120.571E-12	688.803E-3	-714.617E-6
-2.78389E-3	-118.479E-12	679.536E-3	-8.32155E-3	-120.106E-12	679.359E-3	11.4142E-3
-2.78889E-3	-119.336E-12	685.271E-3	-17.1258E-3	-119.194E-12	684.441E-3	-1.74331E-3
-2.79390E-3	-118.945E-12	689.674E-3	-10.8071E-3	-119.210E-12	688.260E-3	-19.0982E-3
-2.79890E-3	-118.894E-12	693.431E-3	-11.1572E-3	-119.493E-12	689.647E-3	-15.5247E-3
-2.80390E-3	-119.777E-12	696.688E-3	-25.9141E-3	-119.810E-12	695.475E-3	-14.0753E-3
-2.80890E-3	-120.750E-12	700.607E-3	-32.7080E-3	-119.780E-12	683.357E-3	-8.79693E-3
-2.81391E-3	-121.465E-12	696.746E-3	-35.7737E-3	-119.359E-12	673.333E-3	4.76572E-3
-2.81891E-3	-120.571E-12	689.781E-3	-37.0230E-3	-120.155E-12	685.347E-3	12.5704E-3
-2.82391E-3	-121.017E-12	690.826E-3	-35.8177E-3	-120.910E-12	690.096E-3	11.7301E-3
-2.82891E-3	-120.992E-12	692.819E-3	-29.3755E-3	-121.220E-12	682.377E-3	-881.836E-6
-2.83392E-3	-121.578E-12	689.763E-3	-22.2061E-3	-121.239E-12	683.486E-3	-4.12884E-3
-2.83892E-3	-120.784E-12	688.717E-3	-29.4356E-3	-121.870E-12	698.336E-3	2.70843E-3
-2.84392E-3	-120.609E-12	685.579E-3	-27.3605E-3	-122.434E-12	705.639E-3	929.408E-6
-2.84892E-3	-121.130E-12	691.678E-3	478.673E-6	-123.518E-12	699.538E-3	-14.1699E-3
-2.85393E-3	-122.283E-12	699.902E-3	6.52333E-3	-123.493E-12	691.766E-3	-14.6430E-3
-2.85893E-3	-122.187E-12	693.317E-3	-19.0218E-3	-123.171E-12	680.120E-3	-2.68175E-3
-2.86393E-3	-121.470E-12	701.528E-3	-41.6983E-3	-123.133E-12	673.668E-3	-17.8328E-3
-2.86893E-3	-121.677E-12	714.168E-3	-52.3427E-3	-124.038E-12	675.920E-3	-30.8586E-3
-2.87394E-3	-123.463E-12	691.531E-3	-39.3397E-3	-124.929E-12	679.094E-3	-21.2208E-3
-2.87894E-3	-123.989E-12	661.086E-3	-28.7053E-3	-123.638E-12	688.945E-3	-22.9740E-3
-2.88394E-3	-124.547E-12	653.713E-3	-24.8407E-3	-123.541E-12	699.201E-3	-26.5577E-3
-2.88894E-3	-125.411E-12	663.599E-3	-11.5822E-3	-124.468E-12	704.463E-3	-15.7741E-3
-2.89395E-3	-125.924E-12	669.121E-3	-10.6152E-3	-125.045E-12	711.798E-3	-2.04085E-3
-2.89895E-3	-126.180E-12	674.168E-3	-21.3514E-3	-124.450E-12	711.714E-3	10.5037E-3
-2.90395E-3	-126.621E-12	691.001E-3	-17.9455E-3	-124.598E-12	699.236E-3	12.2600E-3
-2.90895E-3	-127.164E-12	696.473E-3	-5.97926E-3	-124.929E-12	691.088E-3	2.83172E-3
-2.91396E-3	-127.448E-12	700.172E-3	-14.9891E-3	-124.833E-12	693.210E-3	-10.6553E-3
-2.91896E-3	-126.381E-12	719.184E-3	-17.4513E-3	-125.450E-12	688.097E-3	-25.3164E-3
-2.92396E-3	-125.950E-12	725.188E-3	-10.8053E-3	-126.090E-12	678.760E-3	-28.3921E-3
-2.92896E-3	-126.129E-12	717.542E-3	-13.2793E-3	-125.669E-12	686.461E-3	-29.5198E-3
-2.93397E-3	-125.899E-12	719.218E-3	-5.10985E-3	-125.564E-12	689.592E-3	-25.7187E-3
-2.93897E-3	-124.543E-12	713.671E-3	7.85999E-3	-125.524E-12	682.625E-3	10.3660E-3
-2.94397E-3	-124.506E-12	708.467E-3	3.31887E-3	-125.609E-12	696.153E-3	44.2105E-3
-2.94897E-3	-124.328E-12	711.679E-3	-3.91724E-3	-126.928E-12	708.429E-3	39.3174E-3
-2.95398E-3	-125.189E-12	697.717E-3	593.479E-6	-127.060E-12	700.730E-3	10.9724E-3
-2.95898E-3	-124.558E-12	675.045E-3	-10.2551E-3	-126.855E-12	691.321E-3	-16.7155E-3
-2.96398E-3	-124.991E-12	663.091E-3	-26.5967E-3	-127.046E-12	674.364E-3	-26.1656E-3
-2.96898E-3	-126.234E-12	664.881E-3	-18.7034E-3	-128.476E-12	650.831E-3	-23.8250E-3
-2.97399E-3	-127.230E-12	668.539E-3	-11.2874E-3	-129.645E-12	655.670E-3	-19.1074E-3
-2.97899E-3	-128.138E-12	670.043E-3	-22.7620E-3	-128.937E-12	676.502E-3	-2.24904E-3
-2.98399E-3	-128.386E-12	668.603E-3	-33.8624E-3	-129.768E-12	683.322E-3	5.03725E-3
-2.98899E-3	-129.780E-12	674.194E-3	-22.2945E-3	-130.008E-12	697.701E-3	-6.68800E-3
-2.99400E-3	-131.122E-12	697.994E-3	-2.50798E-3	-130.462E-12	718.668E-3	-10.4926E-3
-2.99900E-3	-131.292E-12	707.955E-3	-1.86154E-3	-129.786E-12	709.354E-3	-6.96794E-3
-3.00400E-3	-131.544E-12	699.804E-3	-6.69480E-3	-129.980E-12	683.022E-3	-7.70143E-3
-3.00900E-3	-131.818E-12	686.524E-3	-6.00427E-3	-129.328E-12	683.942E-3	-20.0678E-3
-3.01401E-3	-131.961E-12	676.004E-3	-4.21423E-3	-129.749E-12	701.926E-3	-22.1157E-3
-3.01901E-3	-131.338E-12	685.032E-3	-4.72285E-3	-129.509E-12	715.222E-3	-13.3825E-3
-3.02401E-3	-132.018E-12	706.634E-3	-1.28255E-3	-129.097E-12	712.888E-3	-12.0861E-3
-3.02901E-3	-131.267E-12	721.653E-3	13.4461E-3	-129.492E-12	695.736E-3	5.19878E-3
-3.03402E-3	-130.859E-12	709.041E-3	8.82277E-3	-129.243E-12	693.246E-3	12.2212E-3
-3.03902E-3	-130.529E-12	680.061E-3	-14.3746E-3	-130.247E-12	709.148E-3	-8.80388E-3
-3.04402E-3	-130.885E-12	667.442E-3	-21.1906E-3	-130.428E-12	715.497E-3	-15.8146E-3
-3.04902E-3	-130.594E-12	679.252E-3	-19.2431E-3	-131.777E-12	711.224E-3	-10.5799E-3
-3.05403E-3	-130.254E-12	696.328E-3	-13.9648E-3	-131.815E-12	702.561E-3	-11.5633E-3
-3.05903E-3	-130.516E-12	689.451E-3	-4.45209E-3	-132.757E-12	696.137E-3	-6.46051E-3
-3.06403E-3	-130.942E-12	661.154E-3	-4.42600E-3	-133.846E-12	711.607E-3	2.59497E-3
-3.06903E-3	-130.828E-12	642.532E-3	975.551E-6	-134.749E-12	722.000E-3	-10.6942E-3
-3.07404E-3	-131.274E-12	647.965E-3	9.06865E-3	-134.690E-12	691.923E-3	-28.1313E-3
-3.07904E-3	-131.709E-12	664.241E-3	7.31638E-3	-134.258E-12	658.157E-3	-36.6394E-3
-3.08404E-3	-131.565E-12	685.224E-3	5.09835E-3	-135.311E-12	659.746E-3	-46.4139E-3
-3.08904E-3	-132.054E-12	689.953E-3	-7.95304E-3	-134.915E-12	688.503E-3	-27.3276E-3
-3.09405E-3	-132.789E-12	666.068E-3	-16.4068E-3	-134.910E-12	713.000E-3	-12.7016E-3
-3.09905E-3	-132.069E-12	650.168E-3	-4.94999E-3	-134.282E-12	712.402E-3	-27.8872E-3
-3.10405E-3	-132.052E-12	650.376E-3	4.55343E-3	-134.639E-12	697.787E-3	-21.7853E-3
-3.10905E-3	-132.920E-12	641.846E-3	-488.604E-6	-134.016E-12	688.726E-3	-16.6886E-3
-3.11406E-3	-133.384E-12	635.683E-3	-17.8960E-3	-133.333E-12	691.856E-3	-35.5913E-3
-3.11906E-3	-133.620E-12	647.846E-3	-22.6371E-3	-133.412E-12	695.188E-3	-41.6134E-3
-3.12406E-3	-133.759E-12	655.349E-3	-11.9467E-3	-133.875E-12	700.057E-3	-27.4629E-3
-3.12906E-3	-134.900E-12	655.579E-3	-4.85385E-3	-133.469E-12	700.085E-3	-15.3873E-3
-3.13407E-3	-135.606E-12	665.417E-3	-4.37090E-3	-132.848E-12	691.152E-3	-20.7004E-3
-3.13907E-3	-135.406E-12	677.046E-3	-11.7419E-3	-134.421E-12	678.884E-3	-39.7483E-3
-3.14407E-3	-135.646E-12	688.676E-3	-8.06108E-3	-136.117E-12	673.202E-3	-45.8378E-3
-3.14907E-3	-135.762E-12	702.632E-3	7.94383E-3	-137.301E-12	679.454E-3	-25.6940E-3
-3.15408E-3	-136.436E-12	709.980E-3	4.36291E-3	-136.674E-12	674.367E-3	-8.55672E-3
-3.15908E-3	-137.039E-12	705.656E-3	-23.0192E-3	-138.314E-12	658.930E-3	-9.93982E-3
-3.16408E-3	-136.555E-12	695.059E-3	-35.4604E-3	-139.495E-12	668.345E-3	-12.8787E-3
-3.16908E-3	-136.775E-12	691.799E-3	-14.9204E-3	-139.787E-12	706.801E-3	-12.8763E-3
-3.17409E-3	-137.221E-12	703.291E-3	-12.3335E-3	-140.197E-12	731.663E-3	-24.5125E-3
-3.17909E-3	-138.103E-12	700.687E-3	-29.2981E-3	-140.619E-12	712.440E-3	-38.1849E-3
-3.18409E-3	-137.385E-12	682.032E-3	-39.4008E-3	-141.355E-12	697.480E-3	-40.3260E-3
-3.18909E-3	-136.562E-12	679.755E-3	-53.0058E-3	-140.597E-12	705.384E-3	-39.9437E-3
-3.19410E-3	-136.777E-12	667.252E-3	-47.4466E-3	-140.571E-12	717.067E-3	-42.4128E-3
-3.19910E-3	-138.066E-12	635.900E-3	-30.6424E-3	-139.493E-12	723.992E-3	-32.1246E-3
-3.20410E-3	-138.914E-12	641.561E-3	-25.6370E-3	-139.599E-12	710.653E-3	-16.4576E-3
-3.20910E-3	-137.962E-12	672.071E-3	-19.1145E-3	-138.851E-12	689.350E-3	-13.6412E-3
-3.21411E-3	-138.560E-12	680.073E-3	-11.7704E-3	-137.652E-12	679.816E-3	711.443E-6
-3.21911E-3	-140.330E-12	668.908E-3	-8.84055E-3	-137.238E-12	682.446E-3	4.95245E-3
-3.22411E-3	-141.640E-12	661.157E-3	-13.5451E-3	-137.782E-12	681.286E-3	-12.5161E-3
-3.22911E-3	-140.986E-12	670.708E-3	-15.8924E-3	-138.889E-12	680.840E-3	-21.0984E-3
-3.23412E-3	-141.715E-12	684.611E-3	-16.2627E-3	-138.302E-12	686.825E-3	-36.4121E-3
-3.23912E-3	-143.213E-12	692.741E-3	-10.7038E-3	-137.134E-12	677.734E-3	-59.4843E-3
-3.24412E-3	-142.471E-12	677.490E-3	4.66993E-3	-137.689E-12	672.545E-3	-50.0993E-3
-3.24912E-3	-142.760E-12	652.073E-3	1.05179E-3	-139.314E-12	686.037E-3	-19.7417E-3
-3.25413E-3	-142.484E-12	663.435E-3	-15.6665E-3	-140.240E-12	687.524E-3	-10.7917E-3
-3.25913E-3	-142.513E-12	686.673E-3	-34.9622E-3	-139.507E-12	673.103E-3	-4.50645E-3
-3.26413E-3	-141.909E-12	672.463E-3	-48.1125E-3	-140.472E-12	639.224E-3	1.75759E-3
-3.26913E-3	-141.355E-12	651.488E-3	-36.2717E-3	-141.592E-12	627.043E-3	-12.8470E-3
-3.27414E-3	-140.735E-12	652.255E-3	-10.8461E-3	-142.287E-12	663.299E-3	-26.2506E-3
-3.27914E-3	-139.575E-12	652.580E-3	-6.77646E-3	-141.777E-12	683.097E-3	-16.0447E-3
-3.28414E-3	-140.752E-12	657.022E-3	-15.6228E-3	-142.174E-12	680.826E-3	-1.80498E-3
-3.28914E-3	-140.714E-12	679.972E-3	-14.4313E-3	-142.048E-12	675.809E-3	-2.85308E-3
-3.29415E-3	-140.916E-12	699.830E-3	-16.0676E-3	-143.087E-12	659.363E-3	-20.6733E-3
-3.29915E-3	-140.650E-12	699.923E-3	-14.0467E-3	-143.301E-12	654.568E-3	-37.2128E-3
-3.30415E-3	-141.913E-12	683.162E-3	-12.5181E-3	-143.326E-12	652.585E-3	-22.8910E-3
-3.30915E-3	-142.957E-12	675.789E-3	-16.3676E-3	-142.280E-12	654.209E-3	743.287E-6
-3.31416E-3	-144.075E-12	679.758E-3	-16.7158E-3	-143.410E-12	651.667E-3	3.06396E-3
-3.31916E-3	-144.313E-12	667.862E-3	-28.0968E-3	-143.749E-12	637.428E-3	6.95057E-3
-3.32416E-3	-144.928E-12	667.023E-3	-41.4839E-3	-143.404E-12	666.512E-3	10.9289E-3
-3.32916E-3	-146.464E-12	687.489E-3	-23.7587E-3	-142.756E-12	698.653E-3	-9.25972E-3
-3.33417E-3	-145.898E-12	683.805E-3	-5.80965E-3	-143.544E-12	686.615E-3	-17.6240E-3
-3.33917E-3	-145.428E-12	660.793E-3	-7.41105E-3	-143.908E-12	670.458E-3	-5.34706E-3
-3.34417E-3	-145.478E-12	652.500E-3	-8.90028E-3	-143.389E-12	671.205E-3	-9.68423E-3
-3.34917E-3	-145.661E-12	650.201E-3	-23.8194E-3	-143.612E-12	680.161E-3	-13.8417E-3
-3.35418E-3	-145.781E-12	666.189E-3	-23.0877E-3	-144.478E-12	677.152E-3	-7.34610E-3
-3.35918E-3	-144.295E-12	700.323E-3	-2.81667E-3	-146.159E-12	674.983E-3	-1.32290E-3
-3.36418E-3	-143.396E-12	715.517E-3	567.776E-6	-145.908E-12	687.210E-3	15.6307E-3
-3.36918E-3	-143.739E-12	677.979E-3	11.5808E-3	-145.270E-12	687.031E-3	25.5239E-3
-3.37419E-3	-144.526E-12	631.302E-3	18.7136E-3	-146.437E-12	682.342E-3	8.84407E-3
-3.37919E-3	-143.496E-12	633.246E-3	5.09067E-3	-148.305E-12	687.665E-3	-3.04360E-3
-3.38419E-3	-143.092E-12	648.000E-3	-14.5178E-3	-147.955E-12	695.622E-3	-1.69073E-3
-3.38919E-3	-144.135E-12	654.768E-3	-24.8645E-3	-147.844E-12	706.699E-3	-12.7416E-3
-3.39420E-3	-145.525E-12	647.228E-3	-13.2798E-3	-148.355E-12	708.284E-3	-27.1477E-3
-3.39920E-3	-145.709E-12	641.490E-3	-17.2396E-3	-150.309E-12	702.312E-3	-34.8013E-3
-3.40420E-3	-146.507E-12	655.238E-3	-33.8387E-3	-150.067E-12	685.992E-3	-28.5907E-3
-3.40920E-3	-146.606E-12	667.974E-3	-18.1841E-3	-149.289E-12	679.751E-3	-8.56641E-3
-3.41421E-3	-147.892E-12	673.290E-3	1.43388E-3	-149.624E-12	692.422E-3	5.11877E-3
-3.41921E-3	-148.495E-12	679.055E-3	-7.21380E-3	-150.461E-12	688.250E-3	-5.58859E-3
-3.42421E-3	-150.326E-12	682.866E-3	-10.6450E-3	-150.749E-12	667.420E-3	-23.1930E-3
-3.42921E-3	-149.995E-12	678.392E-3	3.18768E-3	-150.142E-12	664.079E-3	-29.4168E-3
-3.43422E-3	-150.365E-12	676.705E-3	3.81503E-3	-148.639E-12	673.633E-3	-23.6281E-3
-3.43922E-3	-150.493E-12	680.369E-3	-7.28179E-3	-148.694E-12	669.513E-3	-14.1795E-3
-3.44422E-3	-151.966E-12	675.504E-3	-21.7739E-3	-148.876E-12	666.923E-3	-16.1699E-3
-3.44922E-3	-151.560E-12	668.732E-3	-39.5071E-3	-148.857E-12	682.056E-3	-18.2119E-3
-3.45423E-3	-150.860E-12	666.678E-3	-39.0432E-3	-148.352E-12	690.887E-3	-12.9916E-3
-3.45923E-3	-150.478E-12	666.180E-3	-25.5119E-3	-148.248E-12	683.650E-3	-2.00995E-3
-3.46423E-3	-151.182E-12	677.975E-3	-16.0653E-3	-148.571E-12	683.935E-3	2.56115E-3
-3.46923E-3	-151.850E-12	688.802E-3	-14.1774E-3	-149.793E-12	693.851E-3	-14.3016E-3
-3.47424E-3	-152.302E-12	693.552E-3	-19.2207E-3	-150.760E-12	694.833E-3	-29.5170E-3
-3.47924E-3	-151.614E-12	680.637E-3	-8.80500E-3	-151.184E-12	688.191E-3	-21.1521E-3
-3.48424E-3	-151.885E-12	664.906E-3	15.4971E-3	-151.390E-12	687.142E-3	-9.73261E-3
-3.48924E-3	-152.977E-12	678.258E-3	19.4733E-3	-151.967E-12	674.531E-3	-313.355E-6
-3.49425E-3	-153.191E-12	690.372E-3	1.58367E-3	-152.958E-12	655.311E-3	-9.97357E-3
-3.49925E-3	-152.337E-12	701.438E-3	-21.7267E-3	-153.072E-12	662.273E-3	-37.7386E-3
-3.50425E-3	-151.928E-12	707.724E-3	-24.5571E-3	-153.943E-12	682.389E-3	-31.7747E-3
-3.50925E-3	-151.570E-12	674.094E-3	-59.7962E-6	-154.220E-12	688.440E-3	-18.0445E-3
-3.51426E-3	-151.724E-12	630.259E-3	10.5320E-3	-154.068E-12	675.503E-3	-26.1330E-3
-3.51926E-3	-152.217E-12	621.851E-3	-496.573E-6	-153.916E-12	656.943E-3	-20.3836E-3
-3.52426E-3	-152.499E-12	635.403E-3	-11.4967E-3	-153.409E-12	642.304E-3	-16.1357E-3
-3.52926E-3	-151.222E-12	663.019E-3	-17.4565E-3	-152.440E-12	647.001E-3	-26.0957E-3
-3.53427E-3	-151.372E-12	682.005E-3	-5.64125E-3	-152.389E-12	665.657E-3	-17.5946E-3
-3.53927E-3	-152.274E-12	667.003E-3	4.38161E-3	-151.961E-12	664.167E-3	-2.22477E-3
-3.54427E-3	-152.665E-12	651.489E-3	-11.3558E-3	-151.708E-12	657.041E-3	-7.22179E-3
-3.54927E-3	-152.746E-12	646.301E-3	-30.2844E-3	-151.275E-12	666.512E-3	-10.5777E-3
-3.55428E-3	-152.631E-12	649.679E-3	-50.8409E-3	-151.639E-12	669.854E-3	-16.0723E-3
-3.55928E-3	-153.474E-12	658.537E-3	-61.5361E-3	-151.461E-12	660.111E-3	-28.3279E-3
-3.56428E-3	-155.097E-12	659.001E-3	-39.9905E-3	-152.994E-12	656.607E-3	-8.37637E-3
-3.56928E-3	-156.104E-12	654.683E-3	-30.6891E-3	-153.421E-12	654.709E-3	24.9772E-3
-3.57429E-3	-155.675E-12	647.145E-3	-40.3179E-3	-154.109E-12	651.108E-3	14.0715E-3
-3.57929E-3	-156.359E-12	629.580E-3	-39.9844E-3	-155.293E-12	663.503E-3	-28.9034E-3
-3.58429E-3	-157.318E-12	624.079E-3	-45.0544E-3	-156.713E-12	687.192E-3	-61.0708E-3
-3.58929E-3	-157.228E-12	643.326E-3	-47.8046E-3	-158.132E-12	696.573E-3	-61.0767E-3
-3.59430E-3	-157.662E-12	660.534E-3	-40.6550E-3	-158.702E-12	689.202E-3	-37.4893E-3
-3.59930E-3	-156.921E-12	669.231E-3	-40.4670E-3	-159.366E-12	687.384E-3	-25.3767E-3
-3.60430E-3	-157.565E-12	680.649E-3	-40.1886E-3	-159.181E-12	684.960E-3	-42.2695E-3
-3.60930E-3	-157.108E-12	680.632E-3	-41.8951E-3	-160.554E-12	686.639E-3	-53.3791E-3
-3.61431E-3	-157.079E-12	673.183E-3	-47.9586E-3	-161.616E-12	689.577E-3	-35.1403E-3
-3.61931E-3	-157.302E-12	677.835E-3	-39.8598E-3	-161.050E-12	675.609E-3	-20.4361E-3
-3.62431E-3	-157.060E-12	674.141E-3	-23.9300E-3	-159.804E-12	667.813E-3	-18.1994E-3
-3.62931E-3	-157.348E-12	664.775E-3	-26.5498E-3	-159.027E-12	677.354E-3	-3.05290E-3
-3.63432E-3	-158.370E-12	663.304E-3	-51.0108E-3	-158.641E-12	688.919E-3	2.44371E-3
-3.63932E-3	-159.142E-12	656.626E-3	-52.2376E-3	-157.760E-12	678.415E-3	-7.13806E-3
-3.64432E-3	-158.525E-12	656.269E-3	-19.7285E-3	-157.281E-12	657.883E-3	-899.178E-6
-3.64932E-3	-158.346E-12	674.080E-3	-5.41420E-3	-156.591E-12	641.760E-3	-15.7316E-3
-3.65433E-3	-158.487E-12	663.594E-3	-23.7007E-3	-157.126E-12	629.022E-3	-41.0872E-3
-3.65933E-3	-159.604E-12	636.347E-3	-41.5294E-3	-156.845E-12	643.311E-3	-35.8077E-3
-3.66433E-3	-159.797E-12	653.749E-3	-45.1046E-3	-157.761E-12	667.398E-3	-17.5142E-3
-3.66933E-3	-159.411E-12	677.298E-3	-37.0384E-3	-157.945E-12	670.302E-3	-5.34472E-3
-3.67434E-3	-158.776E-12	675.342E-3	-34.9891E-3	-158.302E-12	656.230E-3	796.055E-6
-3.67934E-3	-158.547E-12	669.907E-3	-40.8077E-3	-157.968E-12	654.671E-3	-8.12613E-3
-3.68434E-3	-159.169E-12	661.025E-3	-32.0095E-3	-158.837E-12	665.760E-3	-8.30571E-3
-3.68934E-3	-158.497E-12	652.446E-3	-23.7807E-3	-159.861E-12	676.214E-3	5.01413E-3
-3.69435E-3	-158.126E-12	663.207E-3	-22.6261E-3	-159.619E-12	678.469E-3	-5.10306E-3
-3.69935E-3	-157.517E-12	666.372E-3	-12.1394E-3	-160.623E-12	661.487E-3	-8.83747E-3
-3.70435E-3	-158.783E-12	646.998E-3	-15.3128E-3	-161.390E-12	650.112E-3	10.6891E-3
-3.70935E-3	-158.686E-12	642.963E-3	-26.4640E-3	-161.533E-12	647.910E-3	2.01998E-3
-3.71436E-3	-158.245E-12	659.783E-3	-18.7751E-3	-161.153E-12	644.605E-3	-14.6179E-3
-3.71936E-3	-157.820E-12	666.694E-3	-6.82352E-3	-160.837E-12	636.804E-3	-13.8048E-3
-3.72436E-3	-159.275E-12	672.998E-3	-6.81120E-3	-161.192E-12	632.719E-3	-23.4058E-3
-3.72936E-3	-160.128E-12	682.916E-3	-24.7311E-3	-160.275E-12	636.011E-3	-22.3757E-3
-3.73437E-3	-161.551E-12	668.211E-3	-22.2475E-3	-160.653E-12	629.979E-3	-16.2463E-3
-3.73937E-3	-162.725E-12	637.889E-3	4.81426E-3	-160.763E-12	642.051E-3	-25.3827E-3
-3.74437E-3	-162.980E-12	636.997E-3	6.10368E-3	-160.944E-12	664.741E-3	-34.8697E-3
-3.74937E-3	-164.119E-12	659.475E-3	-4.53670E-3	-160.690E-12	667.833E-3	-35.2987E-3
-3.75438E-3	-165.650E-12	659.374E-3	693.246E-6	-161.702E-12	664.756E-3	-51.0327E-3
-3.75938E-3	-165.812E-12	656.216E-3	3.81590E-3	-162.024E-12	667.497E-3	-75.8196E-3
-3.76438E-3	-164.782E-12	671.335E-3	4.45728E-3	-161.268E-12	671.585E-3	-59.7583E-3
-3.76938E-3	-165.407E-12	668.227E-3	1.98576E-3	-161.165E-12	674.289E-3	-30.6027E-3
-3.77439E-3	-165.507E-12	666.661E-3	-23.6487E-3	-162.073E-12	679.882E-3	-28.3703E-3
-3.77939E-3	-165.207E-12	672.356E-3	-32.2985E-3	-163.454E-12	669.895E-3	-20.5910E-3
-3.78439E-3	-163.807E-12	652.393E-3	-22.0871E-3	-163.230E-12	656.826E-3	-10.5255E-3
-3.78939E-3	-162.958E-12	647.308E-3	-11.2787E-3	-163.587E-12	661.477E-3	-23.1649E-3
-3.79440E-3	-163.220E-12	671.269E-3	25.1893E-3	-163.588E-12	664.825E-3	-15.6091E-3
-3.79940E-3	-162.972E-12	685.030E-3	24.0906E-3	-165.231E-12	659.463E-3	13.2418E-3
-3.80440E-3	-162.086E-12	675.616E-3	-22.2679E-3	-166.006E-12	666.889E-3	14.1650E-3
-3.80940E-3	-162.234E-12	655.596E-3	-30.8563E-3	-166.416E-12	677.152E-3	931.842E-6
-3.81441E-3	-163.168E-12	648.546E-3	3.81554E-3	-166.918E-12	686.201E-3	-4.86938E-3
-3.81941E-3	-163.617E-12	657.516E-3	36.1639E-3	-167.153E-12	701.405E-3	695.794E-6
-3.82441E-3	-164.909E-12	657.707E-3	46.4725E-3	-167.712E-12	686.323E-3	258.309E-6
-3.82941E-3	-166.140E-12	656.754E-3	37.3675E-3	-167.734E-12	656.615E-3	-10.4875E-3
-3.83442E-3	-167.924E-12	670.743E-3	-1.48644E-3	-168.310E-12	657.901E-3	-1.88896E-3
-3.83942E-3	-168.255E-12	691.620E-3	-48.3001E-3	-168.507E-12	688.633E-3	-1.09993E-3
-3.84442E-3	-168.829E-12	698.673E-3	-33.9399E-3	-168.422E-12	697.408E-3	-33.0825E-3
-3.84942E-3	-169.600E-12	695.180E-3	615.208E-6	-168.231E-12	676.120E-3	-55.5729E-3
-3.85443E-3	-171.413E-12	707.060E-3	-2.10597E-3	-168.429E-12	655.130E-3	-41.1929E-3
-3.85943E-3	-172.151E-12	704.620E-3	-17.2661E-3	-168.396E-12	637.774E-3	-20.2530E-3
-3.86443E-3	-170.879E-12	682.874E-3	-38.1072E-3	-167.391E-12	634.000E-3	-15.0693E-3
-3.86943E-3	-170.476E-12	678.990E-3	-46.1147E-3	-167.829E-12	639.408E-3	-6.98117E-3
-3.87444E-3	-169.907E-12	693.595E-3	-44.9843E-3	-166.978E-12	646.324E-3	-8.67428E-3
-3.87944E-3	-170.520E-12	697.150E-3	-57.7547E-3	-167.891E-12	645.355E-3	-25.0155E-3
-3.88444E-3	-169.601E-12	675.741E-3	-67.8390E-3	-167.215E-12	647.872E-3	-16.4538E-3
-3.88944E-3	-169.800E-12	655.437E-3	-57.1208E-3	-168.294E-12	668.247E-3	-398.987E-6
-3.89445E-3	-169.298E-12	656.614E-3	-42.1173E-3	-168.079E-12	681.347E-3	-14.7635E-3
-3.89945E-3	-169.204E-12	670.791E-3	-34.3111E-3	-169.093E-12	686.249E-3	-39.2387E-3
-3.90445E-3	-169.678E-12	673.946E-3	-20.5057E-3	-168.532E-12	683.404E-3	-49.3730E-3
-3.90945E-3	-169.270E-12	668.471E-3	-9.24537E-3	-169.955E-12	690.884E-3	-34.8832E-3
-3.91446E-3	-168.094E-12	664.317E-3	582.511E-6	-171.098E-12	706.493E-3	-9.32042E-3
-3.91946E-3	-169.080E-12	656.431E-3	-1.33151E-3	-171.817E-12	698.846E-3	-2.38644E-3
-3.92446E-3	-169.877E-12	662.377E-3	-11.0458E-3	-172.370E-12	693.811E-3	-14.3469E-3
-3.92946E-3	-170.538E-12	683.823E-3	-16.4986E-3	-172.633E-12	693.517E-3	-28.0323E-3
-3.93447E-3	-171.846E-12	698.387E-3	-26.3886E-3	-174.056E-12	673.728E-3	-31.3951E-3
-3.93947E-3	-171.423E-12	676.911E-3	-14.9107E-3	-173.901E-12	637.047E-3	-11.2860E-3
-3.94447E-3	-171.004E-12	645.736E-3	969.709E-6	-171.730E-12	611.663E-3	10.4775E-3
-3.94947E-3	-171.461E-12	644.258E-3	2.73050E-3	-171.362E-12	626.381E-3	355.469E-6
-3.95448E-3	-172.303E-12	646.374E-3	-13.6615E-3	-171.013E-12	650.233E-3	-7.20735E-3
-3.95948E-3	-172.504E-12	660.609E-3	-35.5085E-3	-171.168E-12	639.991E-3	10.4588E-3
-3.96448E-3	-171.296E-12	674.431E-3	-19.9642E-3	-170.299E-12	632.331E-3	13.0311E-3
-3.96948E-3	-171.114E-12	671.808E-3	6.06791E-3	-170.047E-12	644.754E-3	7.00977E-3
-3.97449E-3	-172.413E-12	675.516E-3	25.8344E-3	-170.360E-12	650.324E-3	3.58663E-3
-3.97949E-3	-172.410E-12	668.408E-3	44.4142E-3	-171.046E-12	657.165E-3	-10.1291E-3
-3.98449E-3	-172.478E-12	671.250E-3	24.7756E-3	-171.066E-12	664.132E-3	-17.4592E-3
-3.98949E-3	-172.874E-12	677.848E-3	-9.23434E-3	-171.784E-12	672.179E-3	-15.7628E-3
-3.99450E-3	-172.516E-12	647.238E-3	-29.6818E-3	-172.884E-12	688.686E-3	-7.08273E-3
-3.99950E-3	-172.508E-12	635.982E-3	-37.3572E-3	-173.436E-12	706.047E-3	481.156E-6
-4.00450E-3	-174.478E-12	655.724E-3	-19.3804E-3	-175.040E-12	713.975E-3	-3.87184E-3
-4.00950E-3	-174.869E-12	665.922E-3	-10.4578E-3	-176.237E-12	696.765E-3	-18.4905E-3
-4.01451E-3	-173.548E-12	671.777E-3	-18.2573E-3	-177.810E-12	681.805E-3	-38.9121E-3
-4.01951E-3	-174.019E-12	661.485E-3	-11.0951E-3	-177.892E-12	685.201E-3	-57.6309E-3
-4.02451E-3	-176.435E-12	661.179E-3	12.6416E-3	-177.846E-12	685.359E-3	-52.2268E-3
-4.02951E-3	-177.366E-12	697.058E-3	19.6439E-3	-177.962E-12	685.483E-3	-29.8158E-3
-4.03452E-3	-176.513E-12	706.351E-3	-11.2438E-3	-178.698E-12	695.445E-3	-26.5497E-3
-4.03952E-3	-177.063E-12	682.475E-3	-31.9797E-3	-177.765E-12	701.158E-3	-21.4626E-3
-4.04452E-3	-178.941E-12	669.876E-3	-17.3138E-3	-176.948E-12	690.164E-3	-12.9472E-3
-4.04952E-3	-180.669E-12	670.148E-3	-14.7932E-3	-176.982E-12	681.985E-3	-34.9777E-3
-4.05453E-3	-180.962E-12	679.795E-3	-24.2117E-3	-176.272E-12	677.034E-3	-35.5824E-3
-4.05953E-3	-179.608E-12	698.649E-3	-7.61955E-3	-176.279E-12	676.100E-3	-11.9199E-3
-4.06453E-3	-180.647E-12	708.219E-3	2.97528E-3	-174.864E-12	681.650E-3	-11.3826E-3
-4.06953E-3	-182.183E-12	706.476E-3	-14.2269E-3	-174.800E-12	681.611E-3	-30.4732E-3
-4.07454E-3	-182.749E-12	700.366E-3	-19.6026E-3	-174.426E-12	683.930E-3	-57.0871E-3
-4.07954E-3	-180.856E-12	690.676E-3	-13.2044E-3	-175.530E-12	674.024E-3	-56.4956E-3
-4.08454E-3	-180.983E-12	683.009E-3	-13.0364E-3	-175.360E-12	636.828E-3	-35.1528E-3
-4.08954E-3	-181.743E-12	662.388E-3	-24.4874E-3	-175.565E-12	611.849E-3	-14.1710E-3
-4.09455E-3	-180.957E-12	645.605E-3	-26.7402E-3	-176.122E-12	636.625E-3	-4.10197E-3
-4.09955E-3	-180.077E-12	659.479E-3	-12.8654E-3	-176.954E-12	681.166E-3	-11.8723E-3
-4.10455E-3	-178.865E-12	675.382E-3	-11.4534E-3	-178.779E-12	699.933E-3	-10.3551E-3
-4.10955E-3	-179.606E-12	660.029E-3	-10.4369E-3	-178.816E-12	676.779E-3	-13.7499E-3
-4.11456E-3	-179.355E-12	646.600E-3	-25.4728E-3	-177.957E-12	636.981E-3	-30.2298E-3
-4.11956E-3	-177.283E-12	678.774E-3	-49.7205E-3	-178.495E-12	632.300E-3	-37.2953E-3
-4.12456E-3	-175.652E-12	694.327E-3	-27.3221E-3	-179.085E-12	650.675E-3	-46.0984E-3
-4.12956E-3	-175.999E-12	662.452E-3	-478.352E-6	-179.105E-12	656.103E-3	-37.2362E-3
-4.13457E-3	-177.695E-12	636.824E-3	-14.5354E-3	-177.615E-12	655.423E-3	-710.467E-6
-4.13957E-3	-178.575E-12	638.259E-3	-45.6203E-3	-177.708E-12	658.994E-3	27.3054E-3
-4.14457E-3	-178.004E-12	658.237E-3	-51.9611E-3	-178.514E-12	664.131E-3	8.91161E-3
-4.14957E-3	-178.480E-12	675.005E-3	-25.4601E-3	-178.693E-12	664.628E-3	-42.4840E-3
-4.15458E-3	-182.216E-12	671.114E-3	-33.5069E-3	-178.310E-12	671.904E-3	-67.2107E-3
-4.15958E-3	-183.289E-12	654.000E-3	-57.4743E-3	-178.748E-12	687.025E-3	-65.7296E-3
-4.16458E-3	-182.979E-12	637.358E-3	-40.2503E-3	-179.058E-12	688.942E-3	-47.8005E-3
-4.16958E-3	-183.647E-12	628.449E-3	-26.5443E-3	-178.929E-12	671.665E-3	-19.6504E-3
-4.17459E-3	-185.793E-12	641.148E-3	-26.1847E-3	-180.145E-12	651.200E-3	-15.7149E-3
-4.17959E-3	-186.520E-12	649.790E-3	-16.6116E-3	-180.814E-12	644.033E-3	-21.6042E-3
-4.18459E-3	-185.906E-12	642.226E-3	-16.2866E-3	-182.333E-12	652.894E-3	-29.1780E-3
-4.18959E-3	-186.046E-12	657.181E-3	-28.8499E-3	-183.095E-12	664.119E-3	-33.0365E-3
-4.19460E-3	-186.631E-12	668.577E-3	-38.7952E-3	-183.687E-12	666.218E-3	1.76706E-3
-4.19960E-3	-187.204E-12	669.954E-3	-33.2252E-3	-185.569E-12	662.677E-3	8.89768E-3
-4.20460E-3	-186.078E-12	679.014E-3	-27.8281E-3	-185.316E-12	658.937E-3	-42.9820E-3
-4.20960E-3	-184.489E-12	671.192E-3	-30.0214E-3	-186.137E-12	656.799E-3	-56.2011E-3
-4.21461E-3	-182.497E-12	650.993E-3	-27.7919E-3	-186.214E-12	653.539E-3	-19.6415E-3
-4.21961E-3	-181.890E-12	626.190E-3	-33.4313E-3	-186.904E-12	645.308E-3	7.45482E-3
-4.22461E-3	-181.499E-12	615.136E-3	-35.9941E-3	-187.633E-12	645.374E-3	4.02939E-3
-4.22961E-3	-180.805E-12	635.780E-3	-25.6170E-3	-188.124E-12	674.984E-3	-20.0747E-3
-4.23462E-3	-179.944E-12	659.267E-3	-18.2340E-3	-187.254E-12	689.238E-3	-28.5217E-3
-4.23962E-3	-181.266E-12	664.586E-3	-2.90225E-3	-187.684E-12	671.788E-3	-26.6959E-3
-4.24462E-3	-182.643E-12	666.087E-3	7.23688E-3	-188.629E-12	667.529E-3	-52.5408E-3
-4.24962E-3	-183.698E-12	681.649E-3	-7.90607E-3	-188.422E-12	664.051E-3	-70.7447E-3
-4.25463E-3	-183.285E-12	680.271E-3	-16.1492E-3	-188.268E-12	659.129E-3	-46.7827E-3
-4.25963E-3	-184.527E-12	666.707E-3	-1.71872E-3	-186.954E-12	676.505E-3	-14.1810E-3
-4.26463E-3	-186.903E-12	684.707E-3	20.5972E-3	-187.353E-12	691.044E-3	-1.41915E-3
-4.26963E-3	-188.443E-12	703.963E-3	7.58862E-3	-187.574E-12	675.883E-3	-8.10999E-3
-4.27464E-3	-188.623E-12	691.922E-3	-27.8943E-3	-187.801E-12	662.710E-3	-34.9593E-3
-4.27964E-3	-189.468E-12	678.834E-3	-25.7234E-3	-186.432E-12	653.713E-3	-46.9380E-3
-4.28464E-3	-189.723E-12	675.298E-3	-5.97719E-3	-184.648E-12	624.403E-3	-14.1481E-3
-4.28964E-3	-190.201E-12	667.297E-3	-9.33347E-3	-184.405E-12	611.281E-3	7.70293E-3
-4.29465E-3	-190.411E-12	669.455E-3	-27.4487E-3	-185.545E-12	640.545E-3	-9.57179E-3
-4.29965E-3	-189.562E-12	686.052E-3	-32.6683E-3	-186.806E-12	682.198E-3	2.50513E-3
-4.30465E-3	-190.482E-12	698.246E-3	-28.3762E-3	-184.300E-12	708.456E-3	30.2122E-3
-4.30965E-3	-191.616E-12	692.251E-3	-27.5972E-3	-184.062E-12	702.083E-3	-10.1974E-3
-4.31466E-3	-191.215E-12	682.918E-3	-5.48124E-3	-185.916E-12	664.441E-3	-61.5167E-3
-4.31966E-3	-189.550E-12	687.148E-3	6.45346E-3	-188.826E-12	647.990E-3	-59.3556E-3
-4.32466E-3	-190.094E-12	703.316E-3	194.807E-6	-187.633E-12	658.445E-3	-45.7302E-3
-4.32966E-3	-190.257E-12	698.518E-3	23.0841E-3	-187.033E-12	662.080E-3	-45.8121E-3
-4.33467E-3	-189.403E-12	664.731E-3	29.8518E-3	-187.779E-12	661.630E-3	-41.9431E-3
-4.33967E-3	-188.457E-12	653.371E-3	10.4052E-3	-190.093E-12	666.905E-3	-14.8660E-3
-4.34467E-3	-188.926E-12	672.749E-3	-12.1460E-3	-190.214E-12	676.297E-3	3.04414E-3
-4.34967E-3	-189.991E-12	674.500E-3	-32.1778E-3	-188.807E-12	677.881E-3	-18.7244E-3
-4.35468E-3	-189.635E-12	669.329E-3	-36.7363E-3	-188.122E-12	685.048E-3	-47.1589E-3
-4.35968E-3	-190.024E-12	670.956E-3	-21.6467E-3	-189.023E-12	685.345E-3	-40.9054E-3
-4.36468E-3	-191.082E-12	659.510E-3	-5.76604E-3	-189.708E-12	663.021E-3	-29.8458E-3
-4.36968E-3	-192.731E-12	662.828E-3	-19.0817E-3	-188.837E-12	634.560E-3	-52.7838E-3
-4.37469E-3	-192.509E-12	671.215E-3	-24.1864E-3	-187.430E-12	614.610E-3	-64.8474E-3
-4.37969E-3	-191.297E-12	653.503E-3	-5.60364E-3	-187.159E-12	616.866E-3	-35.8212E-3
-4.38469E-3	-191.328E-12	632.874E-3	4.18555E-3	-187.211E-12	624.589E-3	-342.808E-6
-4.38969E-3	-192.084E-12	625.282E-3	-2.26926E-3	-187.000E-12	634.591E-3	6.21137E-3
-4.39470E-3	-193.452E-12	633.902E-3	-12.5566E-3	-187.459E-12	635.762E-3	-17.3777E-3
-4.39970E-3	-192.240E-12	656.671E-3	-21.9119E-3	-187.737E-12	615.664E-3	-25.1545E-3
-4.40470E-3	-191.177E-12	668.712E-3	-38.0972E-3	-188.821E-12	613.020E-3	-13.3652E-3
-4.40970E-3	-191.484E-12	659.181E-3	-39.8535E-3	-189.917E-12	626.443E-3	-16.1535E-3
-4.41471E-3	-191.677E-12	663.509E-3	-12.9246E-3	-190.762E-12	644.236E-3	-26.6037E-3
-4.41971E-3	-191.047E-12	685.011E-3	33.7202E-3	-193.265E-12	669.046E-3	-35.7469E-3
-4.42471E-3	-191.714E-12	693.212E-3	60.7978E-3	-195.587E-12	674.495E-3	-36.6172E-3
-4.42971E-3	-191.238E-12	695.221E-3	23.4202E-3	-195.903E-12	679.698E-3	-18.9951E-3
-4.43472E-3	-191.138E-12	685.494E-3	-14.3028E-3	-197.840E-12	703.645E-3	-2.45932E-3
-4.43972E-3	-191.426E-12	669.906E-3	3.54256E-3	-198.383E-12	705.178E-3	11.5289E-3
-4.44472E-3	-192.977E-12	668.060E-3	-4.76609E-3	-198.336E-12	686.291E-3	16.9963E-3
-4.44972E-3	-193.577E-12	652.882E-3	-47.5906E-3	-198.451E-12	676.990E-3	-21.3085E-3
-4.45473E-3	-193.471E-12	615.055E-3	-42.3345E-3	-201.220E-12	652.184E-3	-48.8574E-3
-4.45973E-3	-194.730E-12	589.397E-3	-10.9442E-3	-198.962E-12	642.816E-3	-40.1907E-3
-4.46473E-3	-196.198E-12	608.838E-3	-11.6999E-3	-198.351E-12	675.894E-3	-44.3531E-3
-4.46973E-3	-195.864E-12	653.917E-3	-22.0989E-3	-197.880E-12	685.480E-3	-44.4973E-3
-4.47474E-3	-195.944E-12	680.490E-3	-16.2824E-3	-197.931E-12	679.315E-3	-33.6285E-3
-4.47974E-3	-195.671E-12	675.608E-3	-18.2255E-3	-195.897E-12	669.475E-3	-40.6667E-3
-4.48474E-3	-197.860E-12	646.017E-3	-38.6366E-3	-194.396E-12	654.775E-3	-34.1064E-3
-4.48974E-3	-199.183E-12	629.685E-3	-53.5153E-3	-194.415E-12	666.894E-3	-3.12084E-3
-4.49475E-3	-198.449E-12	655.046E-3	-36.9099E-3	-193.935E-12	680.598E-3	3.39083E-3
-4.49975E-3	-198.128E-12	678.123E-3	-20.4930E-3	-195.188E-12	685.044E-3	-2.99143E-3
-4.50475E-3	-197.948E-12	671.517E-3	-32.4215E-3	-195.528E-12	688.445E-3	-8.31653E-3
-4.50975E-3	-198.078E-12	677.680E-3	-29.0081E-3	-195.096E-12	686.425E-3	-23.6201E-3
-4.51476E-3	-197.696E-12	694.420E-3	-9.06401E-3	-195.904E-12	666.484E-3	-20.4465E-3
-4.51976E-3	-197.967E-12	679.607E-3	-15.9945E-3	-197.237E-12	643.099E-3	-10.6801E-3
-4.52476E-3	-195.659E-12	649.372E-3	-41.8970E-3	-197.918E-12	656.186E-3	-8.63631E-3
-4.52976E-3	-195.366E-12	635.779E-3	-44.9742E-3	-197.975E-12	670.414E-3	-14.3663E-3
-4.53477E-3	-195.703E-12	641.510E-3	-30.4419E-3	-198.015E-12	650.563E-3	-18.9545E-3
-4.53977E-3	-196.021E-12	652.000E-3	-29.4967E-3	-198.778E-12	641.513E-3	465.166E-6
-4.54477E-3	-194.238E-12	654.529E-3	-32.0569E-3	-200.519E-12	667.621E-3	17.2490E-3
-4.54977E-3	-194.285E-12	662.773E-3	-37.8569E-3	-200.246E-12	689.434E-3	7.77731E-3
-4.55478E-3	-193.477E-12	670.253E-3	-59.9991E-3	-199.024E-12	686.648E-3	-16.0944E-3
-4.55978E-3	-195.881E-12	657.526E-3	-63.4036E-3	-197.921E-12	691.848E-3	-23.7029E-3
-4.56478E-3	-195.513E-12	621.924E-3	-53.7170E-3	-198.323E-12	696.724E-3	-24.7718E-3
-4.56978E-3	-194.870E-12	597.742E-3	-52.8237E-3	-198.551E-12	691.597E-3	-49.7603E-3
-4.57479E-3	-194.961E-12	624.369E-3	-42.0223E-3	-196.684E-12	683.444E-3	-69.9223E-3
-4.57979E-3	-196.895E-12	653.657E-3	-28.2948E-3	-194.661E-12	650.092E-3	-66.5056E-3
-4.58479E-3	-198.810E-12	645.807E-3	-18.8855E-3	-195.056E-12	635.169E-3	-44.3868E-3
-4.58979E-3	-198.376E-12	636.298E-3	-11.0388E-3	-196.101E-12	639.939E-3	-16.4443E-3
-4.59480E-3	-199.141E-12	649.770E-3	-3.76341E-3	-194.845E-12	638.961E-3	19.9157E-6
-4.59980E-3	-200.672E-12	669.822E-3	1.70465E-3	-195.035E-12	649.967E-3	7.36108E-3
-4.60480E-3	-203.049E-12	682.101E-3	-6.52651E-3	-195.336E-12	668.868E-3	6.92288E-3
-4.60980E-3	-203.265E-12	678.671E-3	-10.0263E-3	-197.267E-12	697.684E-3	-1.10619E-3
-4.61481E-3	-202.401E-12	676.837E-3	-23.0454E-3	-198.088E-12	699.470E-3	-14.7296E-3
-4.61981E-3	-202.592E-12	680.827E-3	-52.0759E-3	-198.049E-12	662.612E-3	-24.3263E-3
-4.62481E-3	-203.604E-12	657.079E-3	-48.8710E-3	-199.751E-12	638.680E-3	-17.7488E-3
-4.62981E-3	-203.834E-12	631.342E-3	-25.5329E-3	-202.338E-12	634.181E-3	-10.1352E-3
-4.63482E-3	-202.118E-12	626.535E-3	-17.1786E-3	-204.321E-12	634.880E-3	-14.4647E-3
-4.63982E-3	-202.212E-12	619.226E-3	-29.0420E-3	-204.480E-12	658.041E-3	3.94626E-3
-4.64482E-3	-202.427E-12	614.944E-3	-52.1283E-3	-205.954E-12	680.377E-3	31.6483E-3
-4.64982E-3	-201.469E-12	629.491E-3	-63.1477E-3	-208.247E-12	683.409E-3	14.1788E-3
-4.65483E-3	-201.484E-12	671.221E-3	-41.2228E-3	-209.445E-12	682.893E-3	-13.7126E-3
-4.65983E-3	-201.787E-12	697.044E-3	-17.3893E-3	-208.827E-12	668.175E-3	-14.3016E-3
-4.66483E-3	-202.517E-12	675.517E-3	-1.03953E-3	-208.018E-12	657.034E-3	-16.0166E-3
-4.66983E-3	-203.322E-12	667.006E-3	23.2138E-3	-208.301E-12	663.229E-3	-23.0257E-3
-4.67484E-3	-203.572E-12	675.782E-3	26.7588E-3	-207.795E-12	654.361E-3	-29.8366E-3
-4.67984E-3	-205.036E-12	677.356E-3	20.8992E-3	-207.741E-12	643.821E-3	-29.6576E-3
-4.68484E-3	-206.336E-12	675.401E-3	22.7271E-3	-206.041E-12	634.106E-3	-5.06107E-3
-4.68984E-3	-206.533E-12	670.806E-3	-2.87871E-3	-204.829E-12	619.235E-3	13.6255E-3
-4.69485E-3	-205.965E-12	676.137E-3	-38.5918E-3	-205.183E-12	637.876E-3	5.72592E-3
-4.69985E-3	-207.016E-12	678.657E-3	-49.1266E-3	-203.875E-12	656.278E-3	-11.8639E-3
-4.70485E-3	-206.573E-12	660.612E-3	-32.6577E-3	-202.976E-12	643.575E-3	-37.0853E-3
-4.70985E-3	-206.771E-12	637.770E-3	-7.25708E-3	-201.059E-12	634.829E-3	-42.1235E-3
-4.71486E-3	-207.613E-12	625.793E-3	-9.87853E-3	-201.941E-12	628.694E-3	-17.7975E-3
-4.71986E-3	-206.471E-12	618.417E-3	-45.0750E-3	-202.068E-12	619.446E-3	14.9209E-3
-4.72486E-3	-205.321E-12	615.631E-3	-64.4830E-3	-202.215E-12	620.475E-3	15.0718E-3
-4.72986E-3	-204.763E-12	635.686E-3	-29.2752E-3	-201.311E-12	620.106E-3	-30.3855E-3
-4.73487E-3	-204.884E-12	672.987E-3	6.33891E-3	-202.538E-12	626.639E-3	-63.3125E-3
-4.73987E-3	-204.956E-12	673.772E-3	1.31353E-3	-205.220E-12	651.471E-3	-60.5215E-3
-4.74487E-3	-205.197E-12	651.285E-3	-29.9365E-3	-205.470E-12	655.499E-3	-53.1823E-3
-4.74988E-3	-204.637E-12	666.504E-3	-46.5208E-3	-205.761E-12	653.066E-3	-41.8604E-3
-4.75488E-3	-206.716E-12	670.811E-3	-27.5221E-3	-207.298E-12	664.205E-3	-26.6301E-3
-4.75988E-3	-207.823E-12	667.331E-3	-11.1883E-3	-209.857E-12	656.492E-3	-34.0506E-3
-4.76488E-3	-207.075E-12	690.697E-3	173.515E-6	-210.747E-12	646.528E-3	-59.1797E-3
-4.76988E-3	-206.480E-12	678.143E-3	-360.875E-6	-211.695E-12	659.366E-3	-67.6155E-3
-4.77489E-3	-206.491E-12	643.662E-3	-15.1110E-3	-211.729E-12	678.849E-3	-39.3977E-3
-4.77989E-3	-208.305E-12	628.188E-3	-31.6566E-3	-212.207E-12	680.857E-3	-12.4761E-3
-4.78489E-3	-209.580E-12	628.507E-3	-50.8356E-3	-212.056E-12	660.716E-3	-38.8712E-3
-4.78989E-3	-210.283E-12	641.807E-3	-44.5303E-3	-211.462E-12	636.377E-3	-67.8187E-3
-4.79490E-3	-209.045E-12	657.358E-3	-23.2868E-3	-210.586E-12	653.970E-3	-29.7904E-3
-4.79990E-3	-209.687E-12	678.458E-3	-18.0433E-3	-209.736E-12	697.430E-3	15.9597E-3
-4.80490E-3	-209.772E-12	704.433E-3	-21.7534E-3	-208.889E-12	686.427E-3	19.7272E-3
-4.80990E-3	-211.600E-12	723.030E-3	-17.4145E-3	-207.462E-12	638.271E-3	4.79003E-3
-4.81491E-3	-209.483E-12	728.445E-3	-8.32588E-3	-207.110E-12	632.764E-3	-26.6033E-3
-4.81991E-3	-207.997E-12	720.910E-3	5.66772E-3	-206.769E-12	664.476E-3	-47.2279E-3
-4.82491E-3	-207.494E-12	709.719E-3	5.04486E-3	-206.779E-12	674.573E-3	-28.4799E-3
-4.82991E-3	-208.198E-12	701.941E-3	-619.490E-6	-205.543E-12	656.015E-3	720.206E-6
-4.83492E-3	-208.721E-12	678.671E-3	772.740E-6	-207.431E-12	660.235E-3	2.02640E-3
-4.83992E-3	-206.721E-12	645.705E-3	-30.1238E-3	-209.105E-12	698.245E-3	-40.2653E-3
-4.84492E-3	-205.849E-12	643.338E-3	-68.7721E-3	-209.886E-12	710.249E-3	-67.6800E-3
-4.84992E-3	-208.019E-12	651.073E-3	-66.1407E-3	-210.426E-12	673.189E-3	-53.5842E-3
-4.85493E-3	-210.891E-12	650.696E-3	-22.4718E-3	-212.455E-12	646.285E-3	-37.3803E-3
-4.85993E-3	-210.015E-12	668.393E-3	17.3431E-3	-214.718E-12	657.502E-3	-10.2644E-3
-4.86493E-3	-210.037E-12	671.539E-3	5.56518E-3	-215.571E-12	689.940E-3	9.81865E-3
-4.86993E-3	-211.732E-12	650.362E-3	-36.1921E-3	-216.093E-12	695.595E-3	-7.67711E-3
-4.87494E-3	-214.845E-12	642.420E-3	-55.3597E-3	-217.745E-12	661.659E-3	-21.6887E-3
-4.87994E-3	-216.534E-12	645.590E-3	-36.2440E-3	-218.952E-12	641.155E-3	-13.4501E-3
-4.88494E-3	-215.325E-12	657.802E-3	-9.96601E-3	-218.263E-12	643.364E-3	-29.0401E-3
-4.88995E-3	-215.901E-12	651.472E-3	-12.8787E-3	-216.734E-12	657.218E-3	-58.3249E-3
-4.89495E-3	-217.594E-12	627.262E-3	-35.7376E-3	-216.900E-12	671.383E-3	-56.1581E-3
-4.89995E-3	-221.914E-12	622.035E-3	-37.1729E-3	-215.633E-12	681.391E-3	-15.8391E-3
-4.90495E-3	-221.728E-12	624.629E-3	-24.1679E-3	-214.471E-12	699.112E-3	10.9265E-3
-4.90995E-3	-219.039E-12	652.493E-3	-26.4242E-3	-213.195E-12	681.515E-3	15.8836E-3
-4.91496E-3	-219.026E-12	694.515E-3	-24.7909E-3	-213.198E-12	635.538E-3	16.0190E-3
-4.91996E-3	-220.770E-12	687.236E-3	-25.2188E-3	-212.584E-12	640.290E-3	-17.1772E-3
-4.92496E-3	-221.940E-12	653.978E-3	-26.6998E-3	-211.509E-12	651.004E-3	-52.6111E-3
-4.92996E-3	-219.546E-12	653.195E-3	-3.12239E-3	-210.713E-12	634.950E-3	-57.1443E-3
-4.93497E-3	-218.351E-12	679.214E-3	6.78986E-3	-210.894E-12	633.474E-3	-64.4558E-3
-4.93997E-3	-217.378E-12	674.448E-3	-26.8810E-3	-211.344E-12	643.420E-3	-55.2300E-3
-4.94497E-3	-218.641E-12	631.455E-3	-56.8253E-3	-211.654E-12	661.424E-3	-25.2304E-3
-4.94997E-3	-217.902E-12	611.488E-3	-50.0772E-3	-213.156E-12	673.651E-3	-13.0550E-3
-4.95498E-3	-214.803E-12	622.513E-3	-23.6402E-3	-213.176E-12	674.209E-3	-10.2439E-3
-4.95998E-3	-213.817E-12	635.225E-3	4.99615E-3	-215.433E-12	670.521E-3	-9.56823E-3
-4.96498E-3	-214.208E-12	617.272E-3	4.10854E-3	-216.815E-12	654.602E-3	-25.0772E-3
-4.96998E-3	-214.910E-12	602.433E-3	-37.2083E-3	-217.400E-12	649.774E-3	-25.4599E-3
-4.97499E-3	-212.989E-12	650.752E-3	-63.8037E-3	-217.480E-12	681.496E-3	643.092E-6
-4.97999E-3	-213.142E-12	684.965E-3	-53.9713E-3	-216.616E-12	709.320E-3	19.3067E-3
-4.98499E-3	-213.403E-12	670.158E-3	-43.7050E-3	-217.142E-12	691.389E-3	20.8241E-3
-4.98999E-3	-215.328E-12	653.011E-3	-30.3726E-3	-217.802E-12	674.684E-3	-1.18112E-3
-4.99500E-3	-215.691E-12	647.734E-3	-21.6130E-3	-217.231E-12	696.302E-3	-34.5244E-3
-5.00000E-3	-215.202E-12	675.476E-3	-34.0202E-3	-214.600E-12	706.543E-3	-46.4980E-3
